SAO LUIS EMBRACE-03 <020> 1 Min. Reported data

 DD MM YYYY  HH MM   D(Deg)  H(nT)   Z(nT)   I(Deg)   F(nT)

 20 01 2013  00 00  -21.0176 26040.9 -03391.6 -07.4205 26260.8
 20 01 2013  00 01  -21.0174 26041.1 -03391.7 -07.4207 26261.1
 20 01 2013  00 02  -21.0174 26041.0 -03391.6 -07.4205 26260.9
 20 01 2013  00 03  -21.0180 26040.6 -03391.4 -07.4202 26260.5
 20 01 2013  00 04  -21.0185 26040.4 -03391.3 -07.4200 26260.3
 20 01 2013  00 05  -21.0190 26040.2 -03391.2 -07.4197 26260.1
 20 01 2013  00 06  -21.0196 26039.6 -03390.9 -07.4193 26259.4
 20 01 2013  00 07  -21.0200 26039.2 -03390.6 -07.4189 26259.1
 20 01 2013  00 08  -21.0204 26039.0 -03390.5 -07.4186 26258.8
 20 01 2013  00 09  -21.0206 26038.8 -03390.4 -07.4184 26258.6
 20 01 2013  00 10  -21.0210 26038.6 -03390.3 -07.4184 26258.4
 20 01 2013  00 11  -21.0215 26038.5 -03390.3 -07.4183 26258.3
 20 01 2013  00 12  -21.0219 26038.6 -03390.3 -07.4183 26258.3
 20 01 2013  00 13  -21.0221 26038.8 -03390.4 -07.4185 26258.6
 20 01 2013  00 14  -21.0222 26038.9 -03390.5 -07.4187 26258.7
 20 01 2013  00 15  -21.0225 26038.7 -03390.4 -07.4185 26258.5
 20 01 2013  00 16  -21.0236 26038.1 -03390.1 -07.4180 26257.8
 20 01 2013  00 17  -21.0246 26037.4 -03389.7 -07.4174 26257.1
 20 01 2013  00 18  -21.0255 26036.9 -03389.4 -07.4169 26256.5
 20 01 2013  00 19  -21.0261 26036.3 -03389.1 -07.4164 26256.0
 20 01 2013  00 20  -21.0266 26035.8 -03388.9 -07.4160 26255.5
 20 01 2013  00 21  -21.0275 26035.0 -03388.5 -07.4154 26254.6
 20 01 2013  00 22  -21.0281 26034.6 -03388.2 -07.4149 26254.2
 20 01 2013  00 23  -21.0282 26034.3 -03388.0 -07.4146 26253.8
 20 01 2013  00 24  -21.0282 26033.9 -03387.8 -07.4143 26253.4
 20 01 2013  00 25  -21.0281 26033.6 -03387.7 -07.4141 26253.1
 20 01 2013  00 26  -21.0281 26033.1 -03387.5 -07.4138 26252.6
 20 01 2013  00 27  -21.0284 26032.9 -03387.4 -07.4136 26252.3
 20 01 2013  00 28  -21.0284 26032.8 -03387.4 -07.4137 26252.2
 20 01 2013  00 29  -21.0283 26032.7 -03387.4 -07.4137 26252.1
 20 01 2013  00 30  -21.0281 26032.8 -03387.5 -07.4139 26252.3
 20 01 2013  00 31  -21.0281 26033.1 -03387.7 -07.4142 26252.6
 20 01 2013  00 32  -21.0281 26033.3 -03387.9 -07.4145 26252.8
 20 01 2013  00 33  -21.0280 26033.4 -03387.9 -07.4147 26252.9
 20 01 2013  00 34  -21.0280 26033.5 -03388.0 -07.4148 26253.1
 20 01 2013  00 35  -21.0280 26033.7 -03388.1 -07.4150 26253.2
 20 01 2013  00 36  -21.0282 26033.6 -03388.1 -07.4151 26253.2
 20 01 2013  00 37  -21.0287 26033.6 -03388.1 -07.4150 26253.1
 20 01 2013  00 38  -21.0292 26033.5 -03388.1 -07.4151 26253.1
 20 01 2013  00 39  -21.0293 26033.4 -03388.1 -07.4150 26253.0
 20 01 2013  00 40  -21.0295 26033.3 -03388.0 -07.4149 26252.8
 20 01 2013  00 41  -21.0298 26032.9 -03387.8 -07.4146 26252.4
 20 01 2013  00 42  -21.0302 26032.3 -03387.6 -07.4142 26251.8
 20 01 2013  00 43  -21.0305 26031.5 -03387.2 -07.4137 26251.0
 20 01 2013  00 44  -21.0307 26030.9 -03386.9 -07.4132 26250.3
 20 01 2013  00 45  -21.0307 26030.5 -03386.7 -07.4129 26249.9
 20 01 2013  00 46  -21.0305 26030.3 -03386.7 -07.4129 26249.6
 20 01 2013  00 47  -21.0304 26030.2 -03386.8 -07.4131 26249.6
 20 01 2013  00 48  -21.0308 26030.3 -03387.0 -07.4134 26249.7
 20 01 2013  00 49  -21.0314 26030.6 -03387.2 -07.4139 26250.0
 20 01 2013  00 50  -21.0318 26030.7 -03387.4 -07.4143 26250.2
 20 01 2013  00 51  -21.0320 26030.8 -03387.5 -07.4145 26250.3
 20 01 2013  00 52  -21.0320 26030.9 -03387.6 -07.4148 26250.4
 20 01 2013  00 53  -21.0317 26031.0 -03387.7 -07.4149 26250.5
 20 01 2013  00 54  -21.0316 26031.0 -03387.8 -07.4151 26250.6
 20 01 2013  00 55  -21.0316 26030.9 -03387.8 -07.4152 26250.5
 20 01 2013  00 56  -21.0317 26030.6 -03387.8 -07.4151 26250.2
 20 01 2013  00 57  -21.0314 26030.3 -03387.6 -07.4149 26249.8
 20 01 2013  00 58  -21.0312 26030.1 -03387.6 -07.4148 26249.6
 20 01 2013  00 59  -21.0311 26030.4 -03387.7 -07.4151 26249.9
 20 01 2013  01 00  -21.0308 26031.1 -03388.2 -07.4159 26250.7
 20 01 2013  01 01  -21.0305 26031.9 -03388.7 -07.4167 26251.6
 20 01 2013  01 02  -21.0305 26032.4 -03389.1 -07.4174 26252.1
 20 01 2013  01 03  -21.0302 26032.7 -03389.2 -07.4177 26252.4
 20 01 2013  01 04  -21.0301 26032.8 -03389.3 -07.4179 26252.5
 20 01 2013  01 05  -21.0301 26032.6 -03389.3 -07.4178 26252.3
 20 01 2013  01 06  -21.0303 26032.1 -03389.0 -07.4174 26251.8
 20 01 2013  01 07  -21.0306 26031.6 -03388.8 -07.4171 26251.3
 20 01 2013  01 08  -21.0307 26031.3 -03388.7 -07.4168 26251.0
 20 01 2013  01 09  -21.0307 26030.9 -03388.5 -07.4165 26250.5
 20 01 2013  01 10  -21.0302 26030.6 -03388.3 -07.4163 26250.2
 20 01 2013  01 11  -21.0293 26030.3 -03388.2 -07.4161 26249.9
 20 01 2013  01 12  -21.0284 26030.3 -03388.2 -07.4162 26249.9
 20 01 2013  01 13  -21.0277 26030.2 -03388.3 -07.4164 26249.8
 20 01 2013  01 14  -21.0270 26030.1 -03388.4 -07.4166 26249.8
 20 01 2013  01 15  -21.0265 26030.2 -03388.6 -07.4170 26249.8
 20 01 2013  01 16  -21.0262 26030.2 -03388.7 -07.4173 26249.9
 20 01 2013  01 17  -21.0264 26030.2 -03388.9 -07.4177 26249.9
 20 01 2013  01 18  -21.0267 26030.4 -03389.1 -07.4181 26250.1
 20 01 2013  01 19  -21.0267 26030.7 -03389.4 -07.4186 26250.5
 20 01 2013  01 20  -21.0266 26030.8 -03389.6 -07.4189 26250.5
 20 01 2013  01 21  -21.0261 26030.8 -03389.6 -07.4190 26250.5
 20 01 2013  01 22  -21.0259 26030.9 -03389.7 -07.4193 26250.7
 20 01 2013  01 23  -21.0259 26031.1 -03389.9 -07.4196 26250.9
 20 01 2013  01 24  -21.0262 26031.3 -03390.2 -07.4201 26251.1
 20 01 2013  01 25  -21.0266 26031.5 -03390.3 -07.4204 26251.3
 20 01 2013  01 26  -21.0271 26031.6 -03390.5 -07.4206 26251.4
 20 01 2013  01 27  -21.0276 26031.8 -03390.6 -07.4209 26251.7
 20 01 2013  01 28  -21.0280 26032.1 -03390.8 -07.4212 26252.0
 20 01 2013  01 29  -21.0286 26032.0 -03390.8 -07.4213 26252.0
 20 01 2013  01 30  -21.0290 26032.1 -03390.8 -07.4213 26252.0
 20 01 2013  01 31  -21.0292 26031.9 -03390.8 -07.4212 26251.8
 20 01 2013  01 32  -21.0292 26031.8 -03390.7 -07.4211 26251.7
 20 01 2013  01 33  -21.0291 26031.7 -03390.6 -07.4209 26251.6
 20 01 2013  01 34  -21.0290 26031.7 -03390.6 -07.4209 26251.6
 20 01 2013  01 35  -21.0289 26031.6 -03390.6 -07.4210 26251.5
 20 01 2013  01 36  -21.0290 26031.5 -03390.6 -07.4210 26251.4
 20 01 2013  01 37  -21.0291 26031.2 -03390.5 -07.4208 26251.1
 20 01 2013  01 38  -21.0295 26030.9 -03390.4 -07.4207 26250.7
 20 01 2013  01 39  -21.0298 26030.7 -03390.3 -07.4206 26250.6
 20 01 2013  01 40  -21.0299 26030.7 -03390.4 -07.4207 26250.6
 20 01 2013  01 41  -21.0298 26030.7 -03390.4 -07.4208 26250.6
 20 01 2013  01 42  -21.0298 26030.8 -03390.5 -07.4209 26250.7
 20 01 2013  01 43  -21.0297 26031.4 -03390.8 -07.4214 26251.3
 20 01 2013  01 44  -21.0297 26031.9 -03391.1 -07.4220 26251.8
 20 01 2013  01 45  -21.0296 26032.4 -03391.4 -07.4225 26252.3
 20 01 2013  01 46  -21.0297 26032.7 -03391.6 -07.4229 26252.7
 20 01 2013  01 47  -21.0298 26032.8 -03391.7 -07.4230 26252.8
 20 01 2013  01 48  -21.0301 26032.9 -03391.7 -07.4231 26252.9
 20 01 2013  01 49  -21.0306 26033.1 -03391.8 -07.4232 26253.1
 20 01 2013  01 50  -21.0309 26033.5 -03392.0 -07.4235 26253.6
 20 01 2013  01 51  -21.0313 26033.7 -03392.1 -07.4236 26253.7
 20 01 2013  01 52  -21.0316 26033.6 -03392.0 -07.4234 26253.7
 20 01 2013  01 53  -21.0319 26033.4 -03391.8 -07.4231 26253.5
 20 01 2013  01 54  -21.0320 26033.3 -03391.7 -07.4228 26253.3
 20 01 2013  01 55  -21.0325 26033.1 -03391.6 -07.4227 26253.1
 20 01 2013  01 56  -21.0334 26032.8 -03391.4 -07.4224 26252.7
 20 01 2013  01 57  -21.0341 26032.4 -03391.2 -07.4221 26252.4
 20 01 2013  01 58  -21.0343 26032.1 -03391.0 -07.4217 26252.0
 20 01 2013  01 59  -21.0343 26031.8 -03390.8 -07.4214 26251.7
 20 01 2013  02 00  -21.0345 26031.4 -03390.6 -07.4210 26251.3
 20 01 2013  02 01  -21.0349 26031.0 -03390.4 -07.4207 26250.9
 20 01 2013  02 02  -21.0352 26030.6 -03390.2 -07.4203 26250.4
 20 01 2013  02 03  -21.0354 26030.0 -03389.9 -07.4198 26249.8
 20 01 2013  02 04  -21.0356 26029.5 -03389.6 -07.4194 26249.2
 20 01 2013  02 05  -21.0358 26029.1 -03389.4 -07.4191 26248.8
 20 01 2013  02 06  -21.0361 26028.4 -03389.2 -07.4187 26248.2
 20 01 2013  02 07  -21.0367 26027.7 -03388.8 -07.4182 26247.3
 20 01 2013  02 08  -21.0373 26026.9 -03388.5 -07.4177 26246.6
 20 01 2013  02 09  -21.0379 26026.3 -03388.3 -07.4174 26245.9
 20 01 2013  02 10  -21.0379 26025.8 -03388.1 -07.4171 26245.5
 20 01 2013  02 11  -21.0376 26025.6 -03388.0 -07.4171 26245.2
 20 01 2013  02 12  -21.0371 26025.8 -03388.2 -07.4174 26245.4
 20 01 2013  02 13  -21.0368 26026.2 -03388.6 -07.4180 26245.9
 20 01 2013  02 14  -21.0366 26026.6 -03388.9 -07.4187 26246.3
 20 01 2013  02 15  -21.0366 26027.0 -03389.2 -07.4193 26246.7
 20 01 2013  02 16  -21.0365 26027.4 -03389.5 -07.4198 26247.2
 20 01 2013  02 17  -21.0367 26027.7 -03389.8 -07.4203 26247.5
 20 01 2013  02 18  -21.0369 26028.2 -03390.1 -07.4208 26248.0
 20 01 2013  02 19  -21.0374 26028.6 -03390.4 -07.4214 26248.5
 20 01 2013  02 20  -21.0381 26028.9 -03390.6 -07.4217 26248.8
 20 01 2013  02 21  -21.0387 26029.1 -03390.7 -07.4219 26249.0
 20 01 2013  02 22  -21.0389 26029.2 -03390.7 -07.4218 26249.1
 20 01 2013  02 23  -21.0390 26029.1 -03390.6 -07.4217 26249.0
 20 01 2013  02 24  -21.0393 26029.0 -03390.5 -07.4214 26248.9
 20 01 2013  02 25  -21.0394 26029.0 -03390.5 -07.4214 26248.9
 20 01 2013  02 26  -21.0395 26029.2 -03390.5 -07.4214 26249.1
 20 01 2013  02 27  -21.0397 26029.3 -03390.5 -07.4215 26249.2
 20 01 2013  02 28  -21.0400 26029.3 -03390.5 -07.4215 26249.2
 20 01 2013  02 29  -21.0402 26029.3 -03390.5 -07.4214 26249.2
 20 01 2013  02 30  -21.0404 26029.2 -03390.4 -07.4213 26249.1
 20 01 2013  02 31  -21.0408 26029.3 -03390.4 -07.4212 26249.2
 20 01 2013  02 32  -21.0412 26029.1 -03390.4 -07.4211 26249.0
 20 01 2013  02 33  -21.0415 26028.9 -03390.2 -07.4209 26248.8
 20 01 2013  02 34  -21.0415 26028.8 -03390.1 -07.4206 26248.6
 20 01 2013  02 35  -21.0417 26028.7 -03390.0 -07.4205 26248.5
 20 01 2013  02 36  -21.0420 26028.5 -03389.9 -07.4204 26248.3
 20 01 2013  02 37  -21.0420 26028.4 -03389.8 -07.4202 26248.2
 20 01 2013  02 38  -21.0420 26028.4 -03389.8 -07.4201 26248.2
 20 01 2013  02 39  -21.0420 26028.3 -03389.8 -07.4201 26248.1
 20 01 2013  02 40  -21.0422 26028.3 -03389.8 -07.4201 26248.1
 20 01 2013  02 41  -21.0425 26028.2 -03389.8 -07.4201 26248.0
 20 01 2013  02 42  -21.0428 26028.2 -03389.8 -07.4201 26248.1
 20 01 2013  02 43  -21.0431 26028.2 -03389.8 -07.4201 26248.1
 20 01 2013  02 44  -21.0434 26028.3 -03389.8 -07.4201 26248.1
 20 01 2013  02 45  -21.0437 26028.2 -03389.8 -07.4201 26248.0
 20 01 2013  02 46  -21.0440 26028.2 -03389.7 -07.4200 26248.0
 20 01 2013  02 47  -21.0444 26028.2 -03389.7 -07.4200 26248.0
 20 01 2013  02 48  -21.0449 26028.3 -03389.8 -07.4201 26248.1
 20 01 2013  02 49  -21.0453 26028.3 -03389.7 -07.4200 26248.1
 20 01 2013  02 50  -21.0457 26028.2 -03389.7 -07.4199 26248.0
 20 01 2013  02 51  -21.0461 26028.3 -03389.7 -07.4199 26248.1
 20 01 2013  02 52  -21.0466 26028.4 -03389.7 -07.4199 26248.2
 20 01 2013  02 53  -21.0472 26028.6 -03389.8 -07.4200 26248.4
 20 01 2013  02 54  -21.0476 26028.8 -03389.8 -07.4200 26248.6
 20 01 2013  02 55  -21.0480 26029.0 -03389.9 -07.4202 26248.9
 20 01 2013  02 56  -21.0483 26029.2 -03389.9 -07.4201 26249.0
 20 01 2013  02 57  -21.0485 26029.3 -03389.9 -07.4200 26249.1
 20 01 2013  02 58  -21.0489 26029.4 -03389.9 -07.4200 26249.2
 20 01 2013  02 59  -21.0493 26029.6 -03389.9 -07.4200 26249.4
 20 01 2013  03 00  -21.0498 26029.7 -03389.9 -07.4200 26249.5
 20 01 2013  03 01  -21.0503 26029.7 -03389.9 -07.4199 26249.5
 20 01 2013  03 02  -21.0504 26029.9 -03389.9 -07.4199 26249.7
 20 01 2013  03 03  -21.0504 26030.0 -03389.9 -07.4198 26249.8
 20 01 2013  03 04  -21.0502 26030.1 -03389.9 -07.4198 26249.9
 20 01 2013  03 05  -21.0501 26030.3 -03389.9 -07.4198 26250.1
 20 01 2013  03 06  -21.0500 26030.4 -03389.9 -07.4198 26250.2
 20 01 2013  03 07  -21.0499 26030.5 -03389.9 -07.4198 26250.3
 20 01 2013  03 08  -21.0498 26030.7 -03390.0 -07.4199 26250.5
 20 01 2013  03 09  -21.0497 26030.8 -03390.0 -07.4199 26250.6
 20 01 2013  03 10  -21.0495 26030.9 -03390.0 -07.4199 26250.7
 20 01 2013  03 11  -21.0494 26030.9 -03390.0 -07.4199 26250.7
 20 01 2013  03 12  -21.0492 26031.0 -03390.1 -07.4200 26250.8
 20 01 2013  03 13  -21.0491 26031.0 -03390.1 -07.4200 26250.9
 20 01 2013  03 14  -21.0491 26031.2 -03390.2 -07.4201 26251.0
 20 01 2013  03 15  -21.0493 26031.3 -03390.2 -07.4203 26251.1
 20 01 2013  03 16  -21.0493 26031.5 -03390.4 -07.4204 26251.4
 20 01 2013  03 17  -21.0495 26031.7 -03390.5 -07.4206 26251.6
 20 01 2013  03 18  -21.0496 26031.8 -03390.5 -07.4207 26251.7
 20 01 2013  03 19  -21.0499 26032.0 -03390.6 -07.4209 26251.9
 20 01 2013  03 20  -21.0500 26032.2 -03390.7 -07.4210 26252.1
 20 01 2013  03 21  -21.0503 26032.5 -03390.8 -07.4212 26252.4
 20 01 2013  03 22  -21.0506 26032.6 -03390.9 -07.4213 26252.5
 20 01 2013  03 23  -21.0509 26032.8 -03391.0 -07.4214 26252.7
 20 01 2013  03 24  -21.0513 26032.8 -03391.0 -07.4214 26252.7
 20 01 2013  03 25  -21.0515 26032.7 -03390.8 -07.4212 26252.6
 20 01 2013  03 26  -21.0519 26032.6 -03390.7 -07.4209 26252.5
 20 01 2013  03 27  -21.0522 26032.5 -03390.6 -07.4208 26252.3
 20 01 2013  03 28  -21.0525 26032.4 -03390.6 -07.4207 26252.3
 20 01 2013  03 29  -21.0525 26032.4 -03390.5 -07.4205 26252.2
 20 01 2013  03 30  -21.0524 26032.3 -03390.4 -07.4203 26252.2
 20 01 2013  03 31  -21.0523 26032.3 -03390.4 -07.4203 26252.2
 20 01 2013  03 32  -21.0524 26032.4 -03390.4 -07.4203 26252.3
 20 01 2013  03 33  -21.0527 26032.7 -03390.6 -07.4206 26252.6
 20 01 2013  03 34  -21.0527 26032.8 -03390.7 -07.4208 26252.7
 20 01 2013  03 35  -21.0528 26033.0 -03390.8 -07.4209 26252.9
 20 01 2013  03 36  -21.0529 26033.2 -03390.8 -07.4210 26253.1
 20 01 2013  03 37  -21.0529 26033.4 -03390.9 -07.4211 26253.3
 20 01 2013  03 38  -21.0529 26033.7 -03391.0 -07.4213 26253.6
 20 01 2013  03 39  -21.0530 26034.0 -03391.2 -07.4216 26254.0
 20 01 2013  03 40  -21.0532 26034.4 -03391.4 -07.4219 26254.4
 20 01 2013  03 41  -21.0532 26034.7 -03391.5 -07.4220 26254.7
 20 01 2013  03 42  -21.0533 26035.0 -03391.6 -07.4222 26254.9
 20 01 2013  03 43  -21.0534 26035.2 -03391.7 -07.4223 26255.2
 20 01 2013  03 44  -21.0535 26035.5 -03391.9 -07.4226 26255.5
 20 01 2013  03 45  -21.0536 26035.9 -03392.0 -07.4227 26255.9
 20 01 2013  03 46  -21.0536 26036.2 -03392.1 -07.4229 26256.3
 20 01 2013  03 47  -21.0536 26036.5 -03392.2 -07.4230 26256.5
 20 01 2013  03 48  -21.0538 26036.8 -03392.3 -07.4231 26256.8
 20 01 2013  03 49  -21.0541 26037.0 -03392.3 -07.4232 26257.0
 20 01 2013  03 50  -21.0543 26037.1 -03392.3 -07.4231 26257.1
 20 01 2013  03 51  -21.0546 26037.0 -03392.2 -07.4229 26257.0
 20 01 2013  03 52  -21.0549 26036.9 -03392.1 -07.4226 26256.9
 20 01 2013  03 53  -21.0554 26036.8 -03391.9 -07.4224 26256.8
 20 01 2013  03 54  -21.0559 26036.6 -03391.8 -07.4221 26256.6
 20 01 2013  03 55  -21.0566 26036.6 -03391.7 -07.4218 26256.5
 20 01 2013  03 56  -21.0572 26036.4 -03391.5 -07.4216 26256.4
 20 01 2013  03 57  -21.0576 26036.3 -03391.4 -07.4213 26256.2
 20 01 2013  03 58  -21.0582 26036.1 -03391.2 -07.4210 26256.0
 20 01 2013  03 59  -21.0589 26036.0 -03391.1 -07.4208 26255.9
 20 01 2013  04 00  -21.0593 26035.8 -03390.9 -07.4205 26255.6
 20 01 2013  04 01  -21.0596 26035.6 -03390.8 -07.4202 26255.5
 20 01 2013  04 02  -21.0600 26035.7 -03390.7 -07.4201 26255.5
 20 01 2013  04 03  -21.0604 26035.6 -03390.7 -07.4199 26255.5
 20 01 2013  04 04  -21.0608 26035.6 -03390.6 -07.4197 26255.4
 20 01 2013  04 05  -21.0610 26035.5 -03390.5 -07.4196 26255.4
 20 01 2013  04 06  -21.0612 26035.5 -03390.4 -07.4194 26255.3
 20 01 2013  04 07  -21.0613 26035.3 -03390.2 -07.4191 26255.1
 20 01 2013  04 08  -21.0612 26035.0 -03390.1 -07.4189 26254.8
 20 01 2013  04 09  -21.0612 26034.7 -03389.9 -07.4186 26254.5
 20 01 2013  04 10  -21.0608 26034.4 -03389.7 -07.4183 26254.1
 20 01 2013  04 11  -21.0605 26034.2 -03389.6 -07.4181 26253.9
 20 01 2013  04 12  -21.0602 26034.1 -03389.5 -07.4180 26253.8
 20 01 2013  04 13  -21.0598 26034.1 -03389.6 -07.4180 26253.8
 20 01 2013  04 14  -21.0596 26034.2 -03389.6 -07.4181 26254.0
 20 01 2013  04 15  -21.0596 26034.4 -03389.8 -07.4184 26254.1
 20 01 2013  04 16  -21.0598 26034.6 -03389.9 -07.4187 26254.4
 20 01 2013  04 17  -21.0601 26034.8 -03390.1 -07.4190 26254.6
 20 01 2013  04 18  -21.0601 26034.9 -03390.2 -07.4192 26254.7
 20 01 2013  04 19  -21.0604 26034.9 -03390.2 -07.4192 26254.7
 20 01 2013  04 20  -21.0606 26034.8 -03390.2 -07.4191 26254.6
 20 01 2013  04 21  -21.0607 26034.8 -03390.1 -07.4190 26254.5
 20 01 2013  04 22  -21.0606 26034.8 -03390.1 -07.4190 26254.5
 20 01 2013  04 23  -21.0607 26034.8 -03390.1 -07.4190 26254.6
 20 01 2013  04 24  -21.0609 26034.9 -03390.2 -07.4191 26254.7
 20 01 2013  04 25  -21.0608 26035.1 -03390.3 -07.4193 26254.9
 20 01 2013  04 26  -21.0607 26035.4 -03390.4 -07.4195 26255.2
 20 01 2013  04 27  -21.0607 26035.7 -03390.6 -07.4197 26255.6
 20 01 2013  04 28  -21.0609 26036.0 -03390.7 -07.4200 26255.8
 20 01 2013  04 29  -21.0609 26036.2 -03390.8 -07.4202 26256.1
 20 01 2013  04 30  -21.0608 26036.3 -03390.9 -07.4202 26256.2
 20 01 2013  04 31  -21.0606 26036.6 -03391.0 -07.4204 26256.5
 20 01 2013  04 32  -21.0607 26037.0 -03391.2 -07.4207 26256.9
 20 01 2013  04 33  -21.0607 26037.3 -03391.3 -07.4209 26257.2
 20 01 2013  04 34  -21.0607 26037.8 -03391.6 -07.4213 26257.8
 20 01 2013  04 35  -21.0607 26038.2 -03391.8 -07.4216 26258.2
 20 01 2013  04 36  -21.0608 26038.4 -03391.8 -07.4217 26258.4
 20 01 2013  04 37  -21.0608 26038.7 -03391.9 -07.4218 26258.7
 20 01 2013  04 38  -21.0610 26039.0 -03392.0 -07.4220 26259.0
 20 01 2013  04 39  -21.0611 26039.7 -03392.3 -07.4223 26259.7
 20 01 2013  04 40  -21.0614 26040.4 -03392.6 -07.4227 26260.4
 20 01 2013  04 41  -21.0615 26041.2 -03392.9 -07.4233 26261.3
 20 01 2013  04 42  -21.0619 26042.4 -03393.4 -07.4240 26262.5
 20 01 2013  04 43  -21.0624 26043.6 -03394.0 -07.4249 26263.8
 20 01 2013  04 44  -21.0629 26044.3 -03394.3 -07.4253 26264.6
 20 01 2013  04 45  -21.0632 26044.9 -03394.4 -07.4254 26265.1
 20 01 2013  04 46  -21.0634 26045.3 -03394.4 -07.4254 26265.6
 20 01 2013  04 47  -21.0636 26045.6 -03394.4 -07.4253 26265.8
 20 01 2013  04 48  -21.0636 26045.6 -03394.3 -07.4249 26265.9
 20 01 2013  04 49  -21.0634 26045.7 -03394.1 -07.4246 26265.9
 20 01 2013  04 50  -21.0633 26045.9 -03394.0 -07.4243 26266.1
 20 01 2013  04 51  -21.0634 26046.2 -03394.0 -07.4242 26266.4
 20 01 2013  04 52  -21.0635 26046.5 -03394.0 -07.4242 26266.7
 20 01 2013  04 53  -21.0633 26046.9 -03394.1 -07.4242 26267.1
 20 01 2013  04 54  -21.0630 26047.2 -03394.1 -07.4242 26267.4
 20 01 2013  04 55  -21.0632 26046.7 -03393.8 -07.4237 26266.9
 20 01 2013  04 56  -21.0629 26046.4 -03393.5 -07.4230 26266.5
 20 01 2013  04 57  -21.0627 26046.4 -03393.3 -07.4226 26266.5
 20 01 2013  04 58  -21.0622 26046.6 -03393.2 -07.4224 26266.7
 20 01 2013  04 59  -21.0616 26046.7 -03393.2 -07.4223 26266.8
 20 01 2013  05 00  -21.0612 26046.7 -03393.2 -07.4222 26266.8
 20 01 2013  05 01  -21.0608 26046.8 -03393.1 -07.4221 26266.9
 20 01 2013  05 02  -21.0605 26047.0 -03393.2 -07.4221 26267.1
 20 01 2013  05 03  -21.0605 26047.1 -03393.2 -07.4222 26267.2
 20 01 2013  05 04  -21.0605 26047.1 -03393.1 -07.4220 26267.2
 20 01 2013  05 05  -21.0604 26046.8 -03392.9 -07.4216 26266.9
 20 01 2013  05 06  -21.0605 26046.3 -03392.5 -07.4210 26266.3
 20 01 2013  05 07  -21.0602 26045.9 -03392.2 -07.4204 26265.9
 20 01 2013  05 08  -21.0601 26045.5 -03391.9 -07.4199 26265.5
 20 01 2013  05 09  -21.0598 26045.2 -03391.7 -07.4195 26265.1
 20 01 2013  05 10  -21.0595 26044.9 -03391.5 -07.4191 26264.7
 20 01 2013  05 11  -21.0594 26044.4 -03391.2 -07.4187 26264.3
 20 01 2013  05 12  -21.0591 26044.3 -03391.2 -07.4186 26264.1
 20 01 2013  05 13  -21.0587 26044.5 -03391.3 -07.4187 26264.4
 20 01 2013  05 14  -21.0584 26044.7 -03391.4 -07.4189 26264.5
 20 01 2013  05 15  -21.0581 26044.5 -03391.3 -07.4189 26264.4
 20 01 2013  05 16  -21.0579 26044.4 -03391.3 -07.4188 26264.2
 20 01 2013  05 17  -21.0579 26044.3 -03391.3 -07.4188 26264.2
 20 01 2013  05 18  -21.0577 26044.6 -03391.4 -07.4190 26264.5
 20 01 2013  05 19  -21.0577 26044.5 -03391.4 -07.4190 26264.3
 20 01 2013  05 20  -21.0575 26044.3 -03391.3 -07.4188 26264.1
 20 01 2013  05 21  -21.0573 26044.2 -03391.2 -07.4187 26264.1
 20 01 2013  05 22  -21.0569 26044.0 -03391.1 -07.4186 26263.9
 20 01 2013  05 23  -21.0565 26043.7 -03390.9 -07.4183 26263.5
 20 01 2013  05 24  -21.0562 26043.3 -03390.8 -07.4180 26263.2
 20 01 2013  05 25  -21.0559 26042.6 -03390.4 -07.4175 26262.4
 20 01 2013  05 26  -21.0551 26042.5 -03390.3 -07.4173 26262.3
 20 01 2013  05 27  -21.0549 26042.4 -03390.3 -07.4174 26262.1
 20 01 2013  05 28  -21.0550 26042.3 -03390.4 -07.4174 26262.1
 20 01 2013  05 29  -21.0549 26042.9 -03390.7 -07.4180 26262.7
 20 01 2013  05 30  -21.0551 26043.5 -03391.1 -07.4187 26263.3
 20 01 2013  05 31  -21.0552 26043.6 -03391.3 -07.4190 26263.5
 20 01 2013  05 32  -21.0549 26043.5 -03391.2 -07.4190 26263.4
 20 01 2013  05 33  -21.0545 26043.1 -03391.0 -07.4187 26262.9
 20 01 2013  05 34  -21.0546 26042.3 -03390.7 -07.4181 26262.1
 20 01 2013  05 35  -21.0549 26042.1 -03390.5 -07.4179 26261.9
 20 01 2013  05 36  -21.0550 26041.9 -03390.4 -07.4177 26261.6
 20 01 2013  05 37  -21.0551 26041.6 -03390.3 -07.4175 26261.4
 20 01 2013  05 38  -21.0551 26041.3 -03390.2 -07.4174 26261.1
 20 01 2013  05 39  -21.0551 26041.0 -03390.1 -07.4171 26260.7
 20 01 2013  05 40  -21.0548 26041.0 -03390.1 -07.4171 26260.7
 20 01 2013  05 41  -21.0548 26040.6 -03390.0 -07.4170 26260.3
 20 01 2013  05 42  -21.0546 26040.4 -03389.9 -07.4169 26260.2
 20 01 2013  05 43  -21.0545 26040.5 -03390.0 -07.4171 26260.2
 20 01 2013  05 44  -21.0547 26040.3 -03390.0 -07.4172 26260.1
 20 01 2013  05 45  -21.0549 26040.2 -03390.0 -07.4173 26260.0
 20 01 2013  05 46  -21.0548 26040.4 -03390.2 -07.4175 26260.2
 20 01 2013  05 47  -21.0549 26040.7 -03390.4 -07.4178 26260.5
 20 01 2013  05 48  -21.0551 26040.9 -03390.5 -07.4182 26260.7
 20 01 2013  05 49  -21.0551 26040.9 -03390.6 -07.4183 26260.7
 20 01 2013  05 50  -21.0548 26040.9 -03390.6 -07.4183 26260.7
 20 01 2013  05 51  -21.0547 26041.0 -03390.7 -07.4184 26260.8
 20 01 2013  05 52  -21.0546 26041.2 -03390.8 -07.4186 26261.0
 20 01 2013  05 53  -21.0543 26041.3 -03390.8 -07.4187 26261.2
 20 01 2013  05 54  -21.0540 26041.0 -03390.7 -07.4185 26260.8
 20 01 2013  05 55  -21.0538 26040.5 -03390.4 -07.4180 26260.3
 20 01 2013  05 56  -21.0539 26040.6 -03390.4 -07.4180 26260.4
 20 01 2013  05 57  -21.0543 26040.5 -03390.4 -07.4180 26260.3
 20 01 2013  05 58  -21.0546 26039.6 -03390.0 -07.4173 26259.3
 20 01 2013  05 59  -21.0547 26038.6 -03389.4 -07.4164 26258.2
 20 01 2013  06 00  -21.0549 26038.3 -03389.2 -07.4160 26257.9
 20 01 2013  06 01  -21.0553 26038.2 -03389.2 -07.4160 26257.9
 20 01 2013  06 02  -21.0558 26038.2 -03389.2 -07.4160 26257.9
 20 01 2013  06 03  -21.0560 26038.4 -03389.3 -07.4161 26258.0
 20 01 2013  06 04  -21.0558 26038.4 -03389.3 -07.4161 26258.1
 20 01 2013  06 05  -21.0549 26038.0 -03389.0 -07.4158 26257.6
 20 01 2013  06 06  -21.0536 26037.5 -03388.8 -07.4154 26257.2
 20 01 2013  06 07  -21.0526 26037.5 -03388.8 -07.4155 26257.1
 20 01 2013  06 08  -21.0520 26037.5 -03389.0 -07.4158 26257.1
 20 01 2013  06 09  -21.0521 26037.5 -03389.2 -07.4162 26257.2
 20 01 2013  06 10  -21.0523 26037.5 -03389.3 -07.4166 26257.2
 20 01 2013  06 11  -21.0520 26037.4 -03389.4 -07.4167 26257.0
 20 01 2013  06 12  -21.0516 26037.0 -03389.3 -07.4167 26256.7
 20 01 2013  06 13  -21.0508 26037.1 -03389.4 -07.4168 26256.8
 20 01 2013  06 14  -21.0500 26036.9 -03389.4 -07.4169 26256.6
 20 01 2013  06 15  -21.0494 26036.9 -03389.5 -07.4170 26256.5
 20 01 2013  06 16  -21.0486 26036.8 -03389.5 -07.4171 26256.5
 20 01 2013  06 17  -21.0482 26037.0 -03389.7 -07.4175 26256.7
 20 01 2013  06 18  -21.0477 26037.0 -03389.9 -07.4178 26256.8
 20 01 2013  06 19  -21.0473 26036.9 -03389.9 -07.4180 26256.6
 20 01 2013  06 20  -21.0469 26036.6 -03389.9 -07.4180 26256.3
 20 01 2013  06 21  -21.0464 26036.3 -03389.8 -07.4179 26256.1
 20 01 2013  06 22  -21.0460 26036.4 -03389.9 -07.4181 26256.1
 20 01 2013  06 23  -21.0458 26036.5 -03390.0 -07.4183 26256.2
 20 01 2013  06 24  -21.0456 26036.5 -03390.1 -07.4186 26256.3
 20 01 2013  06 25  -21.0454 26036.5 -03390.2 -07.4188 26256.3
 20 01 2013  06 26  -21.0450 26036.5 -03390.3 -07.4189 26256.3
 20 01 2013  06 27  -21.0446 26036.5 -03390.3 -07.4190 26256.3
 20 01 2013  06 28  -21.0442 26036.4 -03390.4 -07.4192 26256.2
 20 01 2013  06 29  -21.0438 26036.5 -03390.5 -07.4193 26256.3
 20 01 2013  06 30  -21.0437 26036.7 -03390.7 -07.4196 26256.5
 20 01 2013  06 31  -21.0433 26036.9 -03390.9 -07.4200 26256.8
 20 01 2013  06 32  -21.0430 26036.8 -03390.9 -07.4201 26256.6
 20 01 2013  06 33  -21.0428 26036.6 -03390.8 -07.4200 26256.5
 20 01 2013  06 34  -21.0422 26036.6 -03390.9 -07.4201 26256.5
 20 01 2013  06 35  -21.0419 26036.7 -03390.9 -07.4202 26256.6
 20 01 2013  06 36  -21.0419 26036.6 -03391.0 -07.4204 26256.5
 20 01 2013  06 37  -21.0419 26036.6 -03391.0 -07.4204 26256.5
 20 01 2013  06 38  -21.0419 26036.5 -03391.0 -07.4205 26256.4
 20 01 2013  06 39  -21.0419 26036.4 -03391.0 -07.4205 26256.3
 20 01 2013  06 40  -21.0416 26036.3 -03391.0 -07.4205 26256.2
 20 01 2013  06 41  -21.0412 26036.2 -03390.9 -07.4204 26256.0
 20 01 2013  06 42  -21.0410 26036.3 -03391.0 -07.4206 26256.2
 20 01 2013  06 43  -21.0407 26036.5 -03391.2 -07.4209 26256.4
 20 01 2013  06 44  -21.0402 26036.2 -03391.2 -07.4209 26256.2
 20 01 2013  06 45  -21.0394 26035.7 -03390.9 -07.4205 26255.5
 20 01 2013  06 46  -21.0392 26035.4 -03390.8 -07.4202 26255.2
 20 01 2013  06 47  -21.0393 26035.6 -03390.9 -07.4205 26255.5
 20 01 2013  06 48  -21.0397 26035.9 -03391.2 -07.4210 26255.8
 20 01 2013  06 49  -21.0398 26036.2 -03391.4 -07.4214 26256.2
 20 01 2013  06 50  -21.0399 26036.5 -03391.6 -07.4217 26256.4
 20 01 2013  06 51  -21.0399 26036.5 -03391.6 -07.4218 26256.5
 20 01 2013  06 52  -21.0397 26036.7 -03391.8 -07.4221 26256.7
 20 01 2013  06 53  -21.0397 26036.9 -03391.9 -07.4223 26256.9
 20 01 2013  06 54  -21.0398 26037.1 -03392.1 -07.4226 26257.1
 20 01 2013  06 55  -21.0398 26037.2 -03392.2 -07.4228 26257.3
 20 01 2013  06 56  -21.0397 26037.3 -03392.2 -07.4228 26257.3
 20 01 2013  06 57  -21.0398 26037.4 -03392.3 -07.4230 26257.5
 20 01 2013  06 58  -21.0402 26037.5 -03392.4 -07.4231 26257.6
 20 01 2013  06 59  -21.0406 26037.5 -03392.4 -07.4232 26257.6
 20 01 2013  07 00  -21.0409 26037.6 -03392.4 -07.4232 26257.6
 20 01 2013  07 01  -21.0411 26037.6 -03392.4 -07.4232 26257.7
 20 01 2013  07 02  -21.0416 26037.6 -03392.5 -07.4233 26257.7
 20 01 2013  07 03  -21.0423 26037.7 -03392.5 -07.4234 26257.8
 20 01 2013  07 04  -21.0432 26037.9 -03392.6 -07.4235 26258.0
 20 01 2013  07 05  -21.0440 26038.0 -03392.6 -07.4235 26258.1
 20 01 2013  07 06  -21.0445 26038.0 -03392.6 -07.4234 26258.1
 20 01 2013  07 07  -21.0452 26037.8 -03392.4 -07.4231 26257.9
 20 01 2013  07 08  -21.0459 26037.8 -03392.3 -07.4230 26257.9
 20 01 2013  07 09  -21.0468 26037.9 -03392.3 -07.4229 26257.9
 20 01 2013  07 10  -21.0473 26037.9 -03392.2 -07.4227 26257.9
 20 01 2013  07 11  -21.0478 26037.7 -03392.1 -07.4224 26257.8
 20 01 2013  07 12  -21.0485 26037.8 -03392.0 -07.4223 26257.8
 20 01 2013  07 13  -21.0492 26037.8 -03392.0 -07.4222 26257.8
 20 01 2013  07 14  -21.0497 26037.8 -03391.9 -07.4221 26257.8
 20 01 2013  07 15  -21.0503 26037.8 -03391.9 -07.4219 26257.8
 20 01 2013  07 16  -21.0508 26037.7 -03391.8 -07.4218 26257.7
 20 01 2013  07 17  -21.0509 26037.5 -03391.6 -07.4214 26257.4
 20 01 2013  07 18  -21.0510 26036.9 -03391.2 -07.4208 26256.9
 20 01 2013  07 19  -21.0512 26036.6 -03391.0 -07.4205 26256.5
 20 01 2013  07 20  -21.0514 26036.1 -03390.8 -07.4201 26256.0
 20 01 2013  07 21  -21.0519 26035.8 -03390.6 -07.4197 26255.7
 20 01 2013  07 22  -21.0525 26035.7 -03390.5 -07.4197 26255.5
 20 01 2013  07 23  -21.0533 26035.7 -03390.6 -07.4197 26255.6
 20 01 2013  07 24  -21.0539 26036.1 -03390.8 -07.4200 26256.0
 20 01 2013  07 25  -21.0536 26036.6 -03391.0 -07.4204 26256.5
 20 01 2013  07 26  -21.0531 26037.0 -03391.1 -07.4205 26256.9
 20 01 2013  07 27  -21.0525 26037.2 -03391.2 -07.4207 26257.1
 20 01 2013  07 28  -21.0516 26037.5 -03391.4 -07.4210 26257.5
 20 01 2013  07 29  -21.0510 26037.7 -03391.5 -07.4212 26257.6
 20 01 2013  07 30  -21.0508 26037.8 -03391.6 -07.4214 26257.8
 20 01 2013  07 31  -21.0507 26037.9 -03391.7 -07.4216 26257.8
 20 01 2013  07 32  -21.0503 26037.9 -03391.8 -07.4217 26257.9
 20 01 2013  07 33  -21.0502 26038.3 -03392.0 -07.4221 26258.3
 20 01 2013  07 34  -21.0503 26038.6 -03392.2 -07.4225 26258.6
 20 01 2013  07 35  -21.0506 26038.6 -03392.3 -07.4226 26258.6
 20 01 2013  07 36  -21.0504 26038.8 -03392.4 -07.4227 26258.9
 20 01 2013  07 37  -21.0499 26038.7 -03392.3 -07.4227 26258.8
 20 01 2013  07 38  -21.0496 26038.7 -03392.3 -07.4226 26258.7
 20 01 2013  07 39  -21.0495 26038.8 -03392.4 -07.4227 26258.9
 20 01 2013  07 40  -21.0491 26039.0 -03392.4 -07.4228 26259.1
 20 01 2013  07 41  -21.0487 26039.1 -03392.5 -07.4229 26259.2
 20 01 2013  07 42  -21.0479 26039.3 -03392.5 -07.4230 26259.3
 20 01 2013  07 43  -21.0471 26039.4 -03392.6 -07.4231 26259.5
 20 01 2013  07 44  -21.0460 26039.6 -03392.7 -07.4232 26259.7
 20 01 2013  07 45  -21.0445 26039.8 -03392.8 -07.4234 26259.9
 20 01 2013  07 46  -21.0428 26040.7 -03393.2 -07.4241 26260.8
 20 01 2013  07 47  -21.0425 26041.0 -03393.5 -07.4246 26261.2
 20 01 2013  07 48  -21.0416 26042.3 -03394.1 -07.4255 26262.5
 20 01 2013  07 49  -21.0408 26043.7 -03394.8 -07.4266 26264.1
 20 01 2013  07 50  -21.0403 26045.1 -03395.4 -07.4275 26265.5
 20 01 2013  07 51  -21.0399 26047.1 -03396.2 -07.4288 26267.6
 20 01 2013  07 52  -21.0395 26048.4 -03396.8 -07.4296 26268.9
 20 01 2013  07 53  -21.0388 26050.1 -03397.4 -07.4305 26270.7
 20 01 2013  07 54  -21.0377 26051.2 -03397.9 -07.4312 26271.9
 20 01 2013  07 55  -21.0379 26051.7 -03397.9 -07.4310 26272.4
 20 01 2013  07 56  -21.0404 26053.9 -03398.8 -07.4325 26274.7
 20 01 2013  07 57  -21.0420 26055.0 -03399.3 -07.4331 26275.8
 20 01 2013  07 58  -21.0419 26055.5 -03399.2 -07.4329 26276.3
 20 01 2013  07 59  -21.0418 26056.3 -03399.3 -07.4329 26277.1
 20 01 2013  08 00  -21.0416 26057.0 -03399.4 -07.4328 26277.8
 20 01 2013  08 01  -21.0418 26057.6 -03399.4 -07.4327 26278.4
 20 01 2013  08 02  -21.0425 26058.1 -03399.5 -07.4328 26279.0
 20 01 2013  08 03  -21.0429 26058.6 -03399.5 -07.4326 26279.4
 20 01 2013  08 04  -21.0427 26059.0 -03399.4 -07.4323 26279.8
 20 01 2013  08 05  -21.0422 26059.1 -03399.2 -07.4318 26279.9
 20 01 2013  08 06  -21.0417 26058.8 -03398.9 -07.4311 26279.5
 20 01 2013  08 07  -21.0410 26058.2 -03398.4 -07.4303 26278.9
 20 01 2013  08 08  -21.0405 26058.0 -03398.1 -07.4296 26278.6
 20 01 2013  08 09  -21.0399 26057.9 -03397.9 -07.4293 26278.5
 20 01 2013  08 10  -21.0395 26057.7 -03397.7 -07.4290 26278.3
 20 01 2013  08 11  -21.0395 26057.3 -03397.5 -07.4287 26277.9
 20 01 2013  08 12  -21.0391 26057.1 -03397.4 -07.4285 26277.7
 20 01 2013  08 13  -21.0384 26056.8 -03397.2 -07.4281 26277.3
 20 01 2013  08 14  -21.0378 26056.3 -03397.0 -07.4278 26276.8
 20 01 2013  08 15  -21.0373 26055.8 -03396.7 -07.4274 26276.3
 20 01 2013  08 16  -21.0368 26055.5 -03396.6 -07.4272 26276.0
 20 01 2013  08 17  -21.0360 26055.0 -03396.3 -07.4267 26275.4
 20 01 2013  08 18  -21.0351 26054.5 -03396.1 -07.4264 26274.9
 20 01 2013  08 19  -21.0344 26054.1 -03395.9 -07.4262 26274.5
 20 01 2013  08 20  -21.0337 26053.7 -03395.8 -07.4259 26274.0
 20 01 2013  08 21  -21.0332 26053.3 -03395.6 -07.4257 26273.7
 20 01 2013  08 22  -21.0325 26053.1 -03395.5 -07.4256 26273.4
 20 01 2013  08 23  -21.0317 26052.7 -03395.4 -07.4254 26273.1
 20 01 2013  08 24  -21.0308 26052.3 -03395.2 -07.4251 26272.6
 20 01 2013  08 25  -21.0299 26051.7 -03395.0 -07.4248 26272.0
 20 01 2013  08 26  -21.0292 26051.2 -03394.7 -07.4244 26271.4
 20 01 2013  08 27  -21.0288 26050.5 -03394.4 -07.4239 26270.7
 20 01 2013  08 28  -21.0285 26049.9 -03394.2 -07.4236 26270.1
 20 01 2013  08 29  -21.0283 26049.5 -03394.1 -07.4234 26269.7
 20 01 2013  08 30  -21.0280 26049.1 -03394.0 -07.4233 26269.3
 20 01 2013  08 31  -21.0273 26048.3 -03393.6 -07.4228 26268.5
 20 01 2013  08 32  -21.0259 26047.8 -03393.4 -07.4225 26267.9
 20 01 2013  08 33  -21.0248 26046.9 -03393.0 -07.4218 26266.9
 20 01 2013  08 34  -21.0238 26046.4 -03392.8 -07.4215 26266.4
 20 01 2013  08 35  -21.0229 26045.9 -03392.7 -07.4214 26265.9
 20 01 2013  08 36  -21.0225 26045.5 -03392.6 -07.4214 26265.6
 20 01 2013  08 37  -21.0222 26045.0 -03392.5 -07.4213 26265.1
 20 01 2013  08 38  -21.0219 26044.7 -03392.4 -07.4212 26264.7
 20 01 2013  08 39  -21.0215 26044.4 -03392.3 -07.4210 26264.4
 20 01 2013  08 40  -21.0211 26043.9 -03392.1 -07.4207 26263.8
 20 01 2013  08 41  -21.0210 26043.3 -03391.8 -07.4203 26263.2
 20 01 2013  08 42  -21.0209 26042.7 -03391.6 -07.4199 26262.6
 20 01 2013  08 43  -21.0206 26042.3 -03391.4 -07.4197 26262.2
 20 01 2013  08 44  -21.0202 26042.0 -03391.3 -07.4196 26261.9
 20 01 2013  08 45  -21.0195 26041.8 -03391.2 -07.4195 26261.7
 20 01 2013  08 46  -21.0188 26041.4 -03391.1 -07.4193 26261.3
 20 01 2013  08 47  -21.0181 26041.2 -03391.0 -07.4191 26261.0
 20 01 2013  08 48  -21.0176 26041.0 -03391.0 -07.4191 26260.8
 20 01 2013  08 49  -21.0175 26040.8 -03391.0 -07.4192 26260.7
 20 01 2013  08 50  -21.0175 26040.4 -03390.9 -07.4191 26260.3
 20 01 2013  08 51  -21.0170 26040.1 -03390.8 -07.4190 26259.9
 20 01 2013  08 52  -21.0168 26039.8 -03390.8 -07.4191 26259.7
 20 01 2013  08 53  -21.0167 26039.7 -03390.9 -07.4193 26259.6
 20 01 2013  08 54  -21.0165 26039.9 -03391.1 -07.4197 26259.8
 20 01 2013  08 55  -21.0165 26039.9 -03391.3 -07.4202 26259.8
 20 01 2013  08 56  -21.0163 26039.9 -03391.4 -07.4204 26259.8
 20 01 2013  08 57  -21.0163 26039.8 -03391.5 -07.4207 26259.7
 20 01 2013  08 58  -21.0160 26039.5 -03391.6 -07.4208 26259.5
 20 01 2013  08 59  -21.0153 26039.2 -03391.5 -07.4208 26259.1
 20 01 2013  09 00  -21.0143 26039.0 -03391.6 -07.4209 26258.9
 20 01 2013  09 01  -21.0136 26038.7 -03391.6 -07.4212 26258.7
 20 01 2013  09 02  -21.0124 26038.6 -03391.8 -07.4216 26258.6
 20 01 2013  09 03  -21.0114 26038.3 -03391.9 -07.4219 26258.3
 20 01 2013  09 04  -21.0106 26038.0 -03392.0 -07.4222 26258.0
 20 01 2013  09 05  -21.0101 26037.9 -03392.2 -07.4227 26258.0
 20 01 2013  09 06  -21.0096 26037.8 -03392.5 -07.4233 26257.9
 20 01 2013  09 07  -21.0093 26037.6 -03392.7 -07.4237 26257.7
 20 01 2013  09 08  -21.0083 26037.0 -03392.7 -07.4239 26257.1
 20 01 2013  09 09  -21.0075 26036.8 -03392.8 -07.4243 26256.9
 20 01 2013  09 10  -21.0073 26036.8 -03393.1 -07.4250 26256.9
 20 01 2013  09 11  -21.0076 26037.0 -03393.6 -07.4259 26257.3
 20 01 2013  09 12  -21.0078 26036.9 -03393.9 -07.4265 26257.2
 20 01 2013  09 13  -21.0081 26037.0 -03394.1 -07.4271 26257.3
 20 01 2013  09 14  -21.0083 26037.0 -03394.4 -07.4276 26257.4
 20 01 2013  09 15  -21.0084 26037.0 -03394.6 -07.4280 26257.4
 20 01 2013  09 16  -21.0084 26036.8 -03394.7 -07.4282 26257.2
 20 01 2013  09 17  -21.0083 26036.6 -03394.7 -07.4284 26257.0
 20 01 2013  09 18  -21.0081 26036.4 -03394.7 -07.4286 26256.7
 20 01 2013  09 19  -21.0083 26036.3 -03394.9 -07.4289 26256.7
 20 01 2013  09 20  -21.0087 26036.3 -03395.1 -07.4294 26256.8
 20 01 2013  09 21  -21.0092 26036.2 -03395.2 -07.4297 26256.7
 20 01 2013  09 22  -21.0097 26036.2 -03395.4 -07.4301 26256.6
 20 01 2013  09 23  -21.0095 26035.9 -03395.5 -07.4303 26256.4
 20 01 2013  09 24  -21.0092 26035.5 -03395.5 -07.4304 26256.0
 20 01 2013  09 25  -21.0092 26035.1 -03395.5 -07.4306 26255.6
 20 01 2013  09 26  -21.0096 26035.0 -03395.7 -07.4309 26255.5
 20 01 2013  09 27  -21.0097 26034.8 -03395.7 -07.4312 26255.3
 20 01 2013  09 28  -21.0096 26034.4 -03395.7 -07.4313 26254.9
 20 01 2013  09 29  -21.0093 26033.9 -03395.7 -07.4313 26254.5
 20 01 2013  09 30  -21.0092 26033.5 -03395.7 -07.4314 26254.0
 20 01 2013  09 31  -21.0092 26033.2 -03395.8 -07.4317 26253.8
 20 01 2013  09 32  -21.0091 26032.9 -03395.9 -07.4320 26253.5
 20 01 2013  09 33  -21.0092 26032.4 -03395.9 -07.4321 26253.0
 20 01 2013  09 34  -21.0091 26031.9 -03395.9 -07.4323 26252.5
 20 01 2013  09 35  -21.0086 26031.4 -03395.8 -07.4323 26252.0
 20 01 2013  09 36  -21.0086 26031.2 -03396.0 -07.4327 26251.8
 20 01 2013  09 37  -21.0086 26031.2 -03396.2 -07.4332 26251.8
 20 01 2013  09 38  -21.0087 26031.1 -03396.4 -07.4336 26251.7
 20 01 2013  09 39  -21.0087 26030.9 -03396.5 -07.4338 26251.6
 20 01 2013  09 40  -21.0085 26030.7 -03396.6 -07.4341 26251.3
 20 01 2013  09 41  -21.0082 26030.3 -03396.6 -07.4343 26251.0
 20 01 2013  09 42  -21.0080 26030.1 -03396.7 -07.4345 26250.7
 20 01 2013  09 43  -21.0083 26030.0 -03396.9 -07.4350 26250.7
 20 01 2013  09 44  -21.0085 26029.9 -03397.0 -07.4354 26250.6
 20 01 2013  09 45  -21.0087 26029.7 -03397.1 -07.4357 26250.4
 20 01 2013  09 46  -21.0090 26029.5 -03397.2 -07.4359 26250.3
 20 01 2013  09 47  -21.0098 26029.9 -03397.5 -07.4363 26250.7
 20 01 2013  09 48  -21.0103 26030.3 -03397.7 -07.4367 26251.2
 20 01 2013  09 49  -21.0110 26030.5 -03397.8 -07.4369 26251.4
 20 01 2013  09 50  -21.0115 26030.7 -03397.9 -07.4371 26251.6
 20 01 2013  09 51  -21.0115 26030.7 -03398.0 -07.4371 26251.6
 20 01 2013  09 52  -21.0112 26030.5 -03397.9 -07.4371 26251.4
 20 01 2013  09 53  -21.0114 26030.5 -03398.0 -07.4374 26251.3
 20 01 2013  09 54  -21.0121 26030.7 -03398.3 -07.4379 26251.6
 20 01 2013  09 55  -21.0128 26030.9 -03398.5 -07.4383 26251.9
 20 01 2013  09 56  -21.0133 26030.8 -03398.6 -07.4384 26251.7
 20 01 2013  09 57  -21.0134 26030.6 -03398.5 -07.4383 26251.5
 20 01 2013  09 58  -21.0137 26030.5 -03398.5 -07.4384 26251.4
 20 01 2013  09 59  -21.0141 26030.6 -03398.6 -07.4386 26251.5
 20 01 2013  10 00  -21.0145 26030.8 -03398.8 -07.4388 26251.7
 20 01 2013  10 01  -21.0148 26030.9 -03398.8 -07.4390 26251.9
 20 01 2013  10 02  -21.0151 26031.1 -03398.9 -07.4391 26252.0
 20 01 2013  10 03  -21.0159 26031.4 -03399.1 -07.4394 26252.3
 20 01 2013  10 04  -21.0165 26031.6 -03399.2 -07.4396 26252.6
 20 01 2013  10 05  -21.0167 26031.7 -03399.2 -07.4396 26252.7
 20 01 2013  10 06  -21.0173 26031.9 -03399.3 -07.4397 26252.9
 20 01 2013  10 07  -21.0180 26031.9 -03399.3 -07.4397 26252.9
 20 01 2013  10 08  -21.0177 26031.6 -03399.2 -07.4395 26252.6
 20 01 2013  10 09  -21.0175 26031.2 -03399.0 -07.4392 26252.2
 20 01 2013  10 10  -21.0170 26030.9 -03398.9 -07.4390 26251.9
 20 01 2013  10 11  -21.0167 26030.6 -03398.9 -07.4392 26251.6
 20 01 2013  10 12  -21.0167 26030.7 -03399.0 -07.4394 26251.6
 20 01 2013  10 13  -21.0169 26031.0 -03399.2 -07.4398 26252.0
 20 01 2013  10 14  -21.0170 26031.3 -03399.4 -07.4401 26252.3
 20 01 2013  10 15  -21.0171 26031.8 -03399.7 -07.4405 26252.8
 20 01 2013  10 16  -21.0168 26032.3 -03399.8 -07.4407 26253.4
 20 01 2013  10 17  -21.0165 26032.7 -03399.9 -07.4408 26253.8
 20 01 2013  10 18  -21.0161 26032.9 -03399.9 -07.4406 26254.0
 20 01 2013  10 19  -21.0160 26033.3 -03399.9 -07.4406 26254.4
 20 01 2013  10 20  -21.0159 26033.7 -03399.9 -07.4405 26254.8
 20 01 2013  10 21  -21.0155 26034.0 -03399.9 -07.4404 26255.0
 20 01 2013  10 22  -21.0155 26034.2 -03399.9 -07.4404 26255.2
 20 01 2013  10 23  -21.0153 26034.6 -03400.0 -07.4403 26255.7
 20 01 2013  10 24  -21.0156 26035.1 -03400.0 -07.4403 26256.1
 20 01 2013  10 25  -21.0162 26035.5 -03400.0 -07.4402 26256.5
 20 01 2013  10 26  -21.0164 26035.8 -03399.9 -07.4400 26256.8
 20 01 2013  10 27  -21.0162 26036.0 -03399.9 -07.4397 26257.0
 20 01 2013  10 28  -21.0149 26035.7 -03399.6 -07.4392 26256.7
 20 01 2013  10 29  -21.0142 26035.5 -03399.4 -07.4388 26256.5
 20 01 2013  10 30  -21.0139 26035.6 -03399.4 -07.4389 26256.6
 20 01 2013  10 31  -21.0133 26035.3 -03399.3 -07.4387 26256.3
 20 01 2013  10 32  -21.0130 26035.1 -03399.3 -07.4387 26256.1
 20 01 2013  10 33  -21.0127 26034.7 -03399.2 -07.4387 26255.7
 20 01 2013  10 34  -21.0126 26034.7 -03399.3 -07.4388 26255.7
 20 01 2013  10 35  -21.0121 26034.6 -03399.3 -07.4389 26255.6
 20 01 2013  10 36  -21.0114 26034.2 -03399.1 -07.4387 26255.1
 20 01 2013  10 37  -21.0105 26033.8 -03399.1 -07.4387 26254.8
 20 01 2013  10 38  -21.0098 26033.7 -03399.3 -07.4391 26254.7
 20 01 2013  10 39  -21.0096 26033.7 -03399.5 -07.4395 26254.7
 20 01 2013  10 40  -21.0085 26033.7 -03399.6 -07.4398 26254.7
 20 01 2013  10 41  -21.0073 26033.5 -03399.6 -07.4400 26254.5
 20 01 2013  10 42  -21.0070 26033.5 -03399.9 -07.4406 26254.6
 20 01 2013  10 43  -21.0070 26033.5 -03400.2 -07.4412 26254.6
 20 01 2013  10 44  -21.0066 26033.2 -03400.3 -07.4415 26254.3
 20 01 2013  10 45  -21.0063 26032.8 -03400.4 -07.4417 26253.9
 20 01 2013  10 46  -21.0059 26032.6 -03400.5 -07.4422 26253.7
 20 01 2013  10 47  -21.0053 26032.5 -03400.8 -07.4427 26253.7
 20 01 2013  10 48  -21.0050 26032.6 -03401.0 -07.4433 26253.8
 20 01 2013  10 49  -21.0047 26032.7 -03401.3 -07.4438 26254.0
 20 01 2013  10 50  -21.0049 26032.7 -03401.5 -07.4442 26254.0
 20 01 2013  10 51  -21.0053 26032.7 -03401.7 -07.4446 26254.0
 20 01 2013  10 52  -21.0057 26032.9 -03401.9 -07.4451 26254.3
 20 01 2013  10 53  -21.0059 26033.0 -03402.1 -07.4454 26254.4
 20 01 2013  10 54  -21.0064 26033.1 -03402.2 -07.4457 26254.4
 20 01 2013  10 55  -21.0073 26033.4 -03402.5 -07.4461 26254.8
 20 01 2013  10 56  -21.0076 26033.9 -03402.7 -07.4465 26255.4
 20 01 2013  10 57  -21.0066 26033.6 -03402.5 -07.4461 26255.0
 20 01 2013  10 58  -21.0063 26033.7 -03402.5 -07.4461 26255.1
 20 01 2013  10 59  -21.0062 26033.8 -03402.6 -07.4463 26255.2
 20 01 2013  11 00  -21.0060 26033.8 -03402.7 -07.4464 26255.2
 20 01 2013  11 01  -21.0062 26033.3 -03402.5 -07.4463 26254.7
 20 01 2013  11 02  -21.0068 26033.1 -03402.5 -07.4464 26254.5
 20 01 2013  11 03  -21.0076 26033.3 -03402.7 -07.4467 26254.7
 20 01 2013  11 04  -21.0079 26033.7 -03402.9 -07.4470 26255.2
 20 01 2013  11 05  -21.0079 26033.9 -03402.9 -07.4470 26255.4
 20 01 2013  11 06  -21.0079 26034.3 -03403.0 -07.4471 26255.7
 20 01 2013  11 07  -21.0081 26034.9 -03403.2 -07.4474 26256.4
 20 01 2013  11 08  -21.0078 26035.1 -03403.2 -07.4473 26256.6
 20 01 2013  11 09  -21.0069 26035.2 -03403.1 -07.4470 26256.7
 20 01 2013  11 10  -21.0059 26035.3 -03403.1 -07.4469 26256.8
 20 01 2013  11 11  -21.0059 26035.7 -03403.2 -07.4470 26257.2
 20 01 2013  11 12  -21.0064 26036.0 -03403.3 -07.4472 26257.5
 20 01 2013  11 13  -21.0064 26036.1 -03403.3 -07.4472 26257.6
 20 01 2013  11 14  -21.0065 26036.4 -03403.4 -07.4474 26257.9
 20 01 2013  11 15  -21.0069 26036.6 -03403.6 -07.4476 26258.1
 20 01 2013  11 16  -21.0065 26036.5 -03403.5 -07.4475 26258.1
 20 01 2013  11 17  -21.0064 26036.5 -03403.5 -07.4475 26258.0
 20 01 2013  11 18  -21.0066 26036.6 -03403.6 -07.4476 26258.1
 20 01 2013  11 19  -21.0069 26036.9 -03403.7 -07.4479 26258.4
 20 01 2013  11 20  -21.0073 26037.3 -03403.9 -07.4481 26258.8
 20 01 2013  11 21  -21.0074 26037.6 -03403.9 -07.4480 26259.1
 20 01 2013  11 22  -21.0072 26037.8 -03403.9 -07.4480 26259.3
 20 01 2013  11 23  -21.0068 26037.5 -03403.8 -07.4478 26259.1
 20 01 2013  11 24  -21.0063 26037.3 -03403.7 -07.4477 26258.8
 20 01 2013  11 25  -21.0056 26036.9 -03403.6 -07.4476 26258.4
 20 01 2013  11 26  -21.0042 26036.4 -03403.5 -07.4475 26257.9
 20 01 2013  11 27  -21.0032 26036.4 -03403.6 -07.4478 26257.9
 20 01 2013  11 28  -21.0035 26036.6 -03403.9 -07.4483 26258.2
 20 01 2013  11 29  -21.0042 26037.2 -03404.3 -07.4490 26258.8
 20 01 2013  11 30  -21.0044 26037.7 -03404.5 -07.4494 26259.3
 20 01 2013  11 31  -21.0046 26038.1 -03404.7 -07.4496 26259.8
 20 01 2013  11 32  -21.0043 26038.4 -03404.7 -07.4496 26260.0
 20 01 2013  11 33  -21.0039 26038.4 -03404.7 -07.4494 26260.1
 20 01 2013  11 34  -21.0036 26038.5 -03404.6 -07.4493 26260.1
 20 01 2013  11 35  -21.0035 26038.4 -03404.5 -07.4492 26260.1
 20 01 2013  11 36  -21.0036 26038.5 -03404.6 -07.4493 26260.1
 20 01 2013  11 37  -21.0040 26038.8 -03404.8 -07.4495 26260.4
 20 01 2013  11 38  -21.0044 26039.0 -03404.8 -07.4496 26260.7
 20 01 2013  11 39  -21.0050 26039.3 -03404.8 -07.4496 26261.0
 20 01 2013  11 40  -21.0053 26039.7 -03404.9 -07.4496 26261.4
 20 01 2013  11 41  -21.0052 26039.9 -03404.8 -07.4494 26261.6
 20 01 2013  11 42  -21.0050 26040.1 -03404.8 -07.4492 26261.8
 20 01 2013  11 43  -21.0052 26040.4 -03404.8 -07.4492 26262.1
 20 01 2013  11 44  -21.0057 26040.9 -03404.9 -07.4492 26262.5
 20 01 2013  11 45  -21.0064 26041.4 -03405.0 -07.4493 26263.1
 20 01 2013  11 46  -21.0069 26041.9 -03405.0 -07.4491 26263.6
 20 01 2013  11 47  -21.0070 26042.1 -03404.9 -07.4488 26263.8
 20 01 2013  11 48  -21.0072 26042.4 -03404.8 -07.4486 26264.0
 20 01 2013  11 49  -21.0075 26042.7 -03404.7 -07.4484 26264.3
 20 01 2013  11 50  -21.0076 26042.7 -03404.6 -07.4480 26264.3
 20 01 2013  11 51  -21.0074 26042.6 -03404.3 -07.4475 26264.2
 20 01 2013  11 52  -21.0073 26042.6 -03404.2 -07.4472 26264.1
 20 01 2013  11 53  -21.0071 26042.5 -03404.0 -07.4469 26264.0
 20 01 2013  11 54  -21.0073 26042.3 -03403.9 -07.4466 26263.8
 20 01 2013  11 55  -21.0073 26042.4 -03403.8 -07.4466 26263.9
 20 01 2013  11 56  -21.0075 26042.5 -03403.8 -07.4465 26264.0
 20 01 2013  11 57  -21.0077 26042.8 -03403.9 -07.4465 26264.3
 20 01 2013  11 58  -21.0081 26043.4 -03404.0 -07.4465 26264.9
 20 01 2013  11 59  -21.0080 26043.9 -03404.0 -07.4464 26265.4
 20 01 2013  12 00  -21.0075 26044.3 -03403.9 -07.4461 26265.8
 20 01 2013  12 01  -21.0073 26045.0 -03403.9 -07.4460 26266.5
 20 01 2013  12 02  -21.0074 26045.9 -03404.0 -07.4459 26267.4
 20 01 2013  12 03  -21.0079 26047.0 -03404.2 -07.4459 26268.6
 20 01 2013  12 04  -21.0084 26048.2 -03404.3 -07.4458 26269.8
 20 01 2013  12 05  -21.0088 26049.1 -03404.1 -07.4453 26270.6
 20 01 2013  12 06  -21.0091 26049.8 -03404.0 -07.4449 26271.3
 20 01 2013  12 07  -21.0094 26050.7 -03404.0 -07.4445 26272.2
 20 01 2013  12 08  -21.0098 26051.6 -03403.9 -07.4442 26273.1
 20 01 2013  12 09  -21.0099 26052.4 -03403.8 -07.4436 26273.9
 20 01 2013  12 10  -21.0100 26053.1 -03403.6 -07.4429 26274.5
 20 01 2013  12 11  -21.0105 26053.9 -03403.4 -07.4423 26275.3
 20 01 2013  12 12  -21.0110 26054.5 -03403.1 -07.4416 26275.8
 20 01 2013  12 13  -21.0114 26055.2 -03402.9 -07.4409 26276.5
 20 01 2013  12 14  -21.0117 26055.8 -03402.6 -07.4402 26277.0
 20 01 2013  12 15  -21.0115 26056.4 -03402.4 -07.4394 26277.6
 20 01 2013  12 16  -21.0109 26057.0 -03402.2 -07.4389 26278.2
 20 01 2013  12 17  -21.0110 26057.5 -03402.0 -07.4382 26278.6
 20 01 2013  12 18  -21.0122 26057.3 -03401.7 -07.4376 26278.4
 20 01 2013  12 19  -21.0131 26057.4 -03401.5 -07.4372 26278.5
 20 01 2013  12 20  -21.0128 26057.2 -03401.0 -07.4362 26278.3
 20 01 2013  12 21  -21.0129 26057.4 -03400.6 -07.4353 26278.4
 20 01 2013  12 22  -21.0124 26058.9 -03400.9 -07.4354 26279.9
 20 01 2013  12 23  -21.0123 26060.5 -03401.1 -07.4355 26281.5
 20 01 2013  12 24  -21.0123 26061.2 -03400.9 -07.4349 26282.2
 20 01 2013  12 25  -21.0122 26062.0 -03400.8 -07.4344 26283.0
 20 01 2013  12 26  -21.0116 26062.7 -03400.6 -07.4338 26283.6
 20 01 2013  12 27  -21.0115 26063.2 -03400.3 -07.4331 26284.1
 20 01 2013  12 28  -21.0115 26063.9 -03400.2 -07.4326 26284.7
 20 01 2013  12 29  -21.0116 26064.3 -03400.0 -07.4320 26285.1
 20 01 2013  12 30  -21.0120 26064.5 -03399.7 -07.4314 26285.3
 20 01 2013  12 31  -21.0127 26064.9 -03399.5 -07.4309 26285.7
 20 01 2013  12 32  -21.0134 26065.3 -03399.4 -07.4304 26286.0
 20 01 2013  12 33  -21.0141 26065.7 -03399.2 -07.4300 26286.4
 20 01 2013  12 34  -21.0144 26066.2 -03399.1 -07.4296 26286.8
 20 01 2013  12 35  -21.0145 26066.3 -03398.8 -07.4290 26287.0
 20 01 2013  12 36  -21.0147 26066.5 -03398.7 -07.4285 26287.1
 20 01 2013  12 37  -21.0152 26066.8 -03398.5 -07.4281 26287.4
 20 01 2013  12 38  -21.0155 26067.2 -03398.4 -07.4278 26287.8
 20 01 2013  12 39  -21.0157 26067.6 -03398.3 -07.4274 26288.2
 20 01 2013  12 40  -21.0161 26068.1 -03398.2 -07.4270 26288.7
 20 01 2013  12 41  -21.0165 26068.5 -03398.0 -07.4266 26289.0
 20 01 2013  12 42  -21.0167 26068.9 -03397.9 -07.4262 26289.4
 20 01 2013  12 43  -21.0167 26069.7 -03397.8 -07.4259 26290.2
 20 01 2013  12 44  -21.0170 26070.7 -03397.9 -07.4257 26291.2
 20 01 2013  12 45  -21.0176 26071.5 -03397.8 -07.4254 26292.0
 20 01 2013  12 46  -21.0180 26072.2 -03397.7 -07.4249 26292.6
 20 01 2013  12 47  -21.0185 26073.1 -03397.7 -07.4246 26293.5
 20 01 2013  12 48  -21.0191 26073.7 -03397.6 -07.4241 26294.1
 20 01 2013  12 49  -21.0193 26074.1 -03397.3 -07.4235 26294.5
 20 01 2013  12 50  -21.0192 26074.5 -03397.1 -07.4228 26294.9
 20 01 2013  12 51  -21.0195 26075.0 -03396.9 -07.4223 26295.3
 20 01 2013  12 52  -21.0196 26075.4 -03396.7 -07.4217 26295.7
 20 01 2013  12 53  -21.0198 26075.9 -03396.6 -07.4213 26296.2
 20 01 2013  12 54  -21.0200 26076.7 -03396.5 -07.4211 26297.0
 20 01 2013  12 55  -21.0202 26077.0 -03396.4 -07.4206 26297.3
 20 01 2013  12 56  -21.0204 26077.4 -03396.2 -07.4201 26297.7
 20 01 2013  12 57  -21.0210 26077.9 -03396.1 -07.4198 26298.1
 20 01 2013  12 58  -21.0214 26078.2 -03395.9 -07.4193 26298.4
 20 01 2013  12 59  -21.0217 26078.6 -03395.8 -07.4190 26298.8
 20 01 2013  13 00  -21.0219 26078.9 -03395.7 -07.4186 26299.0
 20 01 2013  13 01  -21.0222 26079.1 -03395.4 -07.4181 26299.2
 20 01 2013  13 02  -21.0228 26079.1 -03395.2 -07.4175 26299.2
 20 01 2013  13 03  -21.0234 26079.3 -03395.1 -07.4171 26299.4
 20 01 2013  13 04  -21.0232 26079.5 -03394.9 -07.4167 26299.6
 20 01 2013  13 05  -21.0230 26079.8 -03394.7 -07.4162 26299.8
 20 01 2013  13 06  -21.0229 26080.1 -03394.5 -07.4158 26300.0
 20 01 2013  13 07  -21.0226 26080.5 -03394.4 -07.4154 26300.4
 20 01 2013  13 08  -21.0226 26080.9 -03394.4 -07.4152 26300.9
 20 01 2013  13 09  -21.0225 26081.1 -03394.2 -07.4147 26301.0
 20 01 2013  13 10  -21.0227 26081.7 -03394.2 -07.4146 26301.6
 20 01 2013  13 11  -21.0229 26082.5 -03394.2 -07.4144 26302.4
 20 01 2013  13 12  -21.0233 26083.0 -03394.1 -07.4140 26302.9
 20 01 2013  13 13  -21.0234 26083.1 -03393.8 -07.4133 26303.0
 20 01 2013  13 14  -21.0230 26083.1 -03393.4 -07.4125 26302.9
 20 01 2013  13 15  -21.0229 26083.6 -03393.3 -07.4122 26303.4
 20 01 2013  13 16  -21.0236 26083.7 -03393.1 -07.4116 26303.4
 20 01 2013  13 17  -21.0244 26083.7 -03392.8 -07.4109 26303.4
 20 01 2013  13 18  -21.0244 26084.2 -03392.6 -07.4105 26303.9
 20 01 2013  13 19  -21.0245 26084.6 -03392.5 -07.4101 26304.3
 20 01 2013  13 20  -21.0249 26084.8 -03392.2 -07.4095 26304.5
 20 01 2013  13 21  -21.0255 26085.6 -03392.2 -07.4093 26305.2
 20 01 2013  13 22  -21.0266 26085.6 -03391.9 -07.4086 26305.2
 20 01 2013  13 23  -21.0272 26084.7 -03391.3 -07.4075 26304.3
 20 01 2013  13 24  -21.0274 26084.0 -03390.7 -07.4064 26303.5
 20 01 2013  13 25  -21.0279 26083.7 -03390.3 -07.4057 26303.1
 20 01 2013  13 26  -21.0281 26083.5 -03390.1 -07.4052 26302.9
 20 01 2013  13 27  -21.0281 26083.2 -03389.7 -07.4046 26302.5
 20 01 2013  13 28  -21.0285 26083.0 -03389.5 -07.4041 26302.3
 20 01 2013  13 29  -21.0291 26083.2 -03389.4 -07.4039 26302.5
 20 01 2013  13 30  -21.0288 26083.3 -03389.2 -07.4035 26302.5
 20 01 2013  13 31  -21.0284 26083.6 -03389.1 -07.4032 26302.9
 20 01 2013  13 32  -21.0285 26083.3 -03388.8 -07.4026 26302.5
 20 01 2013  13 33  -21.0283 26083.2 -03388.6 -07.4020 26302.4
 20 01 2013  13 34  -21.0280 26084.0 -03388.6 -07.4020 26303.2
 20 01 2013  13 35  -21.0284 26084.3 -03388.5 -07.4015 26303.5
 20 01 2013  13 36  -21.0293 26085.0 -03388.5 -07.4013 26304.2
 20 01 2013  13 37  -21.0292 26085.5 -03388.2 -07.4007 26304.6
 20 01 2013  13 38  -21.0289 26086.1 -03388.1 -07.4002 26305.2
 20 01 2013  13 39  -21.0281 26086.8 -03387.9 -07.3997 26305.9
 20 01 2013  13 40  -21.0279 26087.2 -03387.7 -07.3991 26306.3
 20 01 2013  13 41  -21.0280 26087.6 -03387.5 -07.3984 26306.6
 20 01 2013  13 42  -21.0284 26088.3 -03387.4 -07.3980 26307.3
 20 01 2013  13 43  -21.0285 26089.4 -03387.4 -07.3977 26308.4
 20 01 2013  13 44  -21.0291 26089.8 -03387.1 -07.3970 26308.8
 20 01 2013  13 45  -21.0293 26090.3 -03386.8 -07.3962 26309.2
 20 01 2013  13 46  -21.0292 26090.4 -03386.4 -07.3953 26309.3
 20 01 2013  13 47  -21.0290 26090.7 -03386.1 -07.3946 26309.5
 20 01 2013  13 48  -21.0289 26090.4 -03385.6 -07.3937 26309.1
 20 01 2013  13 49  -21.0287 26090.2 -03385.3 -07.3930 26309.0
 20 01 2013  13 50  -21.0288 26090.6 -03385.2 -07.3928 26309.3
 20 01 2013  13 51  -21.0286 26091.2 -03385.3 -07.3928 26309.9
 20 01 2013  13 52  -21.0277 26091.6 -03385.3 -07.3926 26310.3
 20 01 2013  13 53  -21.0271 26092.1 -03385.2 -07.3924 26310.7
 20 01 2013  13 54  -21.0273 26092.9 -03385.4 -07.3924 26311.6
 20 01 2013  13 55  -21.0277 26094.4 -03385.7 -07.3928 26313.1
 20 01 2013  13 56  -21.0276 26095.4 -03385.8 -07.3925 26314.1
 20 01 2013  13 57  -21.0271 26095.9 -03385.6 -07.3920 26314.6
 20 01 2013  13 58  -21.0268 26096.2 -03385.4 -07.3915 26314.9
 20 01 2013  13 59  -21.0267 26097.2 -03385.5 -07.3915 26315.8
 20 01 2013  14 00  -21.0267 26097.8 -03385.4 -07.3911 26316.4
 20 01 2013  14 01  -21.0270 26098.0 -03385.2 -07.3906 26316.6
 20 01 2013  14 02  -21.0279 26098.5 -03385.1 -07.3902 26317.1
 20 01 2013  14 03  -21.0290 26098.8 -03384.9 -07.3898 26317.4
 20 01 2013  14 04  -21.0294 26099.0 -03384.6 -07.3891 26317.6
 20 01 2013  14 05  -21.0295 26099.3 -03384.4 -07.3886 26317.8
 20 01 2013  14 06  -21.0293 26099.8 -03384.3 -07.3882 26318.3
 20 01 2013  14 07  -21.0290 26100.1 -03384.2 -07.3878 26318.6
 20 01 2013  14 08  -21.0288 26100.4 -03384.0 -07.3874 26318.9
 20 01 2013  14 09  -21.0290 26100.9 -03383.9 -07.3871 26319.4
 20 01 2013  14 10  -21.0296 26101.8 -03384.0 -07.3870 26320.2
 20 01 2013  14 11  -21.0302 26102.6 -03384.1 -07.3869 26321.1
 20 01 2013  14 12  -21.0307 26103.5 -03384.1 -07.3867 26321.9
 20 01 2013  14 13  -21.0309 26104.1 -03383.9 -07.3861 26322.5
 20 01 2013  14 14  -21.0308 26104.5 -03383.6 -07.3854 26322.9
 20 01 2013  14 15  -21.0310 26104.6 -03383.3 -07.3846 26323.0
 20 01 2013  14 16  -21.0312 26104.8 -03382.9 -07.3838 26323.1
 20 01 2013  14 17  -21.0320 26105.4 -03382.9 -07.3836 26323.7
 20 01 2013  14 18  -21.0326 26106.3 -03382.9 -07.3834 26324.5
 20 01 2013  14 19  -21.0334 26106.9 -03382.8 -07.3830 26325.2
 20 01 2013  14 20  -21.0340 26107.4 -03382.6 -07.3825 26325.6
 20 01 2013  14 21  -21.0341 26107.6 -03382.3 -07.3817 26325.8
 20 01 2013  14 22  -21.0341 26107.7 -03382.0 -07.3809 26325.9
 20 01 2013  14 23  -21.0342 26108.0 -03381.7 -07.3803 26326.1
 20 01 2013  14 24  -21.0347 26108.5 -03381.6 -07.3800 26326.6
 20 01 2013  14 25  -21.0351 26109.1 -03381.5 -07.3796 26327.2
 20 01 2013  14 26  -21.0351 26109.7 -03381.4 -07.3790 26327.8
 20 01 2013  14 27  -21.0355 26110.4 -03381.2 -07.3786 26328.4
 20 01 2013  14 28  -21.0362 26110.8 -03381.0 -07.3780 26328.8
 20 01 2013  14 29  -21.0363 26111.2 -03380.8 -07.3773 26329.1
 20 01 2013  14 30  -21.0364 26111.7 -03380.6 -07.3768 26329.6
 20 01 2013  14 31  -21.0370 26112.3 -03380.5 -07.3764 26330.2
 20 01 2013  14 32  -21.0373 26112.7 -03380.3 -07.3759 26330.5
 20 01 2013  14 33  -21.0374 26113.0 -03380.1 -07.3753 26330.9
 20 01 2013  14 34  -21.0373 26113.2 -03379.8 -07.3746 26331.0
 20 01 2013  14 35  -21.0372 26113.3 -03379.4 -07.3739 26331.1
 20 01 2013  14 36  -21.0372 26113.4 -03379.2 -07.3733 26331.1
 20 01 2013  14 37  -21.0375 26113.5 -03378.9 -07.3727 26331.2
 20 01 2013  14 38  -21.0381 26113.6 -03378.7 -07.3722 26331.2
 20 01 2013  14 39  -21.0387 26113.4 -03378.4 -07.3715 26331.1
 20 01 2013  14 40  -21.0394 26113.5 -03378.1 -07.3710 26331.1
 20 01 2013  14 41  -21.0400 26113.7 -03377.9 -07.3706 26331.3
 20 01 2013  14 42  -21.0405 26114.0 -03377.8 -07.3701 26331.5
 20 01 2013  14 43  -21.0407 26114.1 -03377.5 -07.3696 26331.6
 20 01 2013  14 44  -21.0412 26114.1 -03377.2 -07.3689 26331.6
 20 01 2013  14 45  -21.0415 26114.1 -03376.9 -07.3683 26331.6
 20 01 2013  14 46  -21.0416 26114.3 -03376.7 -07.3677 26331.8
 20 01 2013  14 47  -21.0417 26114.7 -03376.5 -07.3672 26332.1
 20 01 2013  14 48  -21.0416 26115.0 -03376.3 -07.3667 26332.3
 20 01 2013  14 49  -21.0417 26115.3 -03376.1 -07.3662 26332.6
 20 01 2013  14 50  -21.0416 26115.5 -03375.9 -07.3656 26332.8
 20 01 2013  14 51  -21.0417 26115.7 -03375.6 -07.3649 26333.0
 20 01 2013  14 52  -21.0417 26116.0 -03375.3 -07.3643 26333.2
 20 01 2013  14 53  -21.0418 26115.8 -03374.9 -07.3634 26333.0
 20 01 2013  14 54  -21.0419 26115.8 -03374.6 -07.3627 26332.9
 20 01 2013  14 55  -21.0419 26116.0 -03374.3 -07.3621 26333.1
 20 01 2013  14 56  -21.0422 26116.0 -03374.0 -07.3615 26333.0
 20 01 2013  14 57  -21.0423 26115.9 -03373.7 -07.3609 26333.0
 20 01 2013  14 58  -21.0424 26115.9 -03373.4 -07.3602 26332.9
 20 01 2013  14 59  -21.0424 26116.1 -03373.2 -07.3597 26333.1
 20 01 2013  15 00  -21.0422 26116.3 -03373.1 -07.3593 26333.3
 20 01 2013  15 01  -21.0420 26116.5 -03372.8 -07.3588 26333.4
 20 01 2013  15 02  -21.0420 26116.8 -03372.7 -07.3583 26333.6
 20 01 2013  15 03  -21.0418 26117.1 -03372.5 -07.3579 26334.0
 20 01 2013  15 04  -21.0414 26117.4 -03372.3 -07.3574 26334.2
 20 01 2013  15 05  -21.0409 26117.7 -03372.2 -07.3570 26334.5
 20 01 2013  15 06  -21.0404 26117.8 -03372.0 -07.3566 26334.6
 20 01 2013  15 07  -21.0399 26117.8 -03371.8 -07.3561 26334.6
 20 01 2013  15 08  -21.0394 26117.8 -03371.6 -07.3557 26334.6
 20 01 2013  15 09  -21.0390 26118.0 -03371.5 -07.3554 26334.7
 20 01 2013  15 10  -21.0385 26118.0 -03371.3 -07.3550 26334.7
 20 01 2013  15 11  -21.0380 26117.9 -03371.1 -07.3547 26334.6
 20 01 2013  15 12  -21.0375 26118.0 -03371.1 -07.3545 26334.7
 20 01 2013  15 13  -21.0372 26118.1 -03371.0 -07.3544 26334.7
 20 01 2013  15 14  -21.0368 26118.0 -03370.9 -07.3542 26334.6
 20 01 2013  15 15  -21.0364 26118.1 -03370.9 -07.3542 26334.7
 20 01 2013  15 16  -21.0359 26118.0 -03370.9 -07.3541 26334.6
 20 01 2013  15 17  -21.0353 26117.9 -03370.8 -07.3541 26334.6
 20 01 2013  15 18  -21.0347 26117.9 -03370.9 -07.3542 26334.5
 20 01 2013  15 19  -21.0343 26117.7 -03370.9 -07.3542 26334.4
 20 01 2013  15 20  -21.0339 26117.7 -03370.9 -07.3543 26334.3
 20 01 2013  15 21  -21.0337 26117.7 -03371.0 -07.3545 26334.3
 20 01 2013  15 22  -21.0336 26117.8 -03371.2 -07.3548 26334.5
 20 01 2013  15 23  -21.0333 26117.7 -03371.3 -07.3550 26334.4
 20 01 2013  15 24  -21.0329 26117.6 -03371.3 -07.3551 26334.3
 20 01 2013  15 25  -21.0326 26117.5 -03371.4 -07.3554 26334.2
 20 01 2013  15 26  -21.0323 26117.3 -03371.5 -07.3556 26334.0
 20 01 2013  15 27  -21.0322 26117.1 -03371.6 -07.3559 26333.8
 20 01 2013  15 28  -21.0323 26116.9 -03371.7 -07.3562 26333.7
 20 01 2013  15 29  -21.0323 26116.8 -03371.9 -07.3566 26333.6
 20 01 2013  15 30  -21.0319 26116.7 -03372.0 -07.3568 26333.4
 20 01 2013  15 31  -21.0317 26116.4 -03372.1 -07.3571 26333.2
 20 01 2013  15 32  -21.0314 26116.1 -03372.2 -07.3574 26332.9
 20 01 2013  15 33  -21.0313 26115.8 -03372.3 -07.3577 26332.6
 20 01 2013  15 34  -21.0314 26115.3 -03372.3 -07.3580 26332.2
 20 01 2013  15 35  -21.0314 26114.8 -03372.4 -07.3583 26331.6
 20 01 2013  15 36  -21.0316 26114.3 -03372.5 -07.3586 26331.1
 20 01 2013  15 37  -21.0319 26114.1 -03372.7 -07.3592 26331.0
 20 01 2013  15 38  -21.0322 26114.2 -03373.1 -07.3599 26331.1
 20 01 2013  15 39  -21.0326 26114.2 -03373.3 -07.3605 26331.2
 20 01 2013  15 40  -21.0328 26114.4 -03373.7 -07.3612 26331.4
 20 01 2013  15 41  -21.0330 26114.4 -03373.9 -07.3617 26331.5
 20 01 2013  15 42  -21.0335 26114.5 -03374.2 -07.3622 26331.6
 20 01 2013  15 43  -21.0341 26114.6 -03374.4 -07.3626 26331.7
 20 01 2013  15 44  -21.0345 26114.6 -03374.5 -07.3630 26331.7
 20 01 2013  15 45  -21.0349 26114.6 -03374.7 -07.3633 26331.7
 20 01 2013  15 46  -21.0355 26114.6 -03374.9 -07.3636 26331.8
 20 01 2013  15 47  -21.0362 26114.5 -03374.9 -07.3639 26331.6
 20 01 2013  15 48  -21.0368 26114.1 -03374.9 -07.3640 26331.2
 20 01 2013  15 49  -21.0375 26113.9 -03375.1 -07.3643 26331.1
 20 01 2013  15 50  -21.0382 26113.6 -03375.1 -07.3644 26330.8
 20 01 2013  15 51  -21.0385 26113.1 -03375.0 -07.3644 26330.3
 20 01 2013  15 52  -21.0392 26112.7 -03375.1 -07.3646 26329.9
 20 01 2013  15 53  -21.0399 26112.2 -03375.1 -07.3648 26329.4
 20 01 2013  15 54  -21.0402 26111.7 -03375.0 -07.3648 26328.9
 20 01 2013  15 55  -21.0406 26111.3 -03375.1 -07.3650 26328.5
 20 01 2013  15 56  -21.0410 26110.8 -03375.1 -07.3652 26328.1
 20 01 2013  15 57  -21.0413 26110.3 -03375.1 -07.3653 26327.5
 20 01 2013  15 58  -21.0419 26109.9 -03375.1 -07.3654 26327.1
 20 01 2013  15 59  -21.0430 26109.9 -03375.3 -07.3660 26327.2
 20 01 2013  16 00  -21.0442 26110.0 -03375.5 -07.3664 26327.3
 20 01 2013  16 01  -21.0451 26110.0 -03375.7 -07.3667 26327.3
 20 01 2013  16 02  -21.0461 26109.8 -03375.7 -07.3668 26327.1
 20 01 2013  16 03  -21.0470 26109.6 -03375.7 -07.3669 26326.9
 20 01 2013  16 04  -21.0479 26109.5 -03375.8 -07.3671 26326.8
 20 01 2013  16 05  -21.0490 26109.3 -03375.9 -07.3673 26326.6
 20 01 2013  16 06  -21.0501 26109.2 -03375.9 -07.3675 26326.5
 20 01 2013  16 07  -21.0511 26108.9 -03376.0 -07.3676 26326.3
 20 01 2013  16 08  -21.0523 26108.8 -03376.0 -07.3677 26326.1
 20 01 2013  16 09  -21.0534 26108.5 -03376.0 -07.3677 26325.9
 20 01 2013  16 10  -21.0544 26108.1 -03375.9 -07.3677 26325.5
 20 01 2013  16 11  -21.0555 26107.8 -03375.8 -07.3676 26325.2
 20 01 2013  16 12  -21.0566 26107.5 -03375.8 -07.3676 26324.9
 20 01 2013  16 13  -21.0579 26107.4 -03375.8 -07.3677 26324.8
 20 01 2013  16 14  -21.0591 26107.3 -03375.8 -07.3677 26324.7
 20 01 2013  16 15  -21.0604 26107.2 -03375.8 -07.3677 26324.6
 20 01 2013  16 16  -21.0614 26107.1 -03375.7 -07.3676 26324.4
 20 01 2013  16 17  -21.0623 26106.9 -03375.6 -07.3675 26324.3
 20 01 2013  16 18  -21.0631 26106.8 -03375.6 -07.3674 26324.1
 20 01 2013  16 19  -21.0639 26106.6 -03375.5 -07.3673 26323.9
 20 01 2013  16 20  -21.0645 26106.3 -03375.4 -07.3672 26323.6
 20 01 2013  16 21  -21.0651 26106.1 -03375.3 -07.3671 26323.4
 20 01 2013  16 22  -21.0657 26105.9 -03375.3 -07.3669 26323.2
 20 01 2013  16 23  -21.0663 26105.7 -03375.2 -07.3668 26323.0
 20 01 2013  16 24  -21.0668 26105.4 -03375.0 -07.3666 26322.6
 20 01 2013  16 25  -21.0674 26105.0 -03374.9 -07.3664 26322.3
 20 01 2013  16 26  -21.0681 26104.7 -03374.8 -07.3663 26321.9
 20 01 2013  16 27  -21.0691 26104.4 -03374.7 -07.3661 26321.6
 20 01 2013  16 28  -21.0699 26104.1 -03374.5 -07.3659 26321.3
 20 01 2013  16 29  -21.0704 26103.4 -03374.2 -07.3654 26320.5
 20 01 2013  16 30  -21.0712 26102.6 -03373.9 -07.3649 26319.8
 20 01 2013  16 31  -21.0721 26102.5 -03373.9 -07.3649 26319.7
 20 01 2013  16 32  -21.0734 26102.6 -03373.9 -07.3650 26319.8
 20 01 2013  16 33  -21.0742 26102.7 -03374.0 -07.3651 26319.9
 20 01 2013  16 34  -21.0750 26102.6 -03373.9 -07.3649 26319.8
 20 01 2013  16 35  -21.0757 26102.5 -03373.7 -07.3646 26319.6
 20 01 2013  16 36  -21.0761 26102.1 -03373.5 -07.3642 26319.2
 20 01 2013  16 37  -21.0760 26101.5 -03373.2 -07.3637 26318.5
 20 01 2013  16 38  -21.0760 26101.1 -03373.0 -07.3633 26318.1
 20 01 2013  16 39  -21.0760 26100.5 -03372.7 -07.3629 26317.5
 20 01 2013  16 40  -21.0759 26099.8 -03372.4 -07.3625 26316.8
 20 01 2013  16 41  -21.0764 26099.3 -03372.2 -07.3621 26316.2
 20 01 2013  16 42  -21.0771 26098.6 -03371.9 -07.3618 26315.5
 20 01 2013  16 43  -21.0776 26098.0 -03371.7 -07.3614 26314.8
 20 01 2013  16 44  -21.0779 26097.2 -03371.3 -07.3608 26314.0
 20 01 2013  16 45  -21.0789 26096.6 -03371.1 -07.3605 26313.5
 20 01 2013  16 46  -21.0796 26096.3 -03371.0 -07.3604 26313.1
 20 01 2013  16 47  -21.0796 26095.8 -03370.8 -07.3601 26312.6
 20 01 2013  16 48  -21.0795 26095.7 -03370.7 -07.3599 26312.5
 20 01 2013  16 49  -21.0794 26095.2 -03370.4 -07.3595 26311.9
 20 01 2013  16 50  -21.0794 26094.6 -03370.1 -07.3590 26311.4
 20 01 2013  16 51  -21.0799 26094.4 -03370.0 -07.3588 26311.1
 20 01 2013  16 52  -21.0804 26094.2 -03369.8 -07.3585 26310.9
 20 01 2013  16 53  -21.0809 26094.0 -03369.6 -07.3581 26310.7
 20 01 2013  16 54  -21.0812 26093.9 -03369.4 -07.3577 26310.5
 20 01 2013  16 55  -21.0813 26093.5 -03369.1 -07.3571 26310.1
 20 01 2013  16 56  -21.0809 26093.1 -03368.7 -07.3564 26309.7
 20 01 2013  16 57  -21.0809 26092.8 -03368.4 -07.3558 26309.3
 20 01 2013  16 58  -21.0809 26092.8 -03368.2 -07.3553 26309.3
 20 01 2013  16 59  -21.0814 26092.4 -03367.8 -07.3547 26308.8
 20 01 2013  17 00  -21.0815 26092.3 -03367.6 -07.3542 26308.7
 20 01 2013  17 01  -21.0814 26092.1 -03367.2 -07.3535 26308.5
 20 01 2013  17 02  -21.0811 26091.8 -03366.9 -07.3527 26308.2
 20 01 2013  17 03  -21.0810 26091.5 -03366.5 -07.3520 26307.8
 20 01 2013  17 04  -21.0808 26091.1 -03366.0 -07.3511 26307.3
 20 01 2013  17 05  -21.0806 26090.7 -03365.5 -07.3502 26306.8
 20 01 2013  17 06  -21.0803 26090.3 -03365.1 -07.3493 26306.4
 20 01 2013  17 07  -21.0800 26089.9 -03364.6 -07.3484 26305.9
 20 01 2013  17 08  -21.0792 26089.2 -03364.0 -07.3473 26305.2
 20 01 2013  17 09  -21.0786 26089.2 -03363.7 -07.3467 26305.1
 20 01 2013  17 10  -21.0776 26088.5 -03363.2 -07.3457 26304.4
 20 01 2013  17 11  -21.0762 26088.0 -03362.7 -07.3448 26303.8
 20 01 2013  17 12  -21.0748 26087.1 -03362.1 -07.3437 26302.9
 20 01 2013  17 13  -21.0742 26086.6 -03361.8 -07.3432 26302.3
 20 01 2013  17 14  -21.0727 26086.4 -03361.6 -07.3429 26302.1
 20 01 2013  17 15  -21.0711 26085.6 -03361.2 -07.3422 26301.2
 20 01 2013  17 16  -21.0693 26085.2 -03361.0 -07.3419 26300.8
 20 01 2013  17 17  -21.0675 26084.7 -03360.8 -07.3417 26300.3
 20 01 2013  17 18  -21.0654 26084.2 -03360.7 -07.3416 26299.8
 20 01 2013  17 19  -21.0633 26083.8 -03360.6 -07.3415 26299.4
 20 01 2013  17 20  -21.0617 26083.5 -03360.6 -07.3416 26299.1
 20 01 2013  17 21  -21.0604 26083.0 -03360.6 -07.3416 26298.6
 20 01 2013  17 22  -21.0587 26082.6 -03360.6 -07.3417 26298.2
 20 01 2013  17 23  -21.0573 26082.3 -03360.6 -07.3419 26297.9
 20 01 2013  17 24  -21.0552 26081.9 -03360.6 -07.3420 26297.5
 20 01 2013  17 25  -21.0540 26081.7 -03360.7 -07.3423 26297.3
 20 01 2013  17 26  -21.0523 26081.6 -03360.8 -07.3426 26297.3
 20 01 2013  17 27  -21.0511 26081.6 -03361.0 -07.3429 26297.2
 20 01 2013  17 28  -21.0495 26081.4 -03361.1 -07.3432 26297.1
 20 01 2013  17 29  -21.0479 26081.3 -03361.3 -07.3436 26297.0
 20 01 2013  17 30  -21.0465 26080.9 -03361.3 -07.3438 26296.6
 20 01 2013  17 31  -21.0450 26080.8 -03361.5 -07.3442 26296.5
 20 01 2013  17 32  -21.0438 26080.6 -03361.7 -07.3447 26296.4
 20 01 2013  17 33  -21.0423 26080.4 -03361.9 -07.3451 26296.1
 20 01 2013  17 34  -21.0408 26080.1 -03362.0 -07.3455 26296.0
 20 01 2013  17 35  -21.0396 26079.7 -03362.2 -07.3460 26295.6
 20 01 2013  17 36  -21.0379 26079.4 -03362.4 -07.3465 26295.2
 20 01 2013  17 37  -21.0367 26079.1 -03362.6 -07.3471 26295.0
 20 01 2013  17 38  -21.0350 26078.7 -03362.8 -07.3477 26294.7
 20 01 2013  17 39  -21.0339 26078.4 -03363.1 -07.3484 26294.3
 20 01 2013  17 40  -21.0326 26078.1 -03363.4 -07.3491 26294.1
 20 01 2013  17 41  -21.0311 26077.6 -03363.6 -07.3496 26293.6
 20 01 2013  17 42  -21.0301 26077.1 -03363.8 -07.3503 26293.1
 20 01 2013  17 43  -21.0285 26076.3 -03363.9 -07.3507 26292.4
 20 01 2013  17 44  -21.0274 26076.0 -03364.4 -07.3518 26292.2
 20 01 2013  17 45  -21.0261 26075.7 -03364.7 -07.3527 26291.9
 20 01 2013  17 46  -21.0252 26075.4 -03365.2 -07.3537 26291.7
 20 01 2013  17 47  -21.0239 26075.2 -03365.6 -07.3547 26291.5
 20 01 2013  17 48  -21.0231 26075.1 -03366.1 -07.3558 26291.5
 20 01 2013  17 49  -21.0220 26075.1 -03366.7 -07.3570 26291.6
 20 01 2013  17 50  -21.0210 26074.7 -03367.1 -07.3580 26291.2
 20 01 2013  17 51  -21.0201 26074.7 -03367.6 -07.3591 26291.3
 20 01 2013  17 52  -21.0192 26074.3 -03368.0 -07.3601 26291.0
 20 01 2013  17 53  -21.0184 26073.8 -03368.4 -07.3611 26290.5
 20 01 2013  17 54  -21.0176 26073.5 -03368.8 -07.3621 26290.3
 20 01 2013  17 55  -21.0170 26073.1 -03369.3 -07.3631 26289.9
 20 01 2013  17 56  -21.0164 26072.8 -03369.7 -07.3642 26289.6
 20 01 2013  17 57  -21.0158 26072.4 -03370.2 -07.3653 26289.4
 20 01 2013  17 58  -21.0152 26072.0 -03370.6 -07.3663 26289.0
 20 01 2013  17 59  -21.0147 26072.0 -03371.2 -07.3677 26289.0
 20 01 2013  18 00  -21.0143 26071.9 -03371.8 -07.3690 26289.1
 20 01 2013  18 01  -21.0135 26071.8 -03372.3 -07.3702 26289.0
 20 01 2013  18 02  -21.0131 26071.9 -03373.0 -07.3716 26289.2
 20 01 2013  18 03  -21.0127 26071.8 -03373.5 -07.3728 26289.1
 20 01 2013  18 04  -21.0126 26071.9 -03374.2 -07.3741 26289.3
 20 01 2013  18 05  -21.0123 26071.9 -03374.7 -07.3753 26289.4
 20 01 2013  18 06  -21.0119 26071.8 -03375.2 -07.3764 26289.3
 20 01 2013  18 07  -21.0118 26071.7 -03375.8 -07.3776 26289.3
 20 01 2013  18 08  -21.0117 26071.6 -03376.3 -07.3787 26289.3
 20 01 2013  18 09  -21.0114 26071.3 -03376.7 -07.3798 26289.1
 20 01 2013  18 10  -21.0113 26071.0 -03377.2 -07.3808 26288.9
 20 01 2013  18 11  -21.0114 26070.6 -03377.6 -07.3818 26288.5
 20 01 2013  18 12  -21.0115 26070.1 -03377.9 -07.3827 26288.0
 20 01 2013  18 13  -21.0118 26069.5 -03378.2 -07.3836 26287.5
 20 01 2013  18 14  -21.0121 26068.9 -03378.5 -07.3844 26286.9
 20 01 2013  18 15  -21.0124 26068.4 -03378.9 -07.3852 26286.5
 20 01 2013  18 16  -21.0129 26067.9 -03379.2 -07.3861 26286.0
 20 01 2013  18 17  -21.0134 26067.4 -03379.5 -07.3870 26285.6
 20 01 2013  18 18  -21.0136 26066.9 -03379.8 -07.3877 26285.1
 20 01 2013  18 19  -21.0139 26066.4 -03380.1 -07.3885 26284.7
 20 01 2013  18 20  -21.0144 26066.0 -03380.4 -07.3893 26284.3
 20 01 2013  18 21  -21.0147 26065.8 -03380.8 -07.3902 26284.1
 20 01 2013  18 22  -21.0151 26065.4 -03381.1 -07.3909 26283.8
 20 01 2013  18 23  -21.0155 26065.0 -03381.4 -07.3916 26283.4
 20 01 2013  18 24  -21.0158 26064.7 -03381.7 -07.3924 26283.2
 20 01 2013  18 25  -21.0162 26064.5 -03382.0 -07.3931 26283.0
 20 01 2013  18 26  -21.0166 26064.2 -03382.3 -07.3938 26282.7
 20 01 2013  18 27  -21.0169 26064.0 -03382.6 -07.3945 26282.6
 20 01 2013  18 28  -21.0173 26063.9 -03382.9 -07.3952 26282.5
 20 01 2013  18 29  -21.0177 26063.7 -03383.1 -07.3958 26282.3
 20 01 2013  18 30  -21.0181 26063.4 -03383.3 -07.3963 26282.1
 20 01 2013  18 31  -21.0184 26063.2 -03383.6 -07.3968 26281.9
 20 01 2013  18 32  -21.0187 26062.9 -03383.7 -07.3973 26281.6
 20 01 2013  18 33  -21.0189 26062.6 -03383.9 -07.3978 26281.4
 20 01 2013  18 34  -21.0191 26062.2 -03384.1 -07.3982 26281.0
 20 01 2013  18 35  -21.0193 26061.8 -03384.2 -07.3986 26280.6
 20 01 2013  18 36  -21.0194 26061.6 -03384.4 -07.3991 26280.4
 20 01 2013  18 37  -21.0196 26061.3 -03384.6 -07.3995 26280.2
 20 01 2013  18 38  -21.0200 26061.1 -03384.8 -07.4001 26280.0
 20 01 2013  18 39  -21.0204 26061.0 -03385.1 -07.4007 26279.9
 20 01 2013  18 40  -21.0209 26060.8 -03385.3 -07.4012 26279.8
 20 01 2013  18 41  -21.0214 26060.8 -03385.6 -07.4018 26279.8
 20 01 2013  18 42  -21.0219 26060.7 -03385.8 -07.4024 26279.7
 20 01 2013  18 43  -21.0221 26060.5 -03386.0 -07.4028 26279.5
 20 01 2013  18 44  -21.0223 26060.3 -03386.2 -07.4033 26279.3
 20 01 2013  18 45  -21.0223 26059.9 -03386.2 -07.4035 26279.0
 20 01 2013  18 46  -21.0224 26059.6 -03386.4 -07.4039 26278.7
 20 01 2013  18 47  -21.0226 26059.3 -03386.5 -07.4043 26278.4
 20 01 2013  18 48  -21.0227 26058.8 -03386.5 -07.4045 26278.0
 20 01 2013  18 49  -21.0227 26058.5 -03386.7 -07.4049 26277.7
 20 01 2013  18 50  -21.0229 26058.3 -03386.8 -07.4053 26277.5
 20 01 2013  18 51  -21.0229 26058.2 -03387.0 -07.4057 26277.4
 20 01 2013  18 52  -21.0230 26058.0 -03387.2 -07.4062 26277.2
 20 01 2013  18 53  -21.0232 26057.9 -03387.4 -07.4066 26277.1
 20 01 2013  18 54  -21.0233 26057.7 -03387.5 -07.4069 26276.9
 20 01 2013  18 55  -21.0234 26057.5 -03387.6 -07.4072 26276.8
 20 01 2013  18 56  -21.0234 26057.3 -03387.7 -07.4075 26276.6
 20 01 2013  18 57  -21.0236 26057.2 -03387.9 -07.4080 26276.5
 20 01 2013  18 58  -21.0236 26056.9 -03388.0 -07.4082 26276.2
 20 01 2013  18 59  -21.0234 26056.4 -03388.0 -07.4083 26275.8
 20 01 2013  19 00  -21.0233 26056.0 -03388.0 -07.4084 26275.3
 20 01 2013  19 01  -21.0234 26055.6 -03388.0 -07.4086 26274.9
 20 01 2013  19 02  -21.0235 26055.2 -03388.1 -07.4088 26274.5
 20 01 2013  19 03  -21.0236 26054.8 -03388.2 -07.4091 26274.2
 20 01 2013  19 04  -21.0238 26054.5 -03388.3 -07.4095 26273.9
 20 01 2013  19 05  -21.0237 26054.4 -03388.5 -07.4100 26273.9
 20 01 2013  19 06  -21.0238 26054.5 -03388.8 -07.4106 26274.0
 20 01 2013  19 07  -21.0245 26054.6 -03389.1 -07.4112 26274.1
 20 01 2013  19 08  -21.0246 26054.7 -03389.3 -07.4116 26274.2
 20 01 2013  19 09  -21.0248 26054.5 -03389.4 -07.4119 26274.0
 20 01 2013  19 10  -21.0250 26054.2 -03389.4 -07.4120 26273.7
 20 01 2013  19 11  -21.0252 26053.9 -03389.4 -07.4122 26273.4
 20 01 2013  19 12  -21.0254 26053.6 -03389.5 -07.4124 26273.2
 20 01 2013  19 13  -21.0255 26053.3 -03389.6 -07.4127 26272.9
 20 01 2013  19 14  -21.0257 26053.1 -03389.7 -07.4129 26272.7
 20 01 2013  19 15  -21.0259 26052.9 -03389.8 -07.4133 26272.5
 20 01 2013  19 16  -21.0261 26052.9 -03390.0 -07.4137 26272.5
 20 01 2013  19 17  -21.0263 26052.8 -03390.2 -07.4141 26272.5
 20 01 2013  19 18  -21.0266 26052.7 -03390.4 -07.4145 26272.4
 20 01 2013  19 19  -21.0266 26052.5 -03390.5 -07.4148 26272.2
 20 01 2013  19 20  -21.0267 26052.3 -03390.6 -07.4151 26272.0
 20 01 2013  19 21  -21.0269 26052.1 -03390.7 -07.4154 26271.8
 20 01 2013  19 22  -21.0270 26051.9 -03390.8 -07.4156 26271.6
 20 01 2013  19 23  -21.0272 26051.8 -03390.9 -07.4159 26271.5
 20 01 2013  19 24  -21.0274 26051.7 -03391.1 -07.4163 26271.4
 20 01 2013  19 25  -21.0276 26051.6 -03391.2 -07.4167 26271.4
 20 01 2013  19 26  -21.0278 26051.5 -03391.4 -07.4170 26271.4
 20 01 2013  19 27  -21.0279 26051.5 -03391.5 -07.4173 26271.3
 20 01 2013  19 28  -21.0280 26051.5 -03391.7 -07.4177 26271.3
 20 01 2013  19 29  -21.0283 26051.4 -03391.8 -07.4180 26271.3
 20 01 2013  19 30  -21.0287 26051.3 -03391.9 -07.4183 26271.2
 20 01 2013  19 31  -21.0289 26051.3 -03392.1 -07.4186 26271.2
 20 01 2013  19 32  -21.0291 26051.0 -03392.1 -07.4187 26271.0
 20 01 2013  19 33  -21.0294 26050.8 -03392.1 -07.4188 26270.7
 20 01 2013  19 34  -21.0295 26050.7 -03392.2 -07.4190 26270.7
 20 01 2013  19 35  -21.0297 26050.5 -03392.3 -07.4192 26270.4
 20 01 2013  19 36  -21.0298 26050.3 -03392.3 -07.4193 26270.2
 20 01 2013  19 37  -21.0299 26050.2 -03392.3 -07.4195 26270.1
 20 01 2013  19 38  -21.0298 26050.2 -03392.5 -07.4197 26270.1
 20 01 2013  19 39  -21.0297 26050.1 -03392.6 -07.4200 26270.1
 20 01 2013  19 40  -21.0296 26050.1 -03392.7 -07.4203 26270.1
 20 01 2013  19 41  -21.0297 26050.0 -03392.8 -07.4204 26270.0
 20 01 2013  19 42  -21.0294 26050.3 -03393.1 -07.4210 26270.3
 20 01 2013  19 43  -21.0293 26050.4 -03393.2 -07.4214 26270.4
 20 01 2013  19 44  -21.0291 26050.5 -03393.4 -07.4216 26270.6
 20 01 2013  19 45  -21.0290 26050.7 -03393.6 -07.4220 26270.8
 20 01 2013  19 46  -21.0286 26050.8 -03393.7 -07.4222 26270.9
 20 01 2013  19 47  -21.0285 26050.7 -03393.8 -07.4225 26270.9
 20 01 2013  19 48  -21.0284 26050.6 -03393.8 -07.4226 26270.7
 20 01 2013  19 49  -21.0285 26050.6 -03393.9 -07.4228 26270.7
 20 01 2013  19 50  -21.0287 26050.5 -03394.0 -07.4230 26270.6
 20 01 2013  19 51  -21.0289 26050.4 -03394.1 -07.4231 26270.6
 20 01 2013  19 52  -21.0290 26050.4 -03394.1 -07.4232 26270.5
 20 01 2013  19 53  -21.0292 26050.3 -03394.2 -07.4234 26270.5
 20 01 2013  19 54  -21.0293 26050.4 -03394.3 -07.4236 26270.6
 20 01 2013  19 55  -21.0295 26050.5 -03394.4 -07.4238 26270.7
 20 01 2013  19 56  -21.0296 26050.6 -03394.5 -07.4240 26270.8
 20 01 2013  19 57  -21.0297 26050.6 -03394.6 -07.4242 26270.9
 20 01 2013  19 58  -21.0298 26050.7 -03394.6 -07.4243 26270.9
 20 01 2013  19 59  -21.0299 26050.7 -03394.7 -07.4244 26271.0
 20 01 2013  20 00  -21.0301 26050.7 -03394.7 -07.4245 26271.0
 20 01 2013  20 01  -21.0302 26050.6 -03394.7 -07.4245 26270.9
 20 01 2013  20 02  -21.0305 26050.6 -03394.7 -07.4245 26270.8
 20 01 2013  20 03  -21.0306 26050.6 -03394.7 -07.4246 26270.9
 20 01 2013  20 04  -21.0308 26050.5 -03394.8 -07.4246 26270.8
 20 01 2013  20 05  -21.0310 26050.5 -03394.8 -07.4246 26270.8
 20 01 2013  20 06  -21.0311 26050.5 -03394.8 -07.4247 26270.8
 20 01 2013  20 07  -21.0312 26050.5 -03394.8 -07.4247 26270.8
 20 01 2013  20 08  -21.0314 26050.5 -03394.8 -07.4248 26270.8
 20 01 2013  20 09  -21.0313 26050.5 -03394.8 -07.4248 26270.8
 20 01 2013  20 10  -21.0314 26050.6 -03394.9 -07.4248 26270.8
 20 01 2013  20 11  -21.0314 26050.6 -03394.9 -07.4249 26270.8
 20 01 2013  20 12  -21.0314 26050.6 -03394.9 -07.4249 26270.9
 20 01 2013  20 13  -21.0315 26050.6 -03394.9 -07.4249 26270.8
 20 01 2013  20 14  -21.0315 26050.6 -03394.9 -07.4249 26270.8
 20 01 2013  20 15  -21.0316 26050.6 -03394.9 -07.4250 26270.9
 20 01 2013  20 16  -21.0317 26050.6 -03394.9 -07.4250 26270.9
 20 01 2013  20 17  -21.0318 26050.6 -03395.0 -07.4250 26270.9
 20 01 2013  20 18  -21.0318 26050.7 -03395.0 -07.4250 26271.0
 20 01 2013  20 19  -21.0319 26050.7 -03395.0 -07.4250 26271.0
 20 01 2013  20 20  -21.0320 26050.7 -03394.9 -07.4250 26271.0
 20 01 2013  20 21  -21.0321 26050.7 -03394.9 -07.4249 26271.0
 20 01 2013  20 22  -21.0321 26050.7 -03394.9 -07.4249 26271.0
 20 01 2013  20 23  -21.0321 26050.7 -03394.9 -07.4248 26271.0
 20 01 2013  20 24  -21.0322 26050.7 -03394.8 -07.4247 26271.0
 20 01 2013  20 25  -21.0323 26050.7 -03394.8 -07.4246 26271.0
 20 01 2013  20 26  -21.0322 26050.7 -03394.8 -07.4246 26271.0
 20 01 2013  20 27  -21.0322 26050.7 -03394.7 -07.4245 26270.9
 20 01 2013  20 28  -21.0322 26050.7 -03394.7 -07.4244 26270.9
 20 01 2013  20 29  -21.0322 26050.7 -03394.7 -07.4243 26270.9
 20 01 2013  20 30  -21.0321 26050.6 -03394.6 -07.4242 26270.9
 20 01 2013  20 31  -21.0320 26050.7 -03394.6 -07.4242 26270.9
 20 01 2013  20 32  -21.0320 26050.6 -03394.6 -07.4241 26270.9
 20 01 2013  20 33  -21.0319 26050.6 -03394.5 -07.4240 26270.9
 20 01 2013  20 34  -21.0319 26050.6 -03394.5 -07.4240 26270.8
 20 01 2013  20 35  -21.0320 26050.6 -03394.4 -07.4239 26270.8
 20 01 2013  20 36  -21.0321 26050.6 -03394.4 -07.4238 26270.8
 20 01 2013  20 37  -21.0321 26050.6 -03394.4 -07.4237 26270.8
 20 01 2013  20 38  -21.0321 26050.5 -03394.3 -07.4236 26270.7
 20 01 2013  20 39  -21.0321 26050.5 -03394.3 -07.4235 26270.7
 20 01 2013  20 40  -21.0322 26050.5 -03394.2 -07.4234 26270.6
 20 01 2013  20 41  -21.0321 26050.4 -03394.1 -07.4233 26270.6
 20 01 2013  20 42  -21.0321 26050.4 -03394.1 -07.4232 26270.6
 20 01 2013  20 43  -21.0321 26050.4 -03394.1 -07.4231 26270.6
 20 01 2013  20 44  -21.0321 26050.4 -03394.0 -07.4230 26270.6
 20 01 2013  20 45  -21.0320 26050.4 -03394.0 -07.4229 26270.5
 20 01 2013  20 46  -21.0319 26050.4 -03393.9 -07.4228 26270.5
 20 01 2013  20 47  -21.0318 26050.3 -03393.8 -07.4226 26270.5
 20 01 2013  20 48  -21.0317 26050.3 -03393.8 -07.4226 26270.5
 20 01 2013  20 49  -21.0316 26050.3 -03393.7 -07.4224 26270.4
 20 01 2013  20 50  -21.0315 26050.2 -03393.6 -07.4223 26270.4
 20 01 2013  20 51  -21.0315 26050.1 -03393.5 -07.4220 26270.2
 20 01 2013  20 52  -21.0315 26049.9 -03393.4 -07.4218 26270.0
 20 01 2013  20 53  -21.0316 26049.7 -03393.2 -07.4215 26269.8
 20 01 2013  20 54  -21.0317 26049.6 -03393.1 -07.4214 26269.7
 20 01 2013  20 55  -21.0317 26049.6 -03393.0 -07.4212 26269.6
 20 01 2013  20 56  -21.0316 26049.6 -03393.0 -07.4211 26269.6
 20 01 2013  20 57  -21.0315 26049.7 -03393.0 -07.4210 26269.7
 20 01 2013  20 58  -21.0313 26049.8 -03393.0 -07.4209 26269.8
 20 01 2013  20 59  -21.0310 26049.8 -03392.9 -07.4209 26269.9
 20 01 2013  21 00  -21.0307 26049.9 -03392.9 -07.4208 26269.9
 20 01 2013  21 01  -21.0305 26050.0 -03392.9 -07.4207 26270.0
 20 01 2013  21 02  -21.0302 26050.0 -03392.8 -07.4206 26270.0
 20 01 2013  21 03  -21.0299 26050.1 -03392.8 -07.4205 26270.2
 20 01 2013  21 04  -21.0297 26050.2 -03392.8 -07.4205 26270.2
 20 01 2013  21 05  -21.0295 26050.2 -03392.7 -07.4203 26270.2
 20 01 2013  21 06  -21.0293 26050.1 -03392.6 -07.4201 26270.1
 20 01 2013  21 07  -21.0292 26050.0 -03392.5 -07.4198 26269.9
 20 01 2013  21 08  -21.0291 26049.8 -03392.3 -07.4196 26269.7
 20 01 2013  21 09  -21.0289 26049.8 -03392.2 -07.4194 26269.7
 20 01 2013  21 10  -21.0286 26049.9 -03392.2 -07.4193 26269.8
 20 01 2013  21 11  -21.0282 26050.1 -03392.3 -07.4194 26270.0
 20 01 2013  21 12  -21.0278 26050.2 -03392.3 -07.4193 26270.2
 20 01 2013  21 13  -21.0273 26050.2 -03392.2 -07.4192 26270.2
 20 01 2013  21 14  -21.0268 26050.2 -03392.2 -07.4191 26270.2
 20 01 2013  21 15  -21.0264 26050.2 -03392.1 -07.4190 26270.1
 20 01 2013  21 16  -21.0260 26050.3 -03392.1 -07.4189 26270.2
 20 01 2013  21 17  -21.0256 26050.3 -03392.1 -07.4189 26270.2
 20 01 2013  21 18  -21.0253 26050.3 -03392.1 -07.4189 26270.2
 20 01 2013  21 19  -21.0251 26050.2 -03392.0 -07.4188 26270.1
 20 01 2013  21 20  -21.0249 26050.1 -03392.0 -07.4187 26270.0
 20 01 2013  21 21  -21.0247 26050.0 -03391.9 -07.4186 26269.9
 20 01 2013  21 22  -21.0245 26050.0 -03391.9 -07.4185 26269.9
 20 01 2013  21 23  -21.0243 26050.1 -03391.9 -07.4186 26270.0
 20 01 2013  21 24  -21.0241 26050.3 -03392.0 -07.4187 26270.2
 20 01 2013  21 25  -21.0238 26050.5 -03392.1 -07.4189 26270.4
 20 01 2013  21 26  -21.0235 26050.6 -03392.1 -07.4189 26270.5
 20 01 2013  21 27  -21.0232 26050.6 -03392.1 -07.4189 26270.5
 20 01 2013  21 28  -21.0229 26050.5 -03392.0 -07.4187 26270.4
 20 01 2013  21 29  -21.0226 26050.4 -03391.9 -07.4185 26270.3
 20 01 2013  21 30  -21.0224 26050.3 -03391.8 -07.4183 26270.2
 20 01 2013  21 31  -21.0220 26050.2 -03391.7 -07.4181 26270.1
 20 01 2013  21 32  -21.0217 26050.2 -03391.7 -07.4180 26270.0
 20 01 2013  21 33  -21.0214 26050.1 -03391.6 -07.4179 26269.9
 20 01 2013  21 34  -21.0211 26049.9 -03391.4 -07.4176 26269.8
 20 01 2013  21 35  -21.0207 26050.0 -03391.4 -07.4176 26269.8
 20 01 2013  21 36  -21.0202 26050.1 -03391.5 -07.4176 26269.9
 20 01 2013  21 37  -21.0196 26050.2 -03391.5 -07.4176 26270.0
 20 01 2013  21 38  -21.0190 26050.3 -03391.5 -07.4177 26270.2
 20 01 2013  21 39  -21.0183 26050.4 -03391.6 -07.4178 26270.3
 20 01 2013  21 40  -21.0177 26050.4 -03391.6 -07.4178 26270.3
 20 01 2013  21 41  -21.0173 26050.4 -03391.6 -07.4177 26270.2
 20 01 2013  21 42  -21.0169 26050.4 -03391.6 -07.4177 26270.2
 20 01 2013  21 43  -21.0166 26050.3 -03391.5 -07.4177 26270.1
 20 01 2013  21 44  -21.0164 26050.2 -03391.5 -07.4177 26270.1
 20 01 2013  21 45  -21.0161 26050.2 -03391.5 -07.4177 26270.0
 20 01 2013  21 46  -21.0159 26050.0 -03391.5 -07.4176 26269.8
 20 01 2013  21 47  -21.0157 26049.9 -03391.4 -07.4176 26269.7
 20 01 2013  21 48  -21.0155 26049.9 -03391.4 -07.4176 26269.7
 20 01 2013  21 49  -21.0154 26049.8 -03391.5 -07.4177 26269.7
 20 01 2013  21 50  -21.0154 26049.8 -03391.5 -07.4177 26269.6
 20 01 2013  21 51  -21.0153 26049.7 -03391.5 -07.4177 26269.5
 20 01 2013  21 52  -21.0153 26049.7 -03391.5 -07.4178 26269.5
 20 01 2013  21 53  -21.0151 26049.7 -03391.5 -07.4178 26269.6
 20 01 2013  21 54  -21.0148 26049.7 -03391.5 -07.4179 26269.5
 20 01 2013  21 55  -21.0146 26049.7 -03391.6 -07.4180 26269.6
 20 01 2013  21 56  -21.0144 26049.8 -03391.6 -07.4181 26269.6
 20 01 2013  21 57  -21.0141 26049.8 -03391.7 -07.4182 26269.7
 20 01 2013  21 58  -21.0137 26049.8 -03391.7 -07.4182 26269.7
 20 01 2013  21 59  -21.0132 26049.9 -03391.8 -07.4184 26269.8
 20 01 2013  22 00  -21.0131 26050.0 -03391.9 -07.4185 26269.9
 20 01 2013  22 01  -21.0129 26050.0 -03391.9 -07.4186 26269.9
 20 01 2013  22 02  -21.0129 26050.1 -03392.0 -07.4187 26270.0
 20 01 2013  22 03  -21.0128 26050.1 -03392.0 -07.4188 26270.1
 20 01 2013  22 04  -21.0126 26050.1 -03392.1 -07.4189 26270.0
 20 01 2013  22 05  -21.0123 26050.1 -03392.0 -07.4189 26270.0
 20 01 2013  22 06  -21.0120 26050.0 -03392.0 -07.4188 26269.9
 20 01 2013  22 07  -21.0118 26049.9 -03392.0 -07.4188 26269.8
 20 01 2013  22 08  -21.0116 26049.9 -03392.0 -07.4189 26269.8
 20 01 2013  22 09  -21.0114 26049.9 -03392.0 -07.4189 26269.8
 20 01 2013  22 10  -21.0113 26049.9 -03392.1 -07.4190 26269.8
 20 01 2013  22 11  -21.0112 26049.8 -03392.0 -07.4190 26269.7
 20 01 2013  22 12  -21.0111 26049.7 -03392.0 -07.4190 26269.6
 20 01 2013  22 13  -21.0110 26049.7 -03392.1 -07.4191 26269.6
 20 01 2013  22 14  -21.0108 26049.8 -03392.2 -07.4192 26269.8
 20 01 2013  22 15  -21.0106 26050.0 -03392.2 -07.4193 26269.9
 20 01 2013  22 16  -21.0105 26050.0 -03392.3 -07.4195 26270.0
 20 01 2013  22 17  -21.0103 26050.1 -03392.4 -07.4195 26270.0
 20 01 2013  22 18  -21.0102 26050.2 -03392.4 -07.4196 26270.1
 20 01 2013  22 19  -21.0100 26050.2 -03392.4 -07.4197 26270.2
 20 01 2013  22 20  -21.0098 26050.3 -03392.5 -07.4197 26270.2
 20 01 2013  22 21  -21.0097 26050.2 -03392.5 -07.4197 26270.1
 20 01 2013  22 22  -21.0096 26050.1 -03392.4 -07.4197 26270.1
 20 01 2013  22 23  -21.0094 26050.0 -03392.4 -07.4197 26270.0
 20 01 2013  22 24  -21.0093 26050.0 -03392.4 -07.4197 26269.9
 20 01 2013  22 25  -21.0093 26049.9 -03392.4 -07.4197 26269.9
 20 01 2013  22 26  -21.0093 26049.8 -03392.4 -07.4197 26269.8
 20 01 2013  22 27  -21.0093 26049.8 -03392.4 -07.4197 26269.8
 20 01 2013  22 28  -21.0092 26049.9 -03392.4 -07.4197 26269.9
 20 01 2013  22 29  -21.0093 26049.8 -03392.4 -07.4197 26269.8
 20 01 2013  22 30  -21.0094 26049.9 -03392.5 -07.4198 26269.8
 20 01 2013  22 31  -21.0092 26050.0 -03392.5 -07.4199 26270.0
 20 01 2013  22 32  -21.0092 26049.9 -03392.5 -07.4199 26269.9
 20 01 2013  22 33  -21.0093 26049.8 -03392.5 -07.4198 26269.8
 20 01 2013  22 34  -21.0094 26049.8 -03392.4 -07.4198 26269.7
 20 01 2013  22 35  -21.0095 26049.5 -03392.3 -07.4196 26269.5
 20 01 2013  22 36  -21.0099 26049.3 -03392.2 -07.4194 26269.3
 20 01 2013  22 37  -21.0102 26049.0 -03392.1 -07.4192 26268.9
 20 01 2013  22 38  -21.0101 26048.8 -03392.0 -07.4190 26268.7
 20 01 2013  22 39  -21.0101 26048.8 -03391.9 -07.4190 26268.7
 20 01 2013  22 40  -21.0102 26048.9 -03392.0 -07.4191 26268.8
 20 01 2013  22 41  -21.0102 26049.0 -03392.0 -07.4192 26268.9
 20 01 2013  22 42  -21.0103 26049.0 -03392.1 -07.4193 26269.0
 20 01 2013  22 43  -21.0103 26049.0 -03392.1 -07.4193 26268.9
 20 01 2013  22 44  -21.0105 26049.0 -03392.1 -07.4194 26268.9
 20 01 2013  22 45  -21.0106 26049.0 -03392.1 -07.4193 26268.9
 20 01 2013  22 46  -21.0107 26048.9 -03392.1 -07.4193 26268.9
 20 01 2013  22 47  -21.0108 26049.0 -03392.1 -07.4193 26268.9
 20 01 2013  22 48  -21.0109 26049.0 -03392.1 -07.4193 26268.9
 20 01 2013  22 49  -21.0110 26049.0 -03392.1 -07.4193 26268.9
 20 01 2013  22 50  -21.0110 26049.0 -03392.1 -07.4193 26268.9
 20 01 2013  22 51  -21.0111 26049.0 -03392.1 -07.4193 26268.9
 20 01 2013  22 52  -21.0112 26049.0 -03392.1 -07.4193 26268.9
 20 01 2013  22 53  -21.0114 26049.0 -03392.1 -07.4192 26268.9
 20 01 2013  22 54  -21.0116 26048.9 -03392.1 -07.4192 26268.9
 20 01 2013  22 55  -21.0119 26048.8 -03392.0 -07.4192 26268.8
 20 01 2013  22 56  -21.0121 26048.7 -03392.0 -07.4190 26268.6
 20 01 2013  22 57  -21.0123 26048.7 -03391.9 -07.4190 26268.6
 20 01 2013  22 58  -21.0125 26048.6 -03391.9 -07.4189 26268.5
 20 01 2013  22 59  -21.0126 26048.6 -03391.8 -07.4188 26268.5
 20 01 2013  23 00  -21.0128 26048.6 -03391.8 -07.4188 26268.5
 20 01 2013  23 01  -21.0127 26048.6 -03391.8 -07.4188 26268.5
 20 01 2013  23 02  -21.0128 26048.6 -03391.8 -07.4188 26268.5
 20 01 2013  23 03  -21.0129 26048.6 -03391.8 -07.4188 26268.5
 20 01 2013  23 04  -21.0130 26048.6 -03391.8 -07.4187 26268.5
 20 01 2013  23 05  -21.0132 26048.5 -03391.8 -07.4187 26268.4
 20 01 2013  23 06  -21.0133 26048.3 -03391.7 -07.4186 26268.2
 20 01 2013  23 07  -21.0132 26048.2 -03391.6 -07.4185 26268.1
 20 01 2013  23 08  -21.0131 26048.1 -03391.6 -07.4185 26268.0
 20 01 2013  23 09  -21.0131 26048.1 -03391.6 -07.4185 26268.0
 20 01 2013  23 10  -21.0133 26047.9 -03391.6 -07.4184 26267.8
 20 01 2013  23 11  -21.0134 26047.8 -03391.5 -07.4184 26267.7
 20 01 2013  23 12  -21.0136 26047.7 -03391.5 -07.4184 26267.6
 20 01 2013  23 13  -21.0137 26047.6 -03391.5 -07.4184 26267.5
 20 01 2013  23 14  -21.0138 26047.5 -03391.5 -07.4184 26267.4
 20 01 2013  23 15  -21.0139 26047.4 -03391.4 -07.4183 26267.3
 20 01 2013  23 16  -21.0140 26047.4 -03391.4 -07.4183 26267.2
 20 01 2013  23 17  -21.0141 26047.3 -03391.5 -07.4184 26267.2
 20 01 2013  23 18  -21.0142 26047.4 -03391.5 -07.4185 26267.2
 20 01 2013  23 19  -21.0142 26047.4 -03391.6 -07.4186 26267.3
 20 01 2013  23 20  -21.0141 26047.4 -03391.6 -07.4187 26267.3
 20 01 2013  23 21  -21.0141 26047.4 -03391.6 -07.4187 26267.3
 20 01 2013  23 22  -21.0140 26047.2 -03391.6 -07.4187 26267.1
 20 01 2013  23 23  -21.0140 26047.1 -03391.6 -07.4187 26267.0
 20 01 2013  23 24  -21.0140 26047.0 -03391.6 -07.4187 26266.9
 20 01 2013  23 25  -21.0141 26046.9 -03391.6 -07.4187 26266.8
 20 01 2013  23 26  -21.0142 26046.7 -03391.5 -07.4186 26266.6
 20 01 2013  23 27  -21.0143 26046.6 -03391.5 -07.4186 26266.4
 20 01 2013  23 28  -21.0144 26046.5 -03391.5 -07.4187 26266.4
 20 01 2013  23 29  -21.0144 26046.5 -03391.5 -07.4187 26266.4
 20 01 2013  23 30  -21.0146 26046.5 -03391.6 -07.4188 26266.4
 20 01 2013  23 31  -21.0146 26046.5 -03391.6 -07.4189 26266.4
 20 01 2013  23 32  -21.0145 26046.4 -03391.6 -07.4189 26266.3
 20 01 2013  23 33  -21.0145 26046.4 -03391.6 -07.4189 26266.3
 20 01 2013  23 34  -21.0146 26046.3 -03391.6 -07.4189 26266.2
 20 01 2013  23 35  -21.0149 26046.2 -03391.6 -07.4189 26266.1
 20 01 2013  23 36  -21.0151 26046.0 -03391.5 -07.4188 26265.9
 20 01 2013  23 37  -21.0153 26045.9 -03391.4 -07.4187 26265.7
 20 01 2013  23 38  -21.0155 26045.7 -03391.4 -07.4187 26265.5
 20 01 2013  23 39  -21.0157 26045.6 -03391.4 -07.4187 26265.5
 20 01 2013  23 40  -21.0158 26045.6 -03391.4 -07.4187 26265.4
 20 01 2013  23 41  -21.0160 26045.5 -03391.4 -07.4187 26265.4
 20 01 2013  23 42  -21.0161 26045.5 -03391.4 -07.4187 26265.4
 20 01 2013  23 43  -21.0162 26045.5 -03391.4 -07.4188 26265.3
 20 01 2013  23 44  -21.0163 26045.4 -03391.4 -07.4188 26265.3
 20 01 2013  23 45  -21.0163 26045.3 -03391.4 -07.4188 26265.2
 20 01 2013  23 46  -21.0164 26045.3 -03391.4 -07.4188 26265.1
 20 01 2013  23 47  -21.0165 26045.2 -03391.4 -07.4188 26265.0
 20 01 2013  23 48  -21.0167 26045.1 -03391.4 -07.4189 26265.0
 20 01 2013  23 49  -21.0169 26045.0 -03391.4 -07.4189 26264.9
 20 01 2013  23 50  -21.0171 26045.0 -03391.4 -07.4188 26264.8
 20 01 2013  23 51  -21.0172 26044.9 -03391.4 -07.4188 26264.8
 20 01 2013  23 52  -21.0174 26044.8 -03391.4 -07.4189 26264.7
 20 01 2013  23 53  -21.0176 26044.8 -03391.3 -07.4188 26264.6
 20 01 2013  23 54  -21.0178 26044.7 -03391.3 -07.4188 26264.5
 20 01 2013  23 55  -21.0180 26044.7 -03391.3 -07.4188 26264.5
 20 01 2013  23 56  -21.0181 26044.7 -03391.3 -07.4189 26264.6
 20 01 2013  23 57  -21.0183 26044.6 -03391.3 -07.4189 26264.5
