SAO LUIS EMBRACE-03 <110> 1 Min. Reported data

 DD MM YYYY  HH MM   D(Deg)  H(nT)   Z(nT)   I(Deg)   F(nT)

 20 04 2013  00 00  -21.0350 26047.5 -03433.1 -07.5084 26272.8
 20 04 2013  00 01  -21.0351 26047.5 -03433.1 -07.5084 26272.8
 20 04 2013  00 02  -21.0350 26047.7 -03433.2 -07.5086 26273.0
 20 04 2013  00 03  -21.0350 26047.8 -03433.3 -07.5087 26273.0
 20 04 2013  00 04  -21.0351 26047.8 -03433.3 -07.5087 26273.0
 20 04 2013  00 05  -21.0352 26047.9 -03433.3 -07.5087 26273.1
 20 04 2013  00 06  -21.0351 26048.0 -03433.3 -07.5088 26273.3
 20 04 2013  00 07  -21.0351 26048.1 -03433.4 -07.5088 26273.4
 20 04 2013  00 08  -21.0352 26048.0 -03433.4 -07.5088 26273.3
 20 04 2013  00 09  -21.0352 26048.0 -03433.3 -07.5087 26273.3
 20 04 2013  00 10  -21.0352 26048.0 -03433.3 -07.5087 26273.3
 20 04 2013  00 11  -21.0352 26048.0 -03433.3 -07.5086 26273.2
 20 04 2013  00 12  -21.0353 26047.9 -03433.2 -07.5086 26273.2
 20 04 2013  00 13  -21.0353 26047.8 -03433.2 -07.5085 26273.1
 20 04 2013  00 14  -21.0353 26047.8 -03433.2 -07.5085 26273.1
 20 04 2013  00 15  -21.0352 26047.8 -03433.2 -07.5085 26273.1
 20 04 2013  00 16  -21.0352 26047.8 -03433.2 -07.5085 26273.1
 20 04 2013  00 17  -21.0352 26047.8 -03433.2 -07.5085 26273.1
 20 04 2013  00 18  -21.0353 26047.8 -03433.2 -07.5085 26273.1
 20 04 2013  00 19  -21.0353 26047.8 -03433.2 -07.5085 26273.1
 20 04 2013  00 20  -21.0353 26047.9 -03433.2 -07.5085 26273.2
 20 04 2013  00 21  -21.0351 26048.0 -03433.2 -07.5085 26273.2
 20 04 2013  00 22  -21.0350 26047.9 -03433.2 -07.5085 26273.2
 20 04 2013  00 23  -21.0350 26047.9 -03433.2 -07.5085 26273.2
 20 04 2013  00 24  -21.0349 26047.9 -03433.2 -07.5084 26273.1
 20 04 2013  00 25  -21.0348 26047.9 -03433.2 -07.5085 26273.1
 20 04 2013  00 26  -21.0348 26047.8 -03433.2 -07.5084 26273.1
 20 04 2013  00 27  -21.0346 26047.8 -03433.2 -07.5084 26273.1
 20 04 2013  00 28  -21.0345 26047.9 -03433.2 -07.5085 26273.2
 20 04 2013  00 29  -21.0346 26048.0 -03433.3 -07.5086 26273.3
 20 04 2013  00 30  -21.0345 26048.0 -03433.3 -07.5086 26273.3
 20 04 2013  00 31  -21.0345 26048.0 -03433.3 -07.5086 26273.3
 20 04 2013  00 32  -21.0346 26048.0 -03433.3 -07.5086 26273.3
 20 04 2013  00 33  -21.0346 26048.0 -03433.3 -07.5086 26273.3
 20 04 2013  00 34  -21.0346 26048.0 -03433.3 -07.5086 26273.3
 20 04 2013  00 35  -21.0345 26048.0 -03433.2 -07.5086 26273.3
 20 04 2013  00 36  -21.0345 26047.9 -03433.2 -07.5085 26273.2
 20 04 2013  00 37  -21.0344 26047.9 -03433.2 -07.5085 26273.2
 20 04 2013  00 38  -21.0342 26048.0 -03433.2 -07.5085 26273.3
 20 04 2013  00 39  -21.0342 26048.1 -03433.3 -07.5086 26273.4
 20 04 2013  00 40  -21.0342 26048.2 -03433.4 -07.5087 26273.5
 20 04 2013  00 41  -21.0341 26048.3 -03433.4 -07.5088 26273.6
 20 04 2013  00 42  -21.0340 26048.3 -03433.4 -07.5088 26273.6
 20 04 2013  00 43  -21.0339 26048.3 -03433.4 -07.5088 26273.6
 20 04 2013  00 44  -21.0339 26048.3 -03433.4 -07.5088 26273.6
 20 04 2013  00 45  -21.0339 26048.4 -03433.4 -07.5089 26273.7
 20 04 2013  00 46  -21.0339 26048.5 -03433.5 -07.5090 26273.8
 20 04 2013  00 47  -21.0339 26048.6 -03433.5 -07.5090 26273.9
 20 04 2013  00 48  -21.0338 26048.6 -03433.6 -07.5091 26274.0
 20 04 2013  00 49  -21.0337 26048.7 -03433.6 -07.5091 26274.0
 20 04 2013  00 50  -21.0338 26048.7 -03433.6 -07.5091 26274.0
 20 04 2013  00 51  -21.0338 26048.7 -03433.6 -07.5092 26274.1
 20 04 2013  00 52  -21.0338 26048.8 -03433.6 -07.5091 26274.1
 20 04 2013  00 53  -21.0338 26048.7 -03433.6 -07.5091 26274.0
 20 04 2013  00 54  -21.0338 26048.7 -03433.6 -07.5091 26274.0
 20 04 2013  00 55  -21.0337 26048.7 -03433.6 -07.5091 26274.0
 20 04 2013  00 56  -21.0337 26048.8 -03433.6 -07.5091 26274.1
 20 04 2013  00 57  -21.0337 26048.7 -03433.6 -07.5091 26274.0
 20 04 2013  00 58  -21.0337 26048.6 -03433.6 -07.5090 26274.0
 20 04 2013  00 59  -21.0336 26048.6 -03433.5 -07.5090 26273.9
 20 04 2013  01 00  -21.0336 26048.7 -03433.6 -07.5091 26274.1
 20 04 2013  01 01  -21.0336 26048.9 -03433.6 -07.5092 26274.2
 20 04 2013  01 02  -21.0336 26048.8 -03433.7 -07.5092 26274.1
 20 04 2013  01 03  -21.0337 26048.7 -03433.6 -07.5091 26274.0
 20 04 2013  01 04  -21.0338 26048.6 -03433.5 -07.5090 26273.9
 20 04 2013  01 05  -21.0338 26048.6 -03433.5 -07.5090 26273.9
 20 04 2013  01 06  -21.0338 26048.5 -03433.5 -07.5090 26273.8
 20 04 2013  01 07  -21.0338 26048.5 -03433.5 -07.5089 26273.8
 20 04 2013  01 08  -21.0338 26048.4 -03433.5 -07.5089 26273.8
 20 04 2013  01 09  -21.0338 26048.4 -03433.5 -07.5090 26273.7
 20 04 2013  01 10  -21.0337 26048.4 -03433.5 -07.5090 26273.8
 20 04 2013  01 11  -21.0340 26048.4 -03433.5 -07.5090 26273.8
 20 04 2013  01 12  -21.0341 26048.4 -03433.5 -07.5090 26273.8
 20 04 2013  01 13  -21.0342 26048.5 -03433.5 -07.5090 26273.8
 20 04 2013  01 14  -21.0342 26048.5 -03433.6 -07.5091 26273.8
 20 04 2013  01 15  -21.0343 26048.5 -03433.6 -07.5091 26273.9
 20 04 2013  01 16  -21.0343 26048.6 -03433.6 -07.5091 26273.9
 20 04 2013  01 17  -21.0344 26048.6 -03433.6 -07.5092 26273.9
 20 04 2013  01 18  -21.0345 26048.6 -03433.6 -07.5092 26274.0
 20 04 2013  01 19  -21.0344 26048.6 -03433.6 -07.5092 26274.0
 20 04 2013  01 20  -21.0345 26048.7 -03433.7 -07.5092 26274.0
 20 04 2013  01 21  -21.0345 26048.8 -03433.7 -07.5093 26274.1
 20 04 2013  01 22  -21.0345 26048.8 -03433.7 -07.5093 26274.1
 20 04 2013  01 23  -21.0346 26048.9 -03433.7 -07.5094 26274.2
 20 04 2013  01 24  -21.0346 26048.9 -03433.8 -07.5095 26274.3
 20 04 2013  01 25  -21.0345 26049.0 -03433.8 -07.5095 26274.3
 20 04 2013  01 26  -21.0345 26049.0 -03433.8 -07.5095 26274.4
 20 04 2013  01 27  -21.0344 26049.1 -03433.9 -07.5095 26274.5
 20 04 2013  01 28  -21.0343 26049.2 -03433.9 -07.5096 26274.6
 20 04 2013  01 29  -21.0344 26049.3 -03433.9 -07.5097 26274.6
 20 04 2013  01 30  -21.0346 26049.3 -03433.9 -07.5096 26274.7
 20 04 2013  01 31  -21.0347 26049.3 -03433.9 -07.5096 26274.7
 20 04 2013  01 32  -21.0348 26049.3 -03433.9 -07.5096 26274.7
 20 04 2013  01 33  -21.0349 26049.2 -03433.9 -07.5095 26274.6
 20 04 2013  01 34  -21.0350 26049.2 -03433.8 -07.5094 26274.5
 20 04 2013  01 35  -21.0350 26049.2 -03433.8 -07.5094 26274.5
 20 04 2013  01 36  -21.0351 26049.1 -03433.8 -07.5094 26274.5
 20 04 2013  01 37  -21.0352 26049.1 -03433.7 -07.5093 26274.4
 20 04 2013  01 38  -21.0353 26049.0 -03433.7 -07.5092 26274.4
 20 04 2013  01 39  -21.0352 26049.1 -03433.7 -07.5092 26274.4
 20 04 2013  01 40  -21.0352 26049.1 -03433.7 -07.5092 26274.5
 20 04 2013  01 41  -21.0351 26049.2 -03433.7 -07.5092 26274.5
 20 04 2013  01 42  -21.0350 26049.3 -03433.7 -07.5093 26274.6
 20 04 2013  01 43  -21.0350 26049.3 -03433.8 -07.5093 26274.6
 20 04 2013  01 44  -21.0351 26049.3 -03433.8 -07.5093 26274.7
 20 04 2013  01 45  -21.0351 26049.4 -03433.8 -07.5093 26274.7
 20 04 2013  01 46  -21.0351 26049.4 -03433.8 -07.5093 26274.7
 20 04 2013  01 47  -21.0352 26049.4 -03433.8 -07.5093 26274.7
 20 04 2013  01 48  -21.0352 26049.4 -03433.8 -07.5093 26274.7
 20 04 2013  01 49  -21.0353 26049.3 -03433.7 -07.5092 26274.7
 20 04 2013  01 50  -21.0353 26049.2 -03433.7 -07.5091 26274.6
 20 04 2013  01 51  -21.0353 26049.2 -03433.6 -07.5090 26274.5
 20 04 2013  01 52  -21.0352 26049.3 -03433.6 -07.5090 26274.6
 20 04 2013  01 53  -21.0352 26049.2 -03433.6 -07.5090 26274.6
 20 04 2013  01 54  -21.0352 26049.3 -03433.6 -07.5090 26274.6
 20 04 2013  01 55  -21.0353 26049.3 -03433.6 -07.5090 26274.6
 20 04 2013  01 56  -21.0352 26049.3 -03433.6 -07.5090 26274.6
 20 04 2013  01 57  -21.0352 26049.3 -03433.6 -07.5089 26274.6
 20 04 2013  01 58  -21.0351 26049.3 -03433.6 -07.5089 26274.6
 20 04 2013  01 59  -21.0351 26049.3 -03433.6 -07.5089 26274.6
 20 04 2013  02 00  -21.0351 26049.2 -03433.5 -07.5089 26274.5
 20 04 2013  02 01  -21.0351 26049.2 -03433.5 -07.5088 26274.5
 20 04 2013  02 02  -21.0351 26049.1 -03433.5 -07.5087 26274.4
 20 04 2013  02 03  -21.0351 26049.0 -03433.4 -07.5087 26274.3
 20 04 2013  02 04  -21.0351 26049.0 -03433.4 -07.5086 26274.3
 20 04 2013  02 05  -21.0351 26049.0 -03433.4 -07.5086 26274.3
 20 04 2013  02 06  -21.0352 26048.9 -03433.3 -07.5085 26274.2
 20 04 2013  02 07  -21.0351 26048.9 -03433.3 -07.5085 26274.1
 20 04 2013  02 08  -21.0351 26048.8 -03433.3 -07.5085 26274.1
 20 04 2013  02 09  -21.0350 26048.8 -03433.3 -07.5084 26274.1
 20 04 2013  02 10  -21.0350 26048.7 -03433.2 -07.5083 26274.0
 20 04 2013  02 11  -21.0350 26048.7 -03433.2 -07.5083 26274.0
 20 04 2013  02 12  -21.0349 26048.6 -03433.2 -07.5082 26273.9
 20 04 2013  02 13  -21.0348 26048.5 -03433.1 -07.5082 26273.8
 20 04 2013  02 14  -21.0348 26048.4 -03433.1 -07.5081 26273.7
 20 04 2013  02 15  -21.0348 26048.3 -03433.1 -07.5080 26273.6
 20 04 2013  02 16  -21.0348 26048.2 -03433.0 -07.5080 26273.5
 20 04 2013  02 17  -21.0348 26048.1 -03433.0 -07.5079 26273.4
 20 04 2013  02 18  -21.0348 26048.0 -03432.9 -07.5078 26273.2
 20 04 2013  02 19  -21.0348 26047.9 -03432.9 -07.5078 26273.1
 20 04 2013  02 20  -21.0349 26047.8 -03432.8 -07.5077 26273.0
 20 04 2013  02 21  -21.0350 26047.7 -03432.8 -07.5077 26273.0
 20 04 2013  02 22  -21.0351 26047.7 -03432.8 -07.5078 26272.9
 20 04 2013  02 23  -21.0351 26047.7 -03432.8 -07.5078 26272.9
 20 04 2013  02 24  -21.0352 26047.7 -03432.8 -07.5078 26272.9
 20 04 2013  02 25  -21.0352 26047.5 -03432.8 -07.5077 26272.8
 20 04 2013  02 26  -21.0352 26047.4 -03432.7 -07.5076 26272.6
 20 04 2013  02 27  -21.0352 26047.3 -03432.7 -07.5076 26272.5
 20 04 2013  02 28  -21.0352 26047.3 -03432.7 -07.5076 26272.5
 20 04 2013  02 29  -21.0352 26047.2 -03432.7 -07.5076 26272.4
 20 04 2013  02 30  -21.0352 26047.1 -03432.7 -07.5076 26272.4
 20 04 2013  02 31  -21.0352 26047.1 -03432.7 -07.5076 26272.3
 20 04 2013  02 32  -21.0352 26047.0 -03432.7 -07.5076 26272.3
 20 04 2013  02 33  -21.0352 26046.9 -03432.7 -07.5076 26272.2
 20 04 2013  02 34  -21.0352 26046.8 -03432.6 -07.5075 26272.1
 20 04 2013  02 35  -21.0352 26046.8 -03432.6 -07.5075 26272.0
 20 04 2013  02 36  -21.0351 26046.6 -03432.6 -07.5076 26271.8
 20 04 2013  02 37  -21.0352 26046.6 -03432.6 -07.5075 26271.8
 20 04 2013  02 38  -21.0352 26046.5 -03432.6 -07.5076 26271.7
 20 04 2013  02 39  -21.0351 26046.5 -03432.6 -07.5077 26271.7
 20 04 2013  02 40  -21.0351 26046.5 -03432.7 -07.5077 26271.8
 20 04 2013  02 41  -21.0351 26046.5 -03432.7 -07.5078 26271.7
 20 04 2013  02 42  -21.0350 26046.5 -03432.7 -07.5078 26271.7
 20 04 2013  02 43  -21.0350 26046.5 -03432.7 -07.5079 26271.7
 20 04 2013  02 44  -21.0350 26046.5 -03432.8 -07.5080 26271.8
 20 04 2013  02 45  -21.0349 26046.6 -03432.9 -07.5081 26271.9
 20 04 2013  02 46  -21.0348 26046.7 -03432.9 -07.5082 26272.0
 20 04 2013  02 47  -21.0348 26046.8 -03433.0 -07.5083 26272.1
 20 04 2013  02 48  -21.0347 26046.9 -03433.1 -07.5085 26272.2
 20 04 2013  02 49  -21.0347 26047.0 -03433.1 -07.5085 26272.2
 20 04 2013  02 50  -21.0346 26047.0 -03433.2 -07.5086 26272.3
 20 04 2013  02 51  -21.0346 26047.0 -03433.2 -07.5087 26272.3
 20 04 2013  02 52  -21.0348 26047.1 -03433.2 -07.5087 26272.4
 20 04 2013  02 53  -21.0348 26047.1 -03433.2 -07.5087 26272.4
 20 04 2013  02 54  -21.0349 26047.1 -03433.2 -07.5087 26272.4
 20 04 2013  02 55  -21.0349 26047.1 -03433.2 -07.5088 26272.4
 20 04 2013  02 56  -21.0350 26047.1 -03433.2 -07.5087 26272.4
 20 04 2013  02 57  -21.0350 26047.0 -03433.2 -07.5087 26272.3
 20 04 2013  02 58  -21.0350 26047.0 -03433.1 -07.5086 26272.3
 20 04 2013  02 59  -21.0350 26046.9 -03433.1 -07.5086 26272.2
 20 04 2013  03 00  -21.0351 26046.9 -03433.1 -07.5085 26272.2
 20 04 2013  03 01  -21.0351 26046.9 -03433.1 -07.5085 26272.1
 20 04 2013  03 02  -21.0351 26046.9 -03433.1 -07.5085 26272.2
 20 04 2013  03 03  -21.0351 26046.9 -03433.1 -07.5085 26272.2
 20 04 2013  03 04  -21.0350 26047.0 -03433.1 -07.5086 26272.3
 20 04 2013  03 05  -21.0350 26047.0 -03433.1 -07.5086 26272.3
 20 04 2013  03 06  -21.0350 26046.9 -03433.1 -07.5086 26272.2
 20 04 2013  03 07  -21.0350 26046.9 -03433.1 -07.5085 26272.2
 20 04 2013  03 08  -21.0350 26046.9 -03433.1 -07.5085 26272.2
 20 04 2013  03 09  -21.0350 26046.9 -03433.0 -07.5084 26272.1
 20 04 2013  03 10  -21.0350 26046.9 -03433.0 -07.5084 26272.1
 20 04 2013  03 11  -21.0349 26046.9 -03433.0 -07.5084 26272.1
 20 04 2013  03 12  -21.0349 26046.9 -03433.0 -07.5084 26272.1
 20 04 2013  03 13  -21.0349 26046.9 -03433.0 -07.5084 26272.2
 20 04 2013  03 14  -21.0350 26046.9 -03433.0 -07.5083 26272.1
 20 04 2013  03 15  -21.0351 26046.9 -03433.0 -07.5083 26272.1
 20 04 2013  03 16  -21.0350 26046.8 -03433.0 -07.5083 26272.1
 20 04 2013  03 17  -21.0350 26046.9 -03433.0 -07.5083 26272.1
 20 04 2013  03 18  -21.0351 26046.9 -03433.0 -07.5083 26272.1
 20 04 2013  03 19  -21.0351 26046.9 -03433.0 -07.5083 26272.2
 20 04 2013  03 20  -21.0351 26047.0 -03433.0 -07.5084 26272.2
 20 04 2013  03 21  -21.0351 26047.0 -03433.0 -07.5084 26272.3
 20 04 2013  03 22  -21.0352 26047.0 -03433.0 -07.5084 26272.2
 20 04 2013  03 23  -21.0352 26047.0 -03433.0 -07.5084 26272.3
 20 04 2013  03 24  -21.0352 26047.1 -03433.0 -07.5083 26272.3
 20 04 2013  03 25  -21.0353 26047.0 -03433.1 -07.5084 26272.3
 20 04 2013  03 26  -21.0353 26047.1 -03433.0 -07.5084 26272.4
 20 04 2013  03 27  -21.0353 26047.1 -03433.0 -07.5083 26272.3
 20 04 2013  03 28  -21.0354 26047.1 -03433.0 -07.5083 26272.4
 20 04 2013  03 29  -21.0355 26047.0 -03433.0 -07.5082 26272.3
 20 04 2013  03 30  -21.0355 26047.0 -03432.9 -07.5081 26272.2
 20 04 2013  03 31  -21.0355 26046.9 -03432.9 -07.5081 26272.2
 20 04 2013  03 32  -21.0355 26046.9 -03432.9 -07.5080 26272.2
 20 04 2013  03 33  -21.0356 26046.9 -03432.9 -07.5080 26272.2
 20 04 2013  03 34  -21.0356 26046.9 -03432.9 -07.5080 26272.1
 20 04 2013  03 35  -21.0357 26046.9 -03432.9 -07.5080 26272.2
 20 04 2013  03 36  -21.0358 26047.0 -03432.9 -07.5080 26272.2
 20 04 2013  03 37  -21.0360 26047.0 -03432.9 -07.5080 26272.2
 20 04 2013  03 38  -21.0360 26047.0 -03432.8 -07.5080 26272.2
 20 04 2013  03 39  -21.0361 26047.0 -03432.9 -07.5080 26272.2
 20 04 2013  03 40  -21.0361 26047.1 -03432.9 -07.5081 26272.3
 20 04 2013  03 41  -21.0360 26047.2 -03432.9 -07.5081 26272.4
 20 04 2013  03 42  -21.0360 26047.2 -03432.9 -07.5081 26272.5
 20 04 2013  03 43  -21.0359 26047.3 -03432.9 -07.5081 26272.5
 20 04 2013  03 44  -21.0358 26047.3 -03432.9 -07.5080 26272.6
 20 04 2013  03 45  -21.0357 26047.3 -03432.9 -07.5080 26272.6
 20 04 2013  03 46  -21.0357 26047.3 -03432.9 -07.5080 26272.6
 20 04 2013  03 47  -21.0357 26047.4 -03433.0 -07.5081 26272.6
 20 04 2013  03 48  -21.0358 26047.4 -03432.9 -07.5081 26272.6
 20 04 2013  03 49  -21.0358 26047.3 -03432.9 -07.5080 26272.6
 20 04 2013  03 50  -21.0359 26047.3 -03432.9 -07.5079 26272.6
 20 04 2013  03 51  -21.0359 26047.3 -03432.8 -07.5079 26272.5
 20 04 2013  03 52  -21.0359 26047.3 -03432.8 -07.5078 26272.5
 20 04 2013  03 53  -21.0359 26047.3 -03432.8 -07.5078 26272.5
 20 04 2013  03 54  -21.0360 26047.3 -03432.8 -07.5078 26272.5
 20 04 2013  03 55  -21.0360 26047.3 -03432.8 -07.5077 26272.5
 20 04 2013  03 56  -21.0361 26047.3 -03432.8 -07.5078 26272.6
 20 04 2013  03 57  -21.0362 26047.4 -03432.8 -07.5078 26272.6
 20 04 2013  03 58  -21.0362 26047.4 -03432.8 -07.5078 26272.6
 20 04 2013  03 59  -21.0362 26047.4 -03432.8 -07.5078 26272.6
 20 04 2013  04 00  -21.0363 26047.4 -03432.8 -07.5077 26272.6
 20 04 2013  04 01  -21.0364 26047.4 -03432.8 -07.5077 26272.6
 20 04 2013  04 02  -21.0363 26047.3 -03432.7 -07.5077 26272.6
 20 04 2013  04 03  -21.0364 26047.3 -03432.7 -07.5075 26272.5
 20 04 2013  04 04  -21.0364 26047.3 -03432.7 -07.5075 26272.5
 20 04 2013  04 05  -21.0363 26047.3 -03432.7 -07.5075 26272.5
 20 04 2013  04 06  -21.0363 26047.2 -03432.6 -07.5074 26272.5
 20 04 2013  04 07  -21.0362 26047.3 -03432.6 -07.5075 26272.5
 20 04 2013  04 08  -21.0362 26047.2 -03432.6 -07.5075 26272.4
 20 04 2013  04 09  -21.0364 26047.2 -03432.6 -07.5075 26272.4
 20 04 2013  04 10  -21.0364 26047.2 -03432.6 -07.5075 26272.4
 20 04 2013  04 11  -21.0363 26047.2 -03432.7 -07.5075 26272.5
 20 04 2013  04 12  -21.0363 26047.3 -03432.7 -07.5075 26272.5
 20 04 2013  04 13  -21.0363 26047.3 -03432.7 -07.5075 26272.5
 20 04 2013  04 14  -21.0363 26047.4 -03432.7 -07.5076 26272.6
 20 04 2013  04 15  -21.0363 26047.4 -03432.7 -07.5076 26272.6
 20 04 2013  04 16  -21.0362 26047.3 -03432.7 -07.5076 26272.5
 20 04 2013  04 17  -21.0362 26047.3 -03432.7 -07.5075 26272.5
 20 04 2013  04 18  -21.0363 26047.2 -03432.6 -07.5074 26272.4
 20 04 2013  04 19  -21.0363 26047.2 -03432.6 -07.5074 26272.4
 20 04 2013  04 20  -21.0363 26047.0 -03432.6 -07.5073 26272.2
 20 04 2013  04 21  -21.0365 26047.0 -03432.6 -07.5073 26272.2
 20 04 2013  04 22  -21.0365 26047.1 -03432.7 -07.5075 26272.3
 20 04 2013  04 23  -21.0363 26047.2 -03432.7 -07.5076 26272.4
 20 04 2013  04 24  -21.0363 26047.4 -03432.8 -07.5077 26272.6
 20 04 2013  04 25  -21.0361 26047.5 -03432.9 -07.5079 26272.8
 20 04 2013  04 26  -21.0361 26047.7 -03432.9 -07.5080 26272.9
 20 04 2013  04 27  -21.0362 26047.5 -03432.9 -07.5079 26272.8
 20 04 2013  04 28  -21.0361 26047.6 -03432.9 -07.5079 26272.8
 20 04 2013  04 29  -21.0361 26047.6 -03432.9 -07.5078 26272.8
 20 04 2013  04 30  -21.0362 26047.5 -03432.8 -07.5077 26272.7
 20 04 2013  04 31  -21.0363 26047.3 -03432.7 -07.5076 26272.5
 20 04 2013  04 32  -21.0360 26047.2 -03432.6 -07.5074 26272.4
 20 04 2013  04 33  -21.0361 26047.1 -03432.6 -07.5074 26272.3
 20 04 2013  04 34  -21.0362 26046.9 -03432.5 -07.5073 26272.1
 20 04 2013  04 35  -21.0362 26046.8 -03432.5 -07.5072 26272.0
 20 04 2013  04 36  -21.0363 26046.6 -03432.4 -07.5072 26271.8
 20 04 2013  04 37  -21.0363 26046.5 -03432.4 -07.5072 26271.7
 20 04 2013  04 38  -21.0364 26046.4 -03432.4 -07.5072 26271.6
 20 04 2013  04 39  -21.0364 26046.3 -03432.4 -07.5072 26271.5
 20 04 2013  04 40  -21.0363 26046.3 -03432.4 -07.5072 26271.5
 20 04 2013  04 41  -21.0363 26046.3 -03432.4 -07.5072 26271.5
 20 04 2013  04 42  -21.0363 26046.4 -03432.5 -07.5073 26271.6
 20 04 2013  04 43  -21.0362 26046.4 -03432.5 -07.5074 26271.6
 20 04 2013  04 44  -21.0361 26046.5 -03432.6 -07.5075 26271.7
 20 04 2013  04 45  -21.0360 26046.6 -03432.6 -07.5077 26271.8
 20 04 2013  04 46  -21.0361 26046.5 -03432.6 -07.5076 26271.7
 20 04 2013  04 47  -21.0361 26046.5 -03432.6 -07.5077 26271.7
 20 04 2013  04 48  -21.0361 26046.6 -03432.7 -07.5077 26271.8
 20 04 2013  04 49  -21.0361 26046.7 -03432.7 -07.5078 26271.9
 20 04 2013  04 50  -21.0363 26046.6 -03432.7 -07.5079 26271.8
 20 04 2013  04 51  -21.0362 26046.6 -03432.7 -07.5079 26271.9
 20 04 2013  04 52  -21.0364 26046.6 -03432.7 -07.5079 26271.8
 20 04 2013  04 53  -21.0361 26046.7 -03432.8 -07.5080 26271.9
 20 04 2013  04 54  -21.0364 26046.5 -03432.7 -07.5079 26271.7
 20 04 2013  04 55  -21.0363 26046.5 -03432.7 -07.5079 26271.7
 20 04 2013  04 56  -21.0362 26046.6 -03432.8 -07.5079 26271.8
 20 04 2013  04 57  -21.0365 26046.5 -03432.8 -07.5080 26271.8
 20 04 2013  04 58  -21.0368 26046.3 -03432.7 -07.5078 26271.5
 20 04 2013  04 59  -21.0367 26046.5 -03432.8 -07.5080 26271.8
 20 04 2013  05 00  -21.0368 26046.4 -03432.8 -07.5079 26271.7
 20 04 2013  05 01  -21.0370 26046.4 -03432.8 -07.5079 26271.7
 20 04 2013  05 02  -21.0373 26046.2 -03432.7 -07.5078 26271.5
 20 04 2013  05 03  -21.0374 26046.3 -03432.7 -07.5078 26271.5
 20 04 2013  05 04  -21.0371 26046.5 -03432.8 -07.5080 26271.8
 20 04 2013  05 05  -21.0373 26046.5 -03432.8 -07.5081 26271.8
 20 04 2013  05 06  -21.0376 26046.3 -03432.7 -07.5079 26271.5
 20 04 2013  05 07  -21.0374 26046.5 -03432.8 -07.5079 26271.8
 20 04 2013  05 08  -21.0373 26046.6 -03432.8 -07.5080 26271.9
 20 04 2013  05 09  -21.0374 26046.4 -03432.7 -07.5079 26271.6
 20 04 2013  05 10  -21.0375 26046.4 -03432.7 -07.5078 26271.6
 20 04 2013  05 11  -21.0376 26046.4 -03432.7 -07.5078 26271.6
 20 04 2013  05 12  -21.0377 26046.2 -03432.6 -07.5077 26271.4
 20 04 2013  05 13  -21.0379 26046.1 -03432.6 -07.5076 26271.4
 20 04 2013  05 14  -21.0377 26046.3 -03432.6 -07.5076 26271.5
 20 04 2013  05 15  -21.0377 26046.2 -03432.6 -07.5077 26271.5
 20 04 2013  05 16  -21.0380 26046.0 -03432.5 -07.5076 26271.2
 20 04 2013  05 17  -21.0377 26046.4 -03432.6 -07.5077 26271.6
 20 04 2013  05 18  -21.0371 26047.1 -03433.0 -07.5082 26272.4
 20 04 2013  05 19  -21.0379 26046.2 -03432.7 -07.5079 26271.4
 20 04 2013  05 20  -21.0376 26046.4 -03432.7 -07.5077 26271.6
 20 04 2013  05 21  -21.0372 26047.3 -03433.0 -07.5083 26272.5
 20 04 2013  05 22  -21.0375 26046.8 -03432.9 -07.5081 26272.0
 20 04 2013  05 23  -21.0371 26047.4 -03433.1 -07.5084 26272.6
 20 04 2013  05 24  -21.0369 26047.8 -03433.4 -07.5088 26273.1
 20 04 2013  05 25  -21.0376 26046.8 -03432.9 -07.5082 26272.0
 20 04 2013  05 26  -21.0370 26047.4 -03433.0 -07.5083 26272.7
 20 04 2013  05 27  -21.0368 26048.0 -03433.4 -07.5088 26273.3
 20 04 2013  05 28  -21.0371 26047.6 -03433.2 -07.5086 26272.9
 20 04 2013  05 29  -21.0370 26047.7 -03433.2 -07.5085 26272.9
 20 04 2013  05 30  -21.0368 26047.8 -03433.3 -07.5086 26273.1
 20 04 2013  05 31  -21.0368 26047.7 -03433.2 -07.5085 26273.0
 20 04 2013  05 32  -21.0363 26048.3 -03433.4 -07.5088 26273.6
 20 04 2013  05 33  -21.0364 26048.2 -03433.5 -07.5090 26273.6
 20 04 2013  05 34  -21.0366 26047.9 -03433.3 -07.5087 26273.2
 20 04 2013  05 35  -21.0359 26048.3 -03433.4 -07.5089 26273.7
 20 04 2013  05 36  -21.0359 26048.5 -03433.6 -07.5092 26273.9
 20 04 2013  05 37  -21.0361 26048.4 -03433.5 -07.5091 26273.7
 20 04 2013  05 38  -21.0360 26048.6 -03433.6 -07.5092 26274.0
 20 04 2013  05 39  -21.0359 26048.4 -03433.6 -07.5091 26273.7
 20 04 2013  05 40  -21.0355 26048.3 -03433.5 -07.5089 26273.7
 20 04 2013  05 41  -21.0352 26048.7 -03433.6 -07.5091 26274.0
 20 04 2013  05 42  -21.0353 26048.6 -03433.6 -07.5092 26273.9
 20 04 2013  05 43  -21.0355 26048.3 -03433.5 -07.5090 26273.6
 20 04 2013  05 44  -21.0352 26048.5 -03433.6 -07.5091 26273.8
 20 04 2013  05 45  -21.0352 26048.2 -03433.5 -07.5090 26273.5
 20 04 2013  05 46  -21.0353 26048.0 -03433.4 -07.5088 26273.3
 20 04 2013  05 47  -21.0353 26048.1 -03433.4 -07.5089 26273.4
 20 04 2013  05 48  -21.0352 26048.2 -03433.5 -07.5090 26273.5
 20 04 2013  05 49  -21.0352 26048.2 -03433.5 -07.5091 26273.5
 20 04 2013  05 50  -21.0353 26048.1 -03433.5 -07.5091 26273.4
 20 04 2013  05 51  -21.0356 26047.7 -03433.3 -07.5089 26273.0
 20 04 2013  05 52  -21.0354 26047.8 -03433.3 -07.5088 26273.1
 20 04 2013  05 53  -21.0352 26048.1 -03433.5 -07.5091 26273.4
 20 04 2013  05 54  -21.0353 26048.3 -03433.6 -07.5093 26273.6
 20 04 2013  05 55  -21.0355 26048.2 -03433.6 -07.5093 26273.5
 20 04 2013  05 56  -21.0354 26048.1 -03433.5 -07.5092 26273.4
 20 04 2013  05 57  -21.0353 26047.9 -03433.4 -07.5090 26273.2
 20 04 2013  05 58  -21.0353 26047.9 -03433.4 -07.5089 26273.2
 20 04 2013  05 59  -21.0353 26047.8 -03433.4 -07.5089 26273.1
 20 04 2013  06 00  -21.0356 26047.6 -03433.3 -07.5088 26272.9
 20 04 2013  06 01  -21.0357 26047.6 -03433.3 -07.5087 26272.9
 20 04 2013  06 02  -21.0356 26047.7 -03433.4 -07.5089 26273.0
 20 04 2013  06 03  -21.0356 26047.4 -03433.3 -07.5087 26272.7
 20 04 2013  06 04  -21.0357 26047.4 -03433.2 -07.5087 26272.7
 20 04 2013  06 05  -21.0355 26048.0 -03433.5 -07.5090 26273.3
 20 04 2013  06 06  -21.0355 26048.1 -03433.6 -07.5092 26273.4
 20 04 2013  06 07  -21.0358 26048.0 -03433.5 -07.5092 26273.3
 20 04 2013  06 08  -21.0357 26048.2 -03433.6 -07.5093 26273.6
 20 04 2013  06 09  -21.0356 26048.3 -03433.7 -07.5094 26273.6
 20 04 2013  06 10  -21.0355 26048.2 -03433.6 -07.5093 26273.5
 20 04 2013  06 11  -21.0351 26048.7 -03433.8 -07.5095 26274.1
 20 04 2013  06 12  -21.0348 26049.2 -03434.0 -07.5099 26274.6
 20 04 2013  06 13  -21.0346 26049.7 -03434.3 -07.5103 26275.1
 20 04 2013  06 14  -21.0344 26050.3 -03434.6 -07.5107 26275.8
 20 04 2013  06 15  -21.0344 26050.6 -03434.7 -07.5109 26276.0
 20 04 2013  06 16  -21.0341 26050.6 -03434.6 -07.5108 26276.1
 20 04 2013  06 17  -21.0338 26050.8 -03434.7 -07.5108 26276.3
 20 04 2013  06 18  -21.0335 26050.9 -03434.7 -07.5108 26276.3
 20 04 2013  06 19  -21.0333 26050.8 -03434.6 -07.5106 26276.2
 20 04 2013  06 20  -21.0334 26050.7 -03434.5 -07.5104 26276.1
 20 04 2013  06 21  -21.0335 26050.7 -03434.4 -07.5103 26276.1
 20 04 2013  06 22  -21.0334 26050.7 -03434.4 -07.5103 26276.1
 20 04 2013  06 23  -21.0337 26050.5 -03434.3 -07.5101 26275.9
 20 04 2013  06 24  -21.0337 26050.2 -03434.1 -07.5098 26275.6
 20 04 2013  06 25  -21.0337 26049.9 -03433.9 -07.5095 26275.3
 20 04 2013  06 26  -21.0336 26049.8 -03433.8 -07.5093 26275.1
 20 04 2013  06 27  -21.0335 26049.6 -03433.8 -07.5092 26274.9
 20 04 2013  06 28  -21.0334 26049.6 -03433.8 -07.5092 26274.9
 20 04 2013  06 29  -21.0335 26049.7 -03433.8 -07.5093 26275.0
 20 04 2013  06 30  -21.0334 26049.9 -03433.9 -07.5095 26275.3
 20 04 2013  06 31  -21.0334 26049.9 -03434.0 -07.5095 26275.3
 20 04 2013  06 32  -21.0332 26049.7 -03433.9 -07.5094 26275.0
 20 04 2013  06 33  -21.0330 26049.6 -03433.8 -07.5092 26275.0
 20 04 2013  06 34  -21.0328 26049.8 -03433.9 -07.5093 26275.2
 20 04 2013  06 35  -21.0328 26049.9 -03434.0 -07.5096 26275.3
 20 04 2013  06 36  -21.0330 26050.1 -03434.1 -07.5098 26275.5
 20 04 2013  06 37  -21.0331 26050.2 -03434.1 -07.5098 26275.5
 20 04 2013  06 38  -21.0330 26050.0 -03434.0 -07.5097 26275.4
 20 04 2013  06 39  -21.0328 26050.0 -03434.0 -07.5095 26275.4
 20 04 2013  06 40  -21.0325 26050.0 -03434.0 -07.5096 26275.4
 20 04 2013  06 41  -21.0323 26050.1 -03434.0 -07.5096 26275.5
 20 04 2013  06 42  -21.0323 26050.1 -03434.0 -07.5096 26275.4
 20 04 2013  06 43  -21.0324 26049.9 -03434.0 -07.5095 26275.3
 20 04 2013  06 44  -21.0324 26049.7 -03433.8 -07.5093 26275.0
 20 04 2013  06 45  -21.0325 26049.6 -03433.8 -07.5093 26275.0
 20 04 2013  06 46  -21.0324 26049.8 -03433.8 -07.5093 26275.1
 20 04 2013  06 47  -21.0324 26049.7 -03433.8 -07.5093 26275.1
 20 04 2013  06 48  -21.0325 26049.7 -03433.8 -07.5093 26275.1
 20 04 2013  06 49  -21.0325 26049.8 -03433.9 -07.5094 26275.1
 20 04 2013  06 50  -21.0325 26049.8 -03433.9 -07.5094 26275.2
 20 04 2013  06 51  -21.0323 26050.0 -03433.9 -07.5095 26275.3
 20 04 2013  06 52  -21.0322 26050.1 -03434.0 -07.5096 26275.5
 20 04 2013  06 53  -21.0321 26050.2 -03434.0 -07.5097 26275.5
 20 04 2013  06 54  -21.0319 26050.2 -03434.1 -07.5097 26275.6
 20 04 2013  06 55  -21.0317 26050.3 -03434.1 -07.5097 26275.7
 20 04 2013  06 56  -21.0316 26050.2 -03434.0 -07.5096 26275.5
 20 04 2013  06 57  -21.0315 26050.3 -03434.1 -07.5096 26275.7
 20 04 2013  06 58  -21.0314 26050.4 -03434.1 -07.5098 26275.8
 20 04 2013  06 59  -21.0314 26050.5 -03434.1 -07.5098 26275.8
 20 04 2013  07 00  -21.0313 26050.5 -03434.1 -07.5097 26275.9
 20 04 2013  07 01  -21.0312 26050.4 -03434.0 -07.5096 26275.8
 20 04 2013  07 02  -21.0311 26050.3 -03434.0 -07.5096 26275.7
 20 04 2013  07 03  -21.0311 26050.3 -03434.0 -07.5095 26275.6
 20 04 2013  07 04  -21.0309 26050.2 -03433.9 -07.5094 26275.5
 20 04 2013  07 05  -21.0308 26050.1 -03433.9 -07.5094 26275.5
 20 04 2013  07 06  -21.0308 26050.2 -03434.0 -07.5095 26275.6
 20 04 2013  07 07  -21.0307 26050.3 -03434.0 -07.5096 26275.6
 20 04 2013  07 08  -21.0307 26050.4 -03434.1 -07.5097 26275.8
 20 04 2013  07 09  -21.0308 26050.4 -03434.1 -07.5097 26275.7
 20 04 2013  07 10  -21.0309 26050.1 -03434.0 -07.5095 26275.5
 20 04 2013  07 11  -21.0306 26050.1 -03433.9 -07.5094 26275.4
 20 04 2013  07 12  -21.0305 26050.0 -03433.9 -07.5094 26275.4
 20 04 2013  07 13  -21.0304 26049.9 -03433.8 -07.5093 26275.3
 20 04 2013  07 14  -21.0304 26049.9 -03433.8 -07.5093 26275.2
 20 04 2013  07 15  -21.0303 26049.9 -03433.8 -07.5093 26275.3
 20 04 2013  07 16  -21.0304 26049.8 -03433.8 -07.5093 26275.2
 20 04 2013  07 17  -21.0304 26050.0 -03433.9 -07.5094 26275.3
 20 04 2013  07 18  -21.0305 26049.8 -03433.8 -07.5093 26275.1
 20 04 2013  07 19  -21.0303 26049.7 -03433.8 -07.5092 26275.0
 20 04 2013  07 20  -21.0302 26049.8 -03433.8 -07.5092 26275.1
 20 04 2013  07 21  -21.0303 26049.8 -03433.8 -07.5093 26275.2
 20 04 2013  07 22  -21.0303 26050.1 -03434.0 -07.5095 26275.5
 20 04 2013  07 23  -21.0304 26050.2 -03434.1 -07.5097 26275.6
 20 04 2013  07 24  -21.0306 26050.3 -03434.1 -07.5097 26275.7
 20 04 2013  07 25  -21.0304 26050.7 -03434.2 -07.5100 26276.1
 20 04 2013  07 26  -21.0303 26050.7 -03434.3 -07.5100 26276.1
 20 04 2013  07 27  -21.0303 26050.7 -03434.2 -07.5098 26276.0
 20 04 2013  07 28  -21.0300 26050.7 -03434.2 -07.5098 26276.1
 20 04 2013  07 29  -21.0302 26050.6 -03434.1 -07.5097 26276.0
 20 04 2013  07 30  -21.0301 26050.6 -03434.1 -07.5096 26276.0
 20 04 2013  07 31  -21.0300 26050.6 -03434.1 -07.5096 26276.0
 20 04 2013  07 32  -21.0300 26050.6 -03434.1 -07.5096 26276.0
 20 04 2013  07 33  -21.0298 26050.6 -03434.1 -07.5096 26276.0
 20 04 2013  07 34  -21.0298 26050.4 -03434.0 -07.5095 26275.8
 20 04 2013  07 35  -21.0298 26050.3 -03433.9 -07.5094 26275.7
 20 04 2013  07 36  -21.0298 26050.3 -03433.9 -07.5093 26275.6
 20 04 2013  07 37  -21.0298 26050.2 -03433.9 -07.5093 26275.6
 20 04 2013  07 38  -21.0298 26050.3 -03433.9 -07.5094 26275.6
 20 04 2013  07 39  -21.0298 26050.4 -03434.0 -07.5095 26275.8
 20 04 2013  07 40  -21.0298 26050.6 -03434.1 -07.5097 26276.0
 20 04 2013  07 41  -21.0299 26050.5 -03434.1 -07.5097 26275.9
 20 04 2013  07 42  -21.0298 26050.4 -03434.1 -07.5096 26275.8
 20 04 2013  07 43  -21.0295 26050.5 -03434.0 -07.5096 26275.8
 20 04 2013  07 44  -21.0295 26050.5 -03434.0 -07.5096 26275.8
 20 04 2013  07 45  -21.0297 26050.5 -03434.1 -07.5097 26275.9
 20 04 2013  07 46  -21.0297 26050.6 -03434.2 -07.5098 26276.0
 20 04 2013  07 47  -21.0297 26050.7 -03434.2 -07.5098 26276.1
 20 04 2013  07 48  -21.0295 26050.7 -03434.2 -07.5098 26276.1
 20 04 2013  07 49  -21.0294 26050.8 -03434.2 -07.5098 26276.1
 20 04 2013  07 50  -21.0293 26050.8 -03434.2 -07.5098 26276.2
 20 04 2013  07 51  -21.0294 26050.8 -03434.2 -07.5098 26276.2
 20 04 2013  07 52  -21.0293 26050.8 -03434.2 -07.5098 26276.2
 20 04 2013  07 53  -21.0292 26050.9 -03434.3 -07.5099 26276.3
 20 04 2013  07 54  -21.0291 26050.8 -03434.2 -07.5098 26276.2
 20 04 2013  07 55  -21.0291 26050.5 -03434.0 -07.5095 26275.9
 20 04 2013  07 56  -21.0290 26050.3 -03434.0 -07.5094 26275.7
 20 04 2013  07 57  -21.0289 26050.3 -03433.9 -07.5093 26275.7
 20 04 2013  07 58  -21.0286 26050.3 -03433.9 -07.5093 26275.7
 20 04 2013  07 59  -21.0285 26050.5 -03434.0 -07.5095 26275.8
 20 04 2013  08 00  -21.0283 26050.8 -03434.2 -07.5099 26276.2
 20 04 2013  08 01  -21.0281 26051.2 -03434.5 -07.5103 26276.7
 20 04 2013  08 02  -21.0279 26051.7 -03434.7 -07.5107 26277.1
 20 04 2013  08 03  -21.0275 26052.0 -03434.9 -07.5110 26277.4
 20 04 2013  08 04  -21.0270 26052.0 -03434.9 -07.5109 26277.5
 20 04 2013  08 05  -21.0265 26051.9 -03434.8 -07.5108 26277.4
 20 04 2013  08 06  -21.0262 26051.9 -03434.8 -07.5107 26277.4
 20 04 2013  08 07  -21.0261 26051.8 -03434.7 -07.5107 26277.3
 20 04 2013  08 08  -21.0260 26051.7 -03434.7 -07.5105 26277.1
 20 04 2013  08 09  -21.0258 26051.5 -03434.6 -07.5104 26276.9
 20 04 2013  08 10  -21.0257 26051.2 -03434.4 -07.5101 26276.6
 20 04 2013  08 11  -21.0256 26051.1 -03434.3 -07.5100 26276.5
 20 04 2013  08 12  -21.0255 26051.0 -03434.3 -07.5100 26276.4
 20 04 2013  08 13  -21.0254 26051.0 -03434.3 -07.5100 26276.4
 20 04 2013  08 14  -21.0254 26051.0 -03434.3 -07.5100 26276.4
 20 04 2013  08 15  -21.0253 26050.9 -03434.3 -07.5101 26276.3
 20 04 2013  08 16  -21.0251 26050.9 -03434.4 -07.5101 26276.3
 20 04 2013  08 17  -21.0252 26050.9 -03434.5 -07.5104 26276.3
 20 04 2013  08 18  -21.0251 26051.2 -03434.6 -07.5107 26276.6
 20 04 2013  08 19  -21.0252 26051.2 -03434.7 -07.5108 26276.6
 20 04 2013  08 20  -21.0250 26051.1 -03434.7 -07.5107 26276.6
 20 04 2013  08 21  -21.0246 26051.2 -03434.7 -07.5109 26276.7
 20 04 2013  08 22  -21.0246 26051.3 -03434.8 -07.5110 26276.7
 20 04 2013  08 23  -21.0246 26051.3 -03434.8 -07.5111 26276.7
 20 04 2013  08 24  -21.0246 26050.9 -03434.7 -07.5109 26276.3
 20 04 2013  08 25  -21.0247 26050.7 -03434.6 -07.5107 26276.1
 20 04 2013  08 26  -21.0252 26050.4 -03434.5 -07.5106 26275.9
 20 04 2013  08 27  -21.0257 26050.1 -03434.4 -07.5104 26275.5
 20 04 2013  08 28  -21.0262 26049.8 -03434.3 -07.5103 26275.2
 20 04 2013  08 29  -21.0267 26049.6 -03434.2 -07.5101 26275.0
 20 04 2013  08 30  -21.0272 26049.3 -03434.1 -07.5100 26274.7
 20 04 2013  08 31  -21.0275 26049.1 -03434.1 -07.5100 26274.5
 20 04 2013  08 32  -21.0277 26049.0 -03434.1 -07.5100 26274.4
 20 04 2013  08 33  -21.0278 26049.0 -03434.1 -07.5101 26274.4
 20 04 2013  08 34  -21.0280 26049.0 -03434.2 -07.5103 26274.4
 20 04 2013  08 35  -21.0283 26049.1 -03434.3 -07.5106 26274.5
 20 04 2013  08 36  -21.0287 26049.2 -03434.5 -07.5110 26274.7
 20 04 2013  08 37  -21.0290 26049.2 -03434.6 -07.5111 26274.7
 20 04 2013  08 38  -21.0294 26049.2 -03434.7 -07.5112 26274.7
 20 04 2013  08 39  -21.0297 26049.3 -03434.6 -07.5112 26274.7
 20 04 2013  08 40  -21.0301 26049.2 -03434.7 -07.5113 26274.7
 20 04 2013  08 41  -21.0306 26049.3 -03434.7 -07.5112 26274.7
 20 04 2013  08 42  -21.0309 26049.1 -03434.7 -07.5113 26274.6
 20 04 2013  08 43  -21.0313 26049.0 -03434.7 -07.5113 26274.5
 20 04 2013  08 44  -21.0317 26048.9 -03434.7 -07.5114 26274.4
 20 04 2013  08 45  -21.0323 26048.9 -03434.8 -07.5116 26274.3
 20 04 2013  08 46  -21.0329 26048.9 -03434.9 -07.5119 26274.4
 20 04 2013  08 47  -21.0333 26049.0 -03435.0 -07.5120 26274.5
 20 04 2013  08 48  -21.0338 26049.2 -03435.1 -07.5121 26274.7
 20 04 2013  08 49  -21.0341 26049.1 -03435.0 -07.5121 26274.6
 20 04 2013  08 50  -21.0346 26049.1 -03435.0 -07.5120 26274.6
 20 04 2013  08 51  -21.0350 26049.1 -03435.0 -07.5120 26274.6
 20 04 2013  08 52  -21.0353 26049.0 -03434.9 -07.5119 26274.5
 20 04 2013  08 53  -21.0356 26048.9 -03434.9 -07.5119 26274.4
 20 04 2013  08 54  -21.0358 26049.0 -03434.9 -07.5119 26274.5
 20 04 2013  08 55  -21.0360 26049.1 -03435.0 -07.5120 26274.6
 20 04 2013  08 56  -21.0367 26048.8 -03435.0 -07.5121 26274.3
 20 04 2013  08 57  -21.0367 26048.6 -03434.9 -07.5120 26274.1
 20 04 2013  08 58  -21.0365 26048.4 -03434.8 -07.5117 26273.9
 20 04 2013  08 59  -21.0364 26048.2 -03434.6 -07.5113 26273.7
 20 04 2013  09 00  -21.0366 26047.8 -03434.3 -07.5109 26273.3
 20 04 2013  09 01  -21.0370 26047.4 -03434.1 -07.5106 26272.8
 20 04 2013  09 02  -21.0369 26047.4 -03434.1 -07.5106 26272.8
 20 04 2013  09 03  -21.0377 26047.3 -03434.2 -07.5108 26272.7
 20 04 2013  09 04  -21.0384 26047.1 -03434.3 -07.5111 26272.5
 20 04 2013  09 05  -21.0388 26047.1 -03434.4 -07.5114 26272.5
 20 04 2013  09 06  -21.0390 26047.1 -03434.5 -07.5116 26272.6
 20 04 2013  09 07  -21.0395 26046.9 -03434.5 -07.5116 26272.4
 20 04 2013  09 08  -21.0395 26046.8 -03434.4 -07.5115 26272.2
 20 04 2013  09 09  -21.0398 26046.7 -03434.4 -07.5113 26272.1
 20 04 2013  09 10  -21.0403 26046.4 -03434.3 -07.5113 26271.9
 20 04 2013  09 11  -21.0412 26046.0 -03434.2 -07.5112 26271.4
 20 04 2013  09 12  -21.0415 26045.9 -03434.2 -07.5112 26271.3
 20 04 2013  09 13  -21.0422 26045.7 -03434.2 -07.5112 26271.1
 20 04 2013  09 14  -21.0427 26045.5 -03434.1 -07.5112 26270.9
 20 04 2013  09 15  -21.0432 26045.3 -03434.1 -07.5111 26270.7
 20 04 2013  09 16  -21.0443 26045.2 -03434.1 -07.5112 26270.6
 20 04 2013  09 17  -21.0447 26045.1 -03434.1 -07.5112 26270.5
 20 04 2013  09 18  -21.0451 26044.9 -03434.0 -07.5112 26270.3
 20 04 2013  09 19  -21.0457 26044.9 -03434.1 -07.5113 26270.3
 20 04 2013  09 20  -21.0464 26045.0 -03434.3 -07.5117 26270.4
 20 04 2013  09 21  -21.0471 26044.8 -03434.3 -07.5117 26270.2
 20 04 2013  09 22  -21.0479 26044.7 -03434.3 -07.5118 26270.1
 20 04 2013  09 23  -21.0482 26044.9 -03434.4 -07.5120 26270.3
 20 04 2013  09 24  -21.0482 26044.9 -03434.5 -07.5120 26270.4
 20 04 2013  09 25  -21.0490 26044.8 -03434.5 -07.5121 26270.3
 20 04 2013  09 26  -21.0495 26044.9 -03434.6 -07.5123 26270.4
 20 04 2013  09 27  -21.0498 26045.1 -03434.6 -07.5124 26270.6
 20 04 2013  09 28  -21.0503 26045.2 -03434.7 -07.5124 26270.7
 20 04 2013  09 29  -21.0508 26045.2 -03434.7 -07.5124 26270.7
 20 04 2013  09 30  -21.0513 26045.2 -03434.7 -07.5124 26270.7
 20 04 2013  09 31  -21.0521 26045.2 -03434.7 -07.5124 26270.7
 20 04 2013  09 32  -21.0527 26045.3 -03434.7 -07.5125 26270.8
 20 04 2013  09 33  -21.0531 26045.4 -03434.7 -07.5125 26270.9
 20 04 2013  09 34  -21.0538 26045.4 -03434.8 -07.5125 26270.9
 20 04 2013  09 35  -21.0544 26045.4 -03434.7 -07.5125 26270.9
 20 04 2013  09 36  -21.0550 26045.3 -03434.7 -07.5124 26270.8
 20 04 2013  09 37  -21.0557 26045.3 -03434.6 -07.5122 26270.7
 20 04 2013  09 38  -21.0564 26045.3 -03434.6 -07.5122 26270.8
 20 04 2013  09 39  -21.0565 26045.3 -03434.5 -07.5120 26270.8
 20 04 2013  09 40  -21.0569 26045.4 -03434.4 -07.5119 26270.8
 20 04 2013  09 41  -21.0571 26045.5 -03434.4 -07.5118 26270.9
 20 04 2013  09 42  -21.0575 26045.4 -03434.4 -07.5117 26270.8
 20 04 2013  09 43  -21.0579 26045.4 -03434.3 -07.5116 26270.8
 20 04 2013  09 44  -21.0583 26045.7 -03434.4 -07.5118 26271.2
 20 04 2013  09 45  -21.0590 26045.9 -03434.5 -07.5118 26271.4
 20 04 2013  09 46  -21.0590 26046.1 -03434.5 -07.5118 26271.6
 20 04 2013  09 47  -21.0596 26046.2 -03434.5 -07.5117 26271.7
 20 04 2013  09 48  -21.0601 26046.3 -03434.5 -07.5117 26271.8
 20 04 2013  09 49  -21.0603 26046.5 -03434.5 -07.5116 26271.9
 20 04 2013  09 50  -21.0605 26046.5 -03434.4 -07.5115 26272.0
 20 04 2013  09 51  -21.0614 26046.6 -03434.4 -07.5115 26272.0
 20 04 2013  09 52  -21.0624 26046.8 -03434.5 -07.5116 26272.2
 20 04 2013  09 53  -21.0627 26047.0 -03434.5 -07.5116 26272.5
 20 04 2013  09 54  -21.0635 26047.4 -03434.6 -07.5116 26272.9
 20 04 2013  09 55  -21.0643 26047.5 -03434.5 -07.5115 26272.9
 20 04 2013  09 56  -21.0651 26047.6 -03434.5 -07.5115 26273.1
 20 04 2013  09 57  -21.0658 26047.9 -03434.6 -07.5115 26273.4
 20 04 2013  09 58  -21.0663 26048.2 -03434.6 -07.5115 26273.7
 20 04 2013  09 59  -21.0671 26048.3 -03434.6 -07.5114 26273.8
 20 04 2013  10 00  -21.0680 26048.3 -03434.5 -07.5112 26273.8
 20 04 2013  10 01  -21.0686 26048.5 -03434.5 -07.5111 26274.0
 20 04 2013  10 02  -21.0688 26048.7 -03434.4 -07.5109 26274.2
 20 04 2013  10 03  -21.0693 26048.8 -03434.3 -07.5107 26274.2
 20 04 2013  10 04  -21.0698 26048.8 -03434.2 -07.5104 26274.2
 20 04 2013  10 05  -21.0705 26048.8 -03434.1 -07.5102 26274.2
 20 04 2013  10 06  -21.0712 26048.9 -03434.0 -07.5100 26274.3
 20 04 2013  10 07  -21.0718 26049.3 -03434.1 -07.5100 26274.7
 20 04 2013  10 08  -21.0719 26049.6 -03434.0 -07.5098 26275.0
 20 04 2013  10 09  -21.0722 26049.9 -03433.9 -07.5095 26275.2
 20 04 2013  10 10  -21.0729 26050.1 -03433.8 -07.5093 26275.4
 20 04 2013  10 11  -21.0737 26050.2 -03433.8 -07.5091 26275.5
 20 04 2013  10 12  -21.0738 26050.4 -03433.7 -07.5089 26275.7
 20 04 2013  10 13  -21.0738 26050.6 -03433.6 -07.5085 26275.9
 20 04 2013  10 14  -21.0739 26050.7 -03433.4 -07.5082 26276.0
 20 04 2013  10 15  -21.0743 26050.7 -03433.2 -07.5077 26275.9
 20 04 2013  10 16  -21.0749 26050.7 -03433.1 -07.5074 26275.9
 20 04 2013  10 17  -21.0757 26050.8 -03433.0 -07.5072 26276.1
 20 04 2013  10 18  -21.0766 26051.0 -03433.0 -07.5071 26276.2
 20 04 2013  10 19  -21.0769 26051.1 -03432.8 -07.5067 26276.3
 20 04 2013  10 20  -21.0772 26051.2 -03432.7 -07.5064 26276.4
 20 04 2013  10 21  -21.0778 26051.3 -03432.6 -07.5062 26276.5
 20 04 2013  10 22  -21.0783 26051.4 -03432.5 -07.5059 26276.6
 20 04 2013  10 23  -21.0792 26051.5 -03432.4 -07.5057 26276.6
 20 04 2013  10 24  -21.0802 26051.7 -03432.3 -07.5055 26276.8
 20 04 2013  10 25  -21.0804 26052.0 -03432.3 -07.5053 26277.1
 20 04 2013  10 26  -21.0804 26052.0 -03432.1 -07.5049 26277.1
 20 04 2013  10 27  -21.0809 26052.2 -03432.0 -07.5046 26277.2
 20 04 2013  10 28  -21.0821 26052.2 -03431.8 -07.5042 26277.2
 20 04 2013  10 29  -21.0831 26052.2 -03431.7 -07.5040 26277.3
 20 04 2013  10 30  -21.0833 26052.4 -03431.6 -07.5037 26277.4
 20 04 2013  10 31  -21.0834 26052.4 -03431.4 -07.5033 26277.4
 20 04 2013  10 32  -21.0840 26052.6 -03431.3 -07.5031 26277.6
 20 04 2013  10 33  -21.0847 26052.9 -03431.3 -07.5029 26277.8
 20 04 2013  10 34  -21.0852 26053.1 -03431.2 -07.5027 26278.0
 20 04 2013  10 35  -21.0857 26053.2 -03431.1 -07.5023 26278.1
 20 04 2013  10 36  -21.0862 26053.3 -03430.9 -07.5020 26278.2
 20 04 2013  10 37  -21.0870 26053.4 -03430.8 -07.5017 26278.3
 20 04 2013  10 38  -21.0879 26053.5 -03430.6 -07.5013 26278.4
 20 04 2013  10 39  -21.0886 26053.7 -03430.5 -07.5010 26278.6
 20 04 2013  10 40  -21.0891 26053.8 -03430.3 -07.5006 26278.6
 20 04 2013  10 41  -21.0900 26053.8 -03430.1 -07.5001 26278.7
 20 04 2013  10 42  -21.0912 26053.9 -03429.9 -07.4997 26278.7
 20 04 2013  10 43  -21.0921 26054.3 -03429.9 -07.4995 26279.1
 20 04 2013  10 44  -21.0925 26054.4 -03429.6 -07.4989 26279.2
 20 04 2013  10 45  -21.0932 26054.6 -03429.5 -07.4985 26279.3
 20 04 2013  10 46  -21.0937 26055.0 -03429.4 -07.4981 26279.7
 20 04 2013  10 47  -21.0942 26055.2 -03429.2 -07.4978 26279.9
 20 04 2013  10 48  -21.0948 26055.6 -03429.1 -07.4975 26280.2
 20 04 2013  10 49  -21.0955 26055.6 -03428.8 -07.4968 26280.2
 20 04 2013  10 50  -21.0955 26056.3 -03428.8 -07.4966 26280.9
 20 04 2013  10 51  -21.0954 26056.2 -03428.5 -07.4959 26280.8
 20 04 2013  10 52  -21.0952 26056.9 -03428.4 -07.4956 26281.5
 20 04 2013  10 53  -21.0958 26056.7 -03428.1 -07.4950 26281.3
 20 04 2013  10 54  -21.0961 26057.7 -03428.1 -07.4948 26282.2
 20 04 2013  10 55  -21.0967 26057.4 -03427.8 -07.4942 26281.9
 20 04 2013  10 56  -21.0971 26057.6 -03427.6 -07.4937 26282.1
 20 04 2013  10 57  -21.0974 26058.2 -03427.6 -07.4933 26282.7
 20 04 2013  10 58  -21.0980 26058.0 -03427.2 -07.4926 26282.4
 20 04 2013  10 59  -21.0980 26058.6 -03427.1 -07.4922 26283.0
 20 04 2013  11 00  -21.0983 26058.7 -03426.9 -07.4918 26283.1
 20 04 2013  11 01  -21.0996 26057.8 -03426.3 -07.4907 26282.1
 20 04 2013  11 02  -21.1004 26058.1 -03426.2 -07.4904 26282.4
 20 04 2013  11 03  -21.1012 26058.3 -03426.2 -07.4903 26282.5
 20 04 2013  11 04  -21.1016 26058.6 -03426.1 -07.4901 26282.9
 20 04 2013  11 05  -21.1023 26058.7 -03426.0 -07.4898 26282.9
 20 04 2013  11 06  -21.1026 26059.3 -03426.0 -07.4896 26283.5
 20 04 2013  11 07  -21.1031 26059.6 -03425.9 -07.4894 26283.8
 20 04 2013  11 08  -21.1033 26060.0 -03425.8 -07.4891 26284.2
 20 04 2013  11 09  -21.1034 26060.2 -03425.6 -07.4886 26284.4
 20 04 2013  11 10  -21.1033 26060.3 -03425.4 -07.4881 26284.5
 20 04 2013  11 11  -21.1037 26060.5 -03425.3 -07.4878 26284.6
 20 04 2013  11 12  -21.1036 26060.7 -03425.1 -07.4874 26284.8
 20 04 2013  11 13  -21.1035 26060.6 -03424.8 -07.4868 26284.6
 20 04 2013  11 14  -21.1035 26061.0 -03424.9 -07.4868 26285.1
 20 04 2013  11 15  -21.1037 26060.6 -03424.5 -07.4861 26284.7
 20 04 2013  11 16  -21.1032 26061.0 -03424.5 -07.4859 26285.1
 20 04 2013  11 17  -21.1029 26061.0 -03424.3 -07.4855 26285.0
 20 04 2013  11 18  -21.1027 26061.2 -03424.3 -07.4854 26285.2
 20 04 2013  11 19  -21.1024 26061.5 -03424.3 -07.4853 26285.5
 20 04 2013  11 20  -21.1022 26061.7 -03424.2 -07.4852 26285.7
 20 04 2013  11 21  -21.1018 26062.2 -03424.3 -07.4852 26286.2
 20 04 2013  11 22  -21.1016 26062.7 -03424.4 -07.4852 26286.7
 20 04 2013  11 23  -21.1013 26063.2 -03424.4 -07.4852 26287.2
 20 04 2013  11 24  -21.1007 26063.8 -03424.4 -07.4850 26287.8
 20 04 2013  11 25  -21.1001 26064.4 -03424.5 -07.4850 26288.4
 20 04 2013  11 26  -21.0995 26065.3 -03424.6 -07.4850 26289.3
 20 04 2013  11 27  -21.0992 26066.0 -03424.7 -07.4849 26290.0
 20 04 2013  11 28  -21.0994 26066.3 -03424.5 -07.4844 26290.2
 20 04 2013  11 29  -21.0996 26066.8 -03424.4 -07.4842 26290.8
 20 04 2013  11 30  -21.0998 26067.0 -03424.3 -07.4838 26291.0
 20 04 2013  11 31  -21.0998 26067.7 -03424.3 -07.4836 26291.6
 20 04 2013  11 32  -21.1000 26068.0 -03424.2 -07.4833 26292.0
 20 04 2013  11 33  -21.1000 26068.3 -03424.0 -07.4828 26292.2
 20 04 2013  11 34  -21.0999 26068.5 -03423.8 -07.4823 26292.4
 20 04 2013  11 35  -21.0999 26068.9 -03423.7 -07.4820 26292.8
 20 04 2013  11 36  -21.1001 26069.2 -03423.6 -07.4818 26293.1
 20 04 2013  11 37  -21.1001 26069.3 -03423.4 -07.4813 26293.1
 20 04 2013  11 38  -21.1000 26069.8 -03423.4 -07.4811 26293.7
 20 04 2013  11 39  -21.0998 26069.9 -03423.3 -07.4808 26293.7
 20 04 2013  11 40  -21.0993 26070.6 -03423.3 -07.4806 26294.4
 20 04 2013  11 41  -21.0991 26071.1 -03423.3 -07.4805 26294.9
 20 04 2013  11 42  -21.0991 26071.3 -03423.1 -07.4801 26295.0
 20 04 2013  11 43  -21.0992 26071.0 -03422.8 -07.4795 26294.8
 20 04 2013  11 44  -21.0989 26071.6 -03422.9 -07.4794 26295.3
 20 04 2013  11 45  -21.0985 26071.8 -03422.8 -07.4792 26295.5
 20 04 2013  11 46  -21.0982 26072.4 -03422.9 -07.4792 26296.1
 20 04 2013  11 47  -21.0981 26073.0 -03422.9 -07.4791 26296.8
 20 04 2013  11 48  -21.0982 26073.2 -03422.8 -07.4788 26296.9
 20 04 2013  11 49  -21.0980 26073.3 -03422.6 -07.4783 26297.0
 20 04 2013  11 50  -21.0981 26073.9 -03422.6 -07.4783 26297.6
 20 04 2013  11 51  -21.0980 26074.1 -03422.5 -07.4779 26297.7
 20 04 2013  11 52  -21.0977 26074.6 -03422.5 -07.4778 26298.3
 20 04 2013  11 53  -21.0977 26075.1 -03422.5 -07.4776 26298.8
 20 04 2013  11 54  -21.0976 26075.2 -03422.3 -07.4772 26298.8
 20 04 2013  11 55  -21.0972 26075.4 -03422.2 -07.4768 26299.0
 20 04 2013  11 56  -21.0970 26075.6 -03422.1 -07.4766 26299.2
 20 04 2013  11 57  -21.0968 26075.4 -03421.8 -07.4761 26299.0
 20 04 2013  11 58  -21.0966 26075.7 -03421.8 -07.4759 26299.2
 20 04 2013  11 59  -21.0967 26075.8 -03421.7 -07.4757 26299.3
 20 04 2013  12 00  -21.0967 26075.5 -03421.5 -07.4752 26299.0
 20 04 2013  12 01  -21.0970 26075.3 -03421.3 -07.4749 26298.8
 20 04 2013  12 02  -21.0970 26075.2 -03421.2 -07.4747 26298.6
 20 04 2013  12 03  -21.0974 26075.1 -03421.2 -07.4747 26298.6
 20 04 2013  12 04  -21.0977 26075.0 -03421.1 -07.4747 26298.5
 20 04 2013  12 05  -21.0980 26075.0 -03421.1 -07.4747 26298.5
 20 04 2013  12 06  -21.0983 26075.1 -03421.2 -07.4747 26298.6
 20 04 2013  12 07  -21.0984 26075.3 -03421.2 -07.4747 26298.8
 20 04 2013  12 08  -21.0985 26075.5 -03421.1 -07.4746 26299.0
 20 04 2013  12 09  -21.0987 26075.3 -03421.0 -07.4743 26298.7
 20 04 2013  12 10  -21.0989 26074.7 -03420.7 -07.4738 26298.2
 20 04 2013  12 11  -21.0995 26074.5 -03420.6 -07.4737 26297.9
 20 04 2013  12 12  -21.1000 26074.3 -03420.5 -07.4734 26297.6
 20 04 2013  12 13  -21.1003 26074.0 -03420.4 -07.4733 26297.4
 20 04 2013  12 14  -21.1003 26074.3 -03420.5 -07.4734 26297.7
 20 04 2013  12 15  -21.1003 26074.6 -03420.5 -07.4735 26298.0
 20 04 2013  12 16  -21.1000 26075.0 -03420.6 -07.4736 26298.5
 20 04 2013  12 17  -21.0999 26075.6 -03420.7 -07.4737 26299.0
 20 04 2013  12 18  -21.1000 26076.0 -03420.7 -07.4735 26299.4
 20 04 2013  12 19  -21.1000 26076.3 -03420.6 -07.4732 26299.7
 20 04 2013  12 20  -21.0996 26076.8 -03420.6 -07.4729 26300.2
 20 04 2013  12 21  -21.0994 26077.3 -03420.5 -07.4727 26300.6
 20 04 2013  12 22  -21.0997 26077.2 -03420.2 -07.4720 26300.6
 20 04 2013  12 23  -21.1000 26076.3 -03419.6 -07.4709 26299.5
 20 04 2013  12 24  -21.1001 26075.5 -03419.2 -07.4703 26298.8
 20 04 2013  12 25  -21.1003 26075.2 -03419.0 -07.4700 26298.4
 20 04 2013  12 26  -21.1005 26075.0 -03418.8 -07.4698 26298.2
 20 04 2013  12 27  -21.1000 26074.0 -03418.4 -07.4691 26297.1
 20 04 2013  12 28  -21.0998 26074.0 -03418.4 -07.4690 26297.1
 20 04 2013  12 29  -21.0998 26074.1 -03418.4 -07.4691 26297.2
 20 04 2013  12 30  -21.0995 26074.0 -03418.4 -07.4690 26297.1
 20 04 2013  12 31  -21.0988 26073.9 -03418.3 -07.4689 26297.0
 20 04 2013  12 32  -21.0981 26074.0 -03418.2 -07.4687 26297.1
 20 04 2013  12 33  -21.0976 26074.4 -03418.3 -07.4687 26297.5
 20 04 2013  12 34  -21.0974 26074.6 -03418.3 -07.4688 26297.8
 20 04 2013  12 35  -21.0970 26074.5 -03418.2 -07.4685 26297.6
 20 04 2013  12 36  -21.0967 26074.3 -03418.0 -07.4682 26297.4
 20 04 2013  12 37  -21.0960 26074.4 -03418.0 -07.4682 26297.5
 20 04 2013  12 38  -21.0953 26074.7 -03418.2 -07.4685 26297.8
 20 04 2013  12 39  -21.0947 26074.8 -03418.3 -07.4685 26298.0
 20 04 2013  12 40  -21.0939 26074.9 -03418.3 -07.4685 26298.0
 20 04 2013  12 41  -21.0932 26074.4 -03418.2 -07.4685 26297.5
 20 04 2013  12 42  -21.0924 26074.7 -03418.3 -07.4687 26297.8
 20 04 2013  12 43  -21.0912 26075.2 -03418.6 -07.4692 26298.4
 20 04 2013  12 44  -21.0904 26075.6 -03418.8 -07.4696 26298.8
 20 04 2013  12 45  -21.0899 26076.2 -03419.1 -07.4699 26299.4
 20 04 2013  12 46  -21.0893 26076.2 -03419.1 -07.4700 26299.4
 20 04 2013  12 47  -21.0885 26076.7 -03419.4 -07.4704 26300.0
 20 04 2013  12 48  -21.0881 26077.2 -03419.6 -07.4708 26300.5
 20 04 2013  12 49  -21.0876 26078.1 -03420.0 -07.4714 26301.4
 20 04 2013  12 50  -21.0870 26078.6 -03420.3 -07.4718 26302.0
 20 04 2013  12 51  -21.0866 26078.7 -03420.2 -07.4717 26302.0
 20 04 2013  12 52  -21.0861 26079.4 -03420.6 -07.4723 26302.8
 20 04 2013  12 53  -21.0858 26079.9 -03420.8 -07.4726 26303.3
 20 04 2013  12 54  -21.0857 26080.1 -03420.9 -07.4727 26303.5
 20 04 2013  12 55  -21.0852 26080.1 -03420.9 -07.4727 26303.5
 20 04 2013  12 56  -21.0853 26080.3 -03421.1 -07.4731 26303.7
 20 04 2013  12 57  -21.0855 26080.4 -03421.2 -07.4733 26303.8
 20 04 2013  12 58  -21.0856 26081.1 -03421.6 -07.4739 26304.6
 20 04 2013  12 59  -21.0853 26081.6 -03421.7 -07.4741 26305.1
 20 04 2013  13 00  -21.0859 26081.5 -03421.6 -07.4739 26305.0
 20 04 2013  13 01  -21.0856 26080.5 -03421.3 -07.4735 26304.0
 20 04 2013  13 02  -21.0860 26080.3 -03421.5 -07.4739 26303.8
 20 04 2013  13 03  -21.0865 26079.8 -03421.6 -07.4744 26303.3
 20 04 2013  13 04  -21.0871 26079.2 -03421.7 -07.4747 26302.7
 20 04 2013  13 05  -21.0873 26078.1 -03421.7 -07.4749 26301.6
 20 04 2013  13 06  -21.0877 26077.9 -03422.0 -07.4757 26301.5
 20 04 2013  13 07  -21.0879 26077.6 -03422.1 -07.4761 26301.2
 20 04 2013  13 08  -21.0881 26077.5 -03422.4 -07.4766 26301.1
 20 04 2013  13 09  -21.0878 26076.8 -03422.4 -07.4769 26300.5
 20 04 2013  13 10  -21.0878 26075.8 -03422.5 -07.4774 26299.5
 20 04 2013  13 11  -21.0876 26075.4 -03422.8 -07.4783 26299.1
 20 04 2013  13 12  -21.0878 26075.4 -03423.3 -07.4793 26299.2
 20 04 2013  13 13  -21.0877 26075.2 -03423.6 -07.4801 26299.0
 20 04 2013  13 14  -21.0876 26074.8 -03423.9 -07.4807 26298.7
 20 04 2013  13 15  -21.0877 26074.5 -03424.2 -07.4815 26298.4
 20 04 2013  13 16  -21.0880 26074.4 -03424.6 -07.4823 26298.3
 20 04 2013  13 17  -21.0883 26074.4 -03425.0 -07.4831 26298.3
 20 04 2013  13 18  -21.0889 26074.2 -03425.2 -07.4837 26298.2
 20 04 2013  13 19  -21.0890 26073.7 -03425.3 -07.4840 26297.7
 20 04 2013  13 20  -21.0893 26073.7 -03425.5 -07.4845 26297.7
 20 04 2013  13 21  -21.0894 26073.1 -03425.6 -07.4848 26297.2
 20 04 2013  13 22  -21.0892 26072.2 -03425.5 -07.4850 26296.2
 20 04 2013  13 23  -21.0893 26071.7 -03425.8 -07.4857 26295.8
 20 04 2013  13 24  -21.0894 26071.2 -03426.0 -07.4864 26295.3
 20 04 2013  13 25  -21.0892 26070.9 -03426.4 -07.4871 26295.1
 20 04 2013  13 26  -21.0891 26071.0 -03426.8 -07.4880 26295.2
 20 04 2013  13 27  -21.0889 26071.4 -03427.3 -07.4891 26295.7
 20 04 2013  13 28  -21.0886 26071.7 -03427.7 -07.4898 26296.0
 20 04 2013  13 29  -21.0886 26072.2 -03428.1 -07.4906 26296.6
 20 04 2013  13 30  -21.0883 26072.4 -03428.4 -07.4911 26296.9
 20 04 2013  13 31  -21.0881 26073.0 -03428.8 -07.4918 26297.4
 20 04 2013  13 32  -21.0879 26073.4 -03429.0 -07.4923 26297.9
 20 04 2013  13 33  -21.0880 26073.7 -03429.3 -07.4926 26298.2
 20 04 2013  13 34  -21.0878 26073.8 -03429.3 -07.4927 26298.4
 20 04 2013  13 35  -21.0878 26073.8 -03429.4 -07.4928 26298.4
 20 04 2013  13 36  -21.0877 26073.8 -03429.5 -07.4930 26298.4
 20 04 2013  13 37  -21.0876 26074.1 -03429.6 -07.4933 26298.7
 20 04 2013  13 38  -21.0874 26074.1 -03429.7 -07.4934 26298.7
 20 04 2013  13 39  -21.0874 26074.1 -03429.8 -07.4937 26298.7
 20 04 2013  13 40  -21.0877 26074.4 -03430.0 -07.4939 26299.0
 20 04 2013  13 41  -21.0877 26074.5 -03430.0 -07.4940 26299.1
 20 04 2013  13 42  -21.0878 26074.7 -03430.1 -07.4941 26299.3
 20 04 2013  13 43  -21.0882 26075.1 -03430.3 -07.4945 26299.7
 20 04 2013  13 44  -21.0884 26075.1 -03430.3 -07.4945 26299.8
 20 04 2013  13 45  -21.0883 26074.9 -03430.2 -07.4944 26299.5
 20 04 2013  13 46  -21.0883 26074.8 -03430.3 -07.4945 26299.4
 20 04 2013  13 47  -21.0882 26075.0 -03430.5 -07.4948 26299.7
 20 04 2013  13 48  -21.0882 26075.5 -03430.8 -07.4953 26300.2
 20 04 2013  13 49  -21.0882 26076.0 -03430.9 -07.4955 26300.8
 20 04 2013  13 50  -21.0882 26076.8 -03431.3 -07.4961 26301.6
 20 04 2013  13 51  -21.0884 26077.6 -03431.5 -07.4963 26302.4
 20 04 2013  13 52  -21.0884 26077.9 -03431.4 -07.4961 26302.7
 20 04 2013  13 53  -21.0883 26078.0 -03431.3 -07.4959 26302.8
 20 04 2013  13 54  -21.0884 26078.3 -03431.3 -07.4958 26303.1
 20 04 2013  13 55  -21.0885 26078.3 -03431.2 -07.4955 26303.1
 20 04 2013  13 56  -21.0887 26078.3 -03431.2 -07.4954 26303.1
 20 04 2013  13 57  -21.0890 26078.4 -03431.1 -07.4954 26303.1
 20 04 2013  13 58  -21.0893 26078.4 -03431.1 -07.4953 26303.2
 20 04 2013  13 59  -21.0897 26078.3 -03431.0 -07.4951 26303.1
 20 04 2013  14 00  -21.0898 26078.2 -03430.9 -07.4949 26302.9
 20 04 2013  14 01  -21.0900 26077.9 -03430.8 -07.4947 26302.6
 20 04 2013  14 02  -21.0900 26077.6 -03430.7 -07.4946 26302.3
 20 04 2013  14 03  -21.0902 26077.4 -03430.7 -07.4947 26302.1
 20 04 2013  14 04  -21.0904 26077.4 -03430.8 -07.4949 26302.1
 20 04 2013  14 05  -21.0907 26077.6 -03430.9 -07.4950 26302.4
 20 04 2013  14 06  -21.0908 26077.7 -03430.9 -07.4950 26302.4
 20 04 2013  14 07  -21.0907 26077.7 -03430.8 -07.4949 26302.4
 20 04 2013  14 08  -21.0905 26077.6 -03430.7 -07.4947 26302.3
 20 04 2013  14 09  -21.0903 26077.5 -03430.7 -07.4946 26302.2
 20 04 2013  14 10  -21.0901 26077.5 -03430.7 -07.4946 26302.2
 20 04 2013  14 11  -21.0898 26077.5 -03430.6 -07.4944 26302.1
 20 04 2013  14 12  -21.0897 26077.5 -03430.6 -07.4943 26302.2
 20 04 2013  14 13  -21.0892 26077.5 -03430.5 -07.4942 26302.1
 20 04 2013  14 14  -21.0888 26077.3 -03430.4 -07.4940 26302.0
 20 04 2013  14 15  -21.0884 26077.2 -03430.3 -07.4939 26301.9
 20 04 2013  14 16  -21.0880 26077.1 -03430.3 -07.4940 26301.8
 20 04 2013  14 17  -21.0877 26077.1 -03430.3 -07.4940 26301.7
 20 04 2013  14 18  -21.0873 26077.0 -03430.3 -07.4940 26301.6
 20 04 2013  14 19  -21.0871 26076.9 -03430.3 -07.4940 26301.6
 20 04 2013  14 20  -21.0868 26076.9 -03430.4 -07.4941 26301.5
 20 04 2013  14 21  -21.0866 26076.7 -03430.4 -07.4942 26301.4
 20 04 2013  14 22  -21.0865 26076.7 -03430.4 -07.4943 26301.4
 20 04 2013  14 23  -21.0863 26076.6 -03430.4 -07.4943 26301.3
 20 04 2013  14 24  -21.0861 26076.6 -03430.5 -07.4944 26301.3
 20 04 2013  14 25  -21.0859 26076.6 -03430.5 -07.4945 26301.2
 20 04 2013  14 26  -21.0860 26076.5 -03430.6 -07.4947 26301.2
 20 04 2013  14 27  -21.0862 26076.8 -03430.7 -07.4949 26301.5
 20 04 2013  14 28  -21.0862 26077.0 -03430.8 -07.4950 26301.7
 20 04 2013  14 29  -21.0862 26077.3 -03430.9 -07.4951 26302.0
 20 04 2013  14 30  -21.0863 26077.3 -03430.9 -07.4951 26302.1
 20 04 2013  14 31  -21.0862 26077.4 -03430.8 -07.4950 26302.1
 20 04 2013  14 32  -21.0862 26077.5 -03430.9 -07.4951 26302.2
 20 04 2013  14 33  -21.0862 26077.5 -03430.9 -07.4951 26302.2
 20 04 2013  14 34  -21.0861 26077.1 -03430.8 -07.4950 26301.9
 20 04 2013  14 35  -21.0860 26076.9 -03430.8 -07.4949 26301.6
 20 04 2013  14 36  -21.0859 26077.0 -03430.9 -07.4952 26301.7
 20 04 2013  14 37  -21.0859 26076.9 -03430.9 -07.4953 26301.7
 20 04 2013  14 38  -21.0858 26076.9 -03430.9 -07.4954 26301.6
 20 04 2013  14 39  -21.0858 26077.0 -03431.0 -07.4956 26301.7
 20 04 2013  14 40  -21.0859 26077.1 -03431.2 -07.4957 26301.9
 20 04 2013  14 41  -21.0859 26077.3 -03431.3 -07.4959 26302.1
 20 04 2013  14 42  -21.0859 26077.4 -03431.3 -07.4960 26302.1
 20 04 2013  14 43  -21.0860 26077.4 -03431.4 -07.4961 26302.2
 20 04 2013  14 44  -21.0860 26077.5 -03431.4 -07.4961 26302.3
 20 04 2013  14 45  -21.0861 26077.5 -03431.4 -07.4962 26302.3
 20 04 2013  14 46  -21.0861 26077.3 -03431.4 -07.4962 26302.1
 20 04 2013  14 47  -21.0860 26076.9 -03431.3 -07.4961 26301.7
 20 04 2013  14 48  -21.0860 26076.7 -03431.3 -07.4962 26301.4
 20 04 2013  14 49  -21.0860 26076.6 -03431.4 -07.4964 26301.4
 20 04 2013  14 50  -21.0861 26076.6 -03431.6 -07.4968 26301.5
 20 04 2013  14 51  -21.0861 26076.8 -03431.7 -07.4969 26301.6
 20 04 2013  14 52  -21.0861 26076.7 -03431.7 -07.4970 26301.6
 20 04 2013  14 53  -21.0863 26077.0 -03431.8 -07.4972 26301.9
 20 04 2013  14 54  -21.0865 26077.3 -03431.9 -07.4974 26302.2
 20 04 2013  14 55  -21.0865 26077.4 -03431.9 -07.4973 26302.2
 20 04 2013  14 56  -21.0865 26077.5 -03431.9 -07.4973 26302.3
 20 04 2013  14 57  -21.0864 26077.6 -03431.9 -07.4973 26302.5
 20 04 2013  14 58  -21.0862 26077.4 -03431.8 -07.4971 26302.3
 20 04 2013  14 59  -21.0860 26077.2 -03431.7 -07.4970 26302.0
 20 04 2013  15 00  -21.0865 26077.2 -03431.8 -07.4971 26302.0
 20 04 2013  15 01  -21.0869 26077.2 -03431.8 -07.4972 26302.1
 20 04 2013  15 02  -21.0871 26077.2 -03431.8 -07.4971 26302.1
 20 04 2013  15 03  -21.0874 26077.5 -03431.8 -07.4971 26302.4
 20 04 2013  15 04  -21.0876 26077.6 -03431.7 -07.4969 26302.4
 20 04 2013  15 05  -21.0876 26077.3 -03431.5 -07.4964 26302.1
 20 04 2013  15 06  -21.0878 26077.1 -03431.3 -07.4961 26301.9
 20 04 2013  15 07  -21.0880 26076.9 -03431.1 -07.4957 26301.6
 20 04 2013  15 08  -21.0881 26076.6 -03431.0 -07.4955 26301.3
 20 04 2013  15 09  -21.0879 26076.2 -03430.8 -07.4952 26300.9
 20 04 2013  15 10  -21.0879 26076.0 -03430.7 -07.4951 26300.7
 20 04 2013  15 11  -21.0881 26076.1 -03430.7 -07.4949 26300.8
 20 04 2013  15 12  -21.0884 26076.3 -03430.6 -07.4948 26301.0
 20 04 2013  15 13  -21.0884 26076.0 -03430.4 -07.4944 26300.6
 20 04 2013  15 14  -21.0884 26075.7 -03430.2 -07.4941 26300.4
 20 04 2013  15 15  -21.0883 26075.7 -03430.1 -07.4938 26300.3
 20 04 2013  15 16  -21.0883 26075.7 -03430.0 -07.4937 26300.3
 20 04 2013  15 17  -21.0886 26075.5 -03429.9 -07.4935 26300.1
 20 04 2013  15 18  -21.0887 26075.4 -03429.8 -07.4933 26300.0
 20 04 2013  15 19  -21.0888 26075.4 -03429.7 -07.4931 26300.0
 20 04 2013  15 20  -21.0888 26075.3 -03429.6 -07.4928 26299.8
 20 04 2013  15 21  -21.0887 26075.0 -03429.4 -07.4925 26299.5
 20 04 2013  15 22  -21.0888 26074.9 -03429.3 -07.4924 26299.4
 20 04 2013  15 23  -21.0887 26074.7 -03429.2 -07.4922 26299.2
 20 04 2013  15 24  -21.0886 26074.4 -03429.0 -07.4918 26298.9
 20 04 2013  15 25  -21.0883 26074.2 -03428.9 -07.4917 26298.7
 20 04 2013  15 26  -21.0881 26074.1 -03428.8 -07.4916 26298.5
 20 04 2013  15 27  -21.0877 26073.9 -03428.8 -07.4915 26298.3
 20 04 2013  15 28  -21.0876 26073.8 -03428.8 -07.4916 26298.3
 20 04 2013  15 29  -21.0877 26074.0 -03428.9 -07.4917 26298.5
 20 04 2013  15 30  -21.0876 26074.2 -03428.9 -07.4917 26298.7
 20 04 2013  15 31  -21.0878 26074.7 -03429.1 -07.4920 26299.2
 20 04 2013  15 32  -21.0879 26075.3 -03429.2 -07.4920 26299.8
 20 04 2013  15 33  -21.0881 26075.6 -03429.1 -07.4918 26300.1
 20 04 2013  15 34  -21.0879 26075.7 -03429.0 -07.4914 26300.2
 20 04 2013  15 35  -21.0881 26075.8 -03428.9 -07.4912 26300.2
 20 04 2013  15 36  -21.0880 26075.9 -03428.7 -07.4908 26300.3
 20 04 2013  15 37  -21.0881 26076.0 -03428.6 -07.4906 26300.4
 20 04 2013  15 38  -21.0881 26076.1 -03428.5 -07.4903 26300.5
 20 04 2013  15 39  -21.0879 26075.9 -03428.2 -07.4897 26300.3
 20 04 2013  15 40  -21.0879 26075.8 -03428.0 -07.4893 26300.1
 20 04 2013  15 41  -21.0881 26075.8 -03427.8 -07.4889 26300.2
 20 04 2013  15 42  -21.0881 26075.7 -03427.6 -07.4885 26300.0
 20 04 2013  15 43  -21.0880 26075.5 -03427.4 -07.4880 26299.8
 20 04 2013  15 44  -21.0879 26075.6 -03427.2 -07.4877 26299.9
 20 04 2013  15 45  -21.0879 26075.7 -03427.1 -07.4875 26300.0
 20 04 2013  15 46  -21.0879 26075.9 -03427.0 -07.4872 26300.1
 20 04 2013  15 47  -21.0877 26076.1 -03426.9 -07.4869 26300.3
 20 04 2013  15 48  -21.0873 26076.0 -03426.7 -07.4865 26300.2
 20 04 2013  15 49  -21.0869 26075.8 -03426.5 -07.4860 26299.9
 20 04 2013  15 50  -21.0867 26075.7 -03426.4 -07.4858 26299.9
 20 04 2013  15 51  -21.0866 26075.7 -03426.2 -07.4855 26299.8
 20 04 2013  15 52  -21.0864 26075.7 -03426.1 -07.4853 26299.8
 20 04 2013  15 53  -21.0862 26075.7 -03426.0 -07.4850 26299.8
 20 04 2013  15 54  -21.0860 26075.7 -03425.9 -07.4848 26299.7
 20 04 2013  15 55  -21.0857 26075.6 -03425.8 -07.4846 26299.7
 20 04 2013  15 56  -21.0857 26075.5 -03425.7 -07.4844 26299.6
 20 04 2013  15 57  -21.0855 26075.3 -03425.6 -07.4842 26299.3
 20 04 2013  15 58  -21.0857 26075.3 -03425.5 -07.4841 26299.3
 20 04 2013  15 59  -21.0860 26075.3 -03425.5 -07.4840 26299.4
 20 04 2013  16 00  -21.0861 26075.4 -03425.4 -07.4838 26299.4
 20 04 2013  16 01  -21.0863 26075.5 -03425.3 -07.4837 26299.5
 20 04 2013  16 02  -21.0864 26075.5 -03425.2 -07.4833 26299.5
 20 04 2013  16 03  -21.0865 26075.4 -03425.0 -07.4830 26299.3
 20 04 2013  16 04  -21.0864 26075.3 -03424.8 -07.4826 26299.2
 20 04 2013  16 05  -21.0863 26075.0 -03424.7 -07.4823 26299.0
 20 04 2013  16 06  -21.0861 26074.8 -03424.5 -07.4819 26298.7
 20 04 2013  16 07  -21.0859 26074.6 -03424.3 -07.4816 26298.5
 20 04 2013  16 08  -21.0860 26074.5 -03424.2 -07.4815 26298.4
 20 04 2013  16 09  -21.0859 26074.3 -03424.0 -07.4811 26298.2
 20 04 2013  16 10  -21.0859 26074.2 -03423.9 -07.4809 26298.0
 20 04 2013  16 11  -21.0856 26073.9 -03423.7 -07.4805 26297.7
 20 04 2013  16 12  -21.0854 26073.6 -03423.5 -07.4802 26297.4
 20 04 2013  16 13  -21.0850 26073.1 -03423.3 -07.4799 26296.9
 20 04 2013  16 14  -21.0848 26072.8 -03423.2 -07.4797 26296.6
 20 04 2013  16 15  -21.0848 26072.6 -03423.1 -07.4796 26296.4
 20 04 2013  16 16  -21.0848 26072.4 -03423.0 -07.4794 26296.2
 20 04 2013  16 17  -21.0848 26072.4 -03422.9 -07.4793 26296.1
 20 04 2013  16 18  -21.0846 26072.3 -03422.8 -07.4790 26296.0
 20 04 2013  16 19  -21.0844 26072.1 -03422.6 -07.4787 26295.8
 20 04 2013  16 20  -21.0838 26071.8 -03422.4 -07.4783 26295.4
 20 04 2013  16 21  -21.0832 26071.2 -03422.1 -07.4779 26294.8
 20 04 2013  16 22  -21.0828 26070.7 -03422.0 -07.4777 26294.3
 20 04 2013  16 23  -21.0824 26070.5 -03421.9 -07.4776 26294.1
 20 04 2013  16 24  -21.0822 26070.2 -03421.8 -07.4776 26293.8
 20 04 2013  16 25  -21.0820 26069.9 -03421.7 -07.4774 26293.5
 20 04 2013  16 26  -21.0815 26069.5 -03421.5 -07.4771 26293.0
 20 04 2013  16 27  -21.0812 26069.2 -03421.3 -07.4768 26292.7
 20 04 2013  16 28  -21.0809 26068.8 -03421.3 -07.4768 26292.4
 20 04 2013  16 29  -21.0807 26068.6 -03421.3 -07.4768 26292.1
 20 04 2013  16 30  -21.0804 26068.3 -03421.2 -07.4767 26291.8
 20 04 2013  16 31  -21.0802 26068.0 -03421.1 -07.4767 26291.5
 20 04 2013  16 32  -21.0797 26067.8 -03421.0 -07.4765 26291.3
 20 04 2013  16 33  -21.0794 26067.6 -03421.0 -07.4764 26291.1
 20 04 2013  16 34  -21.0792 26067.6 -03421.0 -07.4765 26291.1
 20 04 2013  16 35  -21.0787 26067.3 -03420.8 -07.4761 26290.8
 20 04 2013  16 36  -21.0782 26067.1 -03420.7 -07.4760 26290.5
 20 04 2013  16 37  -21.0776 26066.6 -03420.5 -07.4756 26290.1
 20 04 2013  16 38  -21.0772 26066.2 -03420.3 -07.4753 26289.7
 20 04 2013  16 39  -21.0767 26066.0 -03420.1 -07.4751 26289.4
 20 04 2013  16 40  -21.0761 26065.6 -03420.0 -07.4748 26289.0
 20 04 2013  16 41  -21.0755 26065.3 -03419.9 -07.4748 26288.7
 20 04 2013  16 42  -21.0753 26065.3 -03419.9 -07.4748 26288.7
 20 04 2013  16 43  -21.0749 26065.1 -03419.9 -07.4747 26288.5
 20 04 2013  16 44  -21.0744 26065.2 -03419.9 -07.4747 26288.6
 20 04 2013  16 45  -21.0740 26064.8 -03419.7 -07.4745 26288.2
 20 04 2013  16 46  -21.0737 26064.7 -03419.7 -07.4745 26288.1
 20 04 2013  16 47  -21.0732 26064.5 -03419.7 -07.4745 26287.9
 20 04 2013  16 48  -21.0723 26064.2 -03419.6 -07.4743 26287.6
 20 04 2013  16 49  -21.0718 26064.2 -03419.6 -07.4745 26287.6
 20 04 2013  16 50  -21.0713 26064.3 -03419.8 -07.4748 26287.7
 20 04 2013  16 51  -21.0707 26064.4 -03419.8 -07.4748 26287.7
 20 04 2013  16 52  -21.0703 26064.4 -03419.8 -07.4749 26287.8
 20 04 2013  16 53  -21.0694 26064.1 -03419.7 -07.4747 26287.4
 20 04 2013  16 54  -21.0686 26063.9 -03419.7 -07.4748 26287.3
 20 04 2013  16 55  -21.0678 26063.7 -03419.8 -07.4749 26287.1
 20 04 2013  16 56  -21.0673 26063.8 -03419.9 -07.4751 26287.2
 20 04 2013  16 57  -21.0665 26063.7 -03420.0 -07.4753 26287.1
 20 04 2013  16 58  -21.0658 26063.5 -03420.0 -07.4754 26287.0
 20 04 2013  16 59  -21.0654 26063.6 -03420.1 -07.4757 26287.0
 20 04 2013  17 00  -21.0650 26063.5 -03420.1 -07.4758 26287.0
 20 04 2013  17 01  -21.0645 26063.4 -03420.2 -07.4759 26286.9
 20 04 2013  17 02  -21.0639 26063.2 -03420.1 -07.4759 26286.6
 20 04 2013  17 03  -21.0632 26063.0 -03420.2 -07.4760 26286.4
 20 04 2013  17 04  -21.0626 26062.8 -03420.2 -07.4762 26286.2
 20 04 2013  17 05  -21.0621 26062.7 -03420.3 -07.4765 26286.2
 20 04 2013  17 06  -21.0616 26062.6 -03420.4 -07.4767 26286.1
 20 04 2013  17 07  -21.0612 26062.6 -03420.5 -07.4769 26286.1
 20 04 2013  17 08  -21.0611 26062.7 -03420.7 -07.4772 26286.2
 20 04 2013  17 09  -21.0608 26062.7 -03420.7 -07.4773 26286.3
 20 04 2013  17 10  -21.0603 26062.5 -03420.7 -07.4772 26286.0
 20 04 2013  17 11  -21.0599 26062.3 -03420.7 -07.4773 26285.8
 20 04 2013  17 12  -21.0597 26062.3 -03420.8 -07.4775 26285.8
 20 04 2013  17 13  -21.0596 26062.4 -03420.9 -07.4778 26286.0
 20 04 2013  17 14  -21.0593 26062.3 -03420.9 -07.4779 26285.9
 20 04 2013  17 15  -21.0591 26062.3 -03421.0 -07.4780 26285.9
 20 04 2013  17 16  -21.0588 26062.3 -03421.1 -07.4782 26285.8
 20 04 2013  17 17  -21.0587 26062.2 -03421.1 -07.4784 26285.8
 20 04 2013  17 18  -21.0584 26062.1 -03421.2 -07.4785 26285.7
 20 04 2013  17 19  -21.0581 26061.9 -03421.2 -07.4786 26285.5
 20 04 2013  17 20  -21.0578 26061.8 -03421.3 -07.4788 26285.5
 20 04 2013  17 21  -21.0579 26061.9 -03421.5 -07.4792 26285.6
 20 04 2013  17 22  -21.0578 26062.0 -03421.6 -07.4793 26285.7
 20 04 2013  17 23  -21.0576 26061.9 -03421.6 -07.4794 26285.5
 20 04 2013  17 24  -21.0574 26061.8 -03421.6 -07.4796 26285.5
 20 04 2013  17 25  -21.0574 26061.7 -03421.7 -07.4797 26285.3
 20 04 2013  17 26  -21.0574 26061.5 -03421.7 -07.4798 26285.2
 20 04 2013  17 27  -21.0572 26061.3 -03421.7 -07.4799 26284.9
 20 04 2013  17 28  -21.0573 26061.1 -03421.8 -07.4800 26284.8
 20 04 2013  17 29  -21.0575 26061.1 -03421.9 -07.4803 26284.8
 20 04 2013  17 30  -21.0576 26061.1 -03421.9 -07.4804 26284.8
 20 04 2013  17 31  -21.0575 26060.9 -03422.0 -07.4805 26284.6
 20 04 2013  17 32  -21.0575 26060.8 -03422.1 -07.4808 26284.5
 20 04 2013  17 33  -21.0575 26060.7 -03422.1 -07.4809 26284.4
 20 04 2013  17 34  -21.0576 26060.6 -03422.2 -07.4810 26284.3
 20 04 2013  17 35  -21.0579 26060.6 -03422.2 -07.4811 26284.3
 20 04 2013  17 36  -21.0579 26060.5 -03422.2 -07.4811 26284.2
 20 04 2013  17 37  -21.0581 26060.3 -03422.1 -07.4810 26284.0
 20 04 2013  17 38  -21.0581 26060.3 -03422.1 -07.4810 26284.0
 20 04 2013  17 39  -21.0583 26060.4 -03422.2 -07.4812 26284.1
 20 04 2013  17 40  -21.0584 26060.4 -03422.3 -07.4813 26284.1
 20 04 2013  17 41  -21.0584 26060.3 -03422.3 -07.4813 26284.0
 20 04 2013  17 42  -21.0582 26060.2 -03422.3 -07.4813 26284.0
 20 04 2013  17 43  -21.0583 26060.1 -03422.3 -07.4814 26283.8
 20 04 2013  17 44  -21.0583 26060.0 -03422.3 -07.4814 26283.8
 20 04 2013  17 45  -21.0582 26059.8 -03422.2 -07.4813 26283.5
 20 04 2013  17 46  -21.0578 26059.4 -03422.1 -07.4812 26283.1
 20 04 2013  17 47  -21.0577 26059.2 -03422.1 -07.4812 26283.0
 20 04 2013  17 48  -21.0577 26059.1 -03422.2 -07.4814 26282.9
 20 04 2013  17 49  -21.0577 26059.1 -03422.2 -07.4816 26282.9
 20 04 2013  17 50  -21.0576 26059.1 -03422.3 -07.4817 26282.8
 20 04 2013  17 51  -21.0577 26059.1 -03422.3 -07.4818 26282.8
 20 04 2013  17 52  -21.0577 26058.9 -03422.3 -07.4817 26282.7
 20 04 2013  17 53  -21.0573 26058.6 -03422.2 -07.4817 26282.4
 20 04 2013  17 54  -21.0573 26058.5 -03422.2 -07.4818 26282.3
 20 04 2013  17 55  -21.0573 26058.4 -03422.3 -07.4818 26282.2
 20 04 2013  17 56  -21.0572 26058.1 -03422.2 -07.4818 26281.9
 20 04 2013  17 57  -21.0571 26058.0 -03422.3 -07.4819 26281.8
 20 04 2013  17 58  -21.0570 26058.0 -03422.3 -07.4821 26281.8
 20 04 2013  17 59  -21.0568 26057.8 -03422.3 -07.4822 26281.6
 20 04 2013  18 00  -21.0567 26057.7 -03422.3 -07.4822 26281.5
 20 04 2013  18 01  -21.0567 26057.7 -03422.4 -07.4824 26281.5
 20 04 2013  18 02  -21.0568 26057.7 -03422.5 -07.4825 26281.5
 20 04 2013  18 03  -21.0567 26057.5 -03422.5 -07.4825 26281.3
 20 04 2013  18 04  -21.0565 26057.4 -03422.4 -07.4824 26281.2
 20 04 2013  18 05  -21.0563 26057.3 -03422.4 -07.4824 26281.1
 20 04 2013  18 06  -21.0562 26057.2 -03422.4 -07.4824 26281.0
 20 04 2013  18 07  -21.0561 26057.0 -03422.3 -07.4824 26280.8
 20 04 2013  18 08  -21.0558 26056.8 -03422.3 -07.4824 26280.6
 20 04 2013  18 09  -21.0554 26056.6 -03422.3 -07.4824 26280.4
 20 04 2013  18 10  -21.0550 26056.4 -03422.3 -07.4824 26280.2
 20 04 2013  18 11  -21.0548 26056.2 -03422.3 -07.4825 26280.0
 20 04 2013  18 12  -21.0546 26056.1 -03422.3 -07.4825 26279.9
 20 04 2013  18 13  -21.0545 26056.0 -03422.3 -07.4826 26279.8
 20 04 2013  18 14  -21.0543 26055.9 -03422.3 -07.4825 26279.7
 20 04 2013  18 15  -21.0540 26055.7 -03422.2 -07.4825 26279.5
 20 04 2013  18 16  -21.0536 26055.6 -03422.2 -07.4826 26279.4
 20 04 2013  18 17  -21.0533 26055.4 -03422.2 -07.4826 26279.2
 20 04 2013  18 18  -21.0529 26055.2 -03422.3 -07.4828 26279.0
 20 04 2013  18 19  -21.0524 26055.1 -03422.3 -07.4829 26278.9
 20 04 2013  18 20  -21.0520 26055.0 -03422.4 -07.4831 26278.8
 20 04 2013  18 21  -21.0518 26054.9 -03422.4 -07.4832 26278.7
 20 04 2013  18 22  -21.0516 26054.9 -03422.5 -07.4833 26278.8
 20 04 2013  18 23  -21.0514 26054.8 -03422.4 -07.4833 26278.6
 20 04 2013  18 24  -21.0509 26054.5 -03422.4 -07.4832 26278.4
 20 04 2013  18 25  -21.0506 26054.5 -03422.5 -07.4834 26278.3
 20 04 2013  18 26  -21.0503 26054.4 -03422.5 -07.4836 26278.2
 20 04 2013  18 27  -21.0500 26054.2 -03422.6 -07.4837 26278.1
 20 04 2013  18 28  -21.0497 26054.1 -03422.6 -07.4839 26277.9
 20 04 2013  18 29  -21.0494 26054.0 -03422.7 -07.4841 26277.9
 20 04 2013  18 30  -21.0492 26053.8 -03422.7 -07.4842 26277.6
 20 04 2013  18 31  -21.0488 26053.5 -03422.7 -07.4842 26277.4
 20 04 2013  18 32  -21.0486 26053.5 -03422.8 -07.4845 26277.4
 20 04 2013  18 33  -21.0485 26053.5 -03422.9 -07.4847 26277.4
 20 04 2013  18 34  -21.0482 26053.4 -03423.0 -07.4849 26277.3
 20 04 2013  18 35  -21.0479 26053.3 -03423.2 -07.4852 26277.2
 20 04 2013  18 36  -21.0478 26053.3 -03423.3 -07.4855 26277.2
 20 04 2013  18 37  -21.0477 26053.2 -03423.4 -07.4857 26277.2
 20 04 2013  18 38  -21.0476 26053.2 -03423.4 -07.4858 26277.1
 20 04 2013  18 39  -21.0474 26053.0 -03423.4 -07.4859 26277.0
 20 04 2013  18 40  -21.0473 26052.8 -03423.5 -07.4861 26276.8
 20 04 2013  18 41  -21.0472 26052.8 -03423.6 -07.4864 26276.8
 20 04 2013  18 42  -21.0470 26052.7 -03423.7 -07.4866 26276.7
 20 04 2013  18 43  -21.0468 26052.5 -03423.7 -07.4867 26276.5
 20 04 2013  18 44  -21.0468 26052.4 -03423.8 -07.4870 26276.4
 20 04 2013  18 45  -21.0466 26052.2 -03423.9 -07.4871 26276.2
 20 04 2013  18 46  -21.0462 26052.0 -03423.9 -07.4872 26276.1
 20 04 2013  18 47  -21.0460 26051.9 -03424.0 -07.4874 26275.9
 20 04 2013  18 48  -21.0459 26051.8 -03424.1 -07.4877 26275.9
 20 04 2013  18 49  -21.0457 26051.8 -03424.2 -07.4880 26275.9
 20 04 2013  18 50  -21.0455 26051.8 -03424.3 -07.4882 26275.8
 20 04 2013  18 51  -21.0453 26051.8 -03424.4 -07.4884 26275.9
 20 04 2013  18 52  -21.0453 26051.6 -03424.4 -07.4885 26275.8
 20 04 2013  18 53  -21.0449 26051.3 -03424.4 -07.4885 26275.4
 20 04 2013  18 54  -21.0448 26051.1 -03424.4 -07.4886 26275.2
 20 04 2013  18 55  -21.0446 26051.0 -03424.5 -07.4887 26275.2
 20 04 2013  18 56  -21.0444 26051.0 -03424.5 -07.4889 26275.1
 20 04 2013  18 57  -21.0441 26050.9 -03424.6 -07.4891 26275.0
 20 04 2013  18 58  -21.0440 26050.8 -03424.7 -07.4893 26275.0
 20 04 2013  18 59  -21.0438 26050.7 -03424.7 -07.4894 26274.8
 20 04 2013  19 00  -21.0437 26050.6 -03424.8 -07.4895 26274.8
 20 04 2013  19 01  -21.0435 26050.5 -03424.8 -07.4896 26274.7
 20 04 2013  19 02  -21.0433 26050.5 -03424.9 -07.4898 26274.7
 20 04 2013  19 03  -21.0432 26050.5 -03425.0 -07.4901 26274.7
 20 04 2013  19 04  -21.0430 26050.5 -03425.1 -07.4902 26274.7
 20 04 2013  19 05  -21.0429 26050.4 -03425.1 -07.4903 26274.6
 20 04 2013  19 06  -21.0427 26050.4 -03425.2 -07.4904 26274.6
 20 04 2013  19 07  -21.0424 26050.2 -03425.2 -07.4904 26274.4
 20 04 2013  19 08  -21.0421 26050.0 -03425.1 -07.4904 26274.2
 20 04 2013  19 09  -21.0419 26050.0 -03425.2 -07.4905 26274.2
 20 04 2013  19 10  -21.0417 26049.9 -03425.2 -07.4907 26274.1
 20 04 2013  19 11  -21.0414 26049.8 -03425.3 -07.4908 26274.0
 20 04 2013  19 12  -21.0411 26049.7 -03425.3 -07.4909 26273.9
 20 04 2013  19 13  -21.0408 26049.6 -03425.3 -07.4910 26273.8
 20 04 2013  19 14  -21.0406 26049.6 -03425.4 -07.4912 26273.8
 20 04 2013  19 15  -21.0404 26049.6 -03425.5 -07.4914 26273.8
 20 04 2013  19 16  -21.0402 26049.5 -03425.6 -07.4916 26273.8
 20 04 2013  19 17  -21.0401 26049.4 -03425.6 -07.4917 26273.7
 20 04 2013  19 18  -21.0400 26049.3 -03425.6 -07.4917 26273.6
 20 04 2013  19 19  -21.0398 26049.2 -03425.7 -07.4918 26273.5
 20 04 2013  19 20  -21.0396 26049.1 -03425.7 -07.4920 26273.4
 20 04 2013  19 21  -21.0393 26049.0 -03425.8 -07.4921 26273.3
 20 04 2013  19 22  -21.0391 26048.9 -03425.8 -07.4923 26273.2
 20 04 2013  19 23  -21.0390 26049.0 -03426.0 -07.4925 26273.3
 20 04 2013  19 24  -21.0389 26048.9 -03426.0 -07.4927 26273.3
 20 04 2013  19 25  -21.0389 26048.9 -03426.1 -07.4928 26273.3
 20 04 2013  19 26  -21.0390 26048.9 -03426.1 -07.4929 26273.2
 20 04 2013  19 27  -21.0389 26048.9 -03426.1 -07.4929 26273.2
 20 04 2013  19 28  -21.0388 26048.8 -03426.1 -07.4930 26273.1
 20 04 2013  19 29  -21.0387 26048.7 -03426.1 -07.4930 26273.0
 20 04 2013  19 30  -21.0387 26048.5 -03426.2 -07.4931 26272.9
 20 04 2013  19 31  -21.0386 26048.4 -03426.2 -07.4931 26272.8
 20 04 2013  19 32  -21.0386 26048.4 -03426.2 -07.4933 26272.7
 20 04 2013  19 33  -21.0384 26048.3 -03426.2 -07.4933 26272.6
 20 04 2013  19 34  -21.0383 26048.2 -03426.3 -07.4934 26272.6
 20 04 2013  19 35  -21.0380 26048.2 -03426.3 -07.4934 26272.6
 20 04 2013  19 36  -21.0379 26048.2 -03426.3 -07.4936 26272.6
 20 04 2013  19 37  -21.0376 26048.1 -03426.3 -07.4936 26272.5
 20 04 2013  19 38  -21.0373 26048.0 -03426.3 -07.4935 26272.4
 20 04 2013  19 39  -21.0370 26047.9 -03426.3 -07.4935 26272.3
 20 04 2013  19 40  -21.0368 26047.9 -03426.3 -07.4936 26272.3
 20 04 2013  19 41  -21.0365 26047.9 -03426.3 -07.4937 26272.2
 20 04 2013  19 42  -21.0363 26047.9 -03426.4 -07.4938 26272.3
 20 04 2013  19 43  -21.0359 26047.8 -03426.4 -07.4938 26272.2
 20 04 2013  19 44  -21.0356 26047.7 -03426.4 -07.4939 26272.1
 20 04 2013  19 45  -21.0353 26047.7 -03426.5 -07.4940 26272.1
 20 04 2013  19 46  -21.0351 26047.7 -03426.5 -07.4941 26272.1
 20 04 2013  19 47  -21.0348 26047.7 -03426.6 -07.4942 26272.1
 20 04 2013  19 48  -21.0345 26047.6 -03426.6 -07.4942 26272.1
 20 04 2013  19 49  -21.0343 26047.6 -03426.6 -07.4943 26272.1
 20 04 2013  19 50  -21.0340 26047.6 -03426.7 -07.4945 26272.1
 20 04 2013  19 51  -21.0339 26047.6 -03426.7 -07.4946 26272.1
 20 04 2013  19 52  -21.0336 26047.6 -03426.8 -07.4947 26272.0
 20 04 2013  19 53  -21.0335 26047.6 -03426.8 -07.4948 26272.1
 20 04 2013  19 54  -21.0334 26047.6 -03426.9 -07.4949 26272.1
 20 04 2013  19 55  -21.0331 26047.5 -03426.9 -07.4949 26272.0
 20 04 2013  19 56  -21.0330 26047.5 -03426.9 -07.4950 26271.9
 20 04 2013  19 57  -21.0328 26047.5 -03426.9 -07.4951 26271.9
 20 04 2013  19 58  -21.0327 26047.4 -03427.0 -07.4951 26271.9
 20 04 2013  19 59  -21.0325 26047.4 -03427.0 -07.4952 26271.9
 20 04 2013  20 00  -21.0323 26047.4 -03427.0 -07.4953 26271.9
 20 04 2013  20 01  -21.0322 26047.5 -03427.1 -07.4954 26272.0
 20 04 2013  20 02  -21.0322 26047.6 -03427.2 -07.4955 26272.1
 20 04 2013  20 03  -21.0320 26047.7 -03427.3 -07.4957 26272.2
 20 04 2013  20 04  -21.0320 26047.8 -03427.3 -07.4958 26272.4
 20 04 2013  20 05  -21.0320 26047.9 -03427.4 -07.4958 26272.5
 20 04 2013  20 06  -21.0319 26048.1 -03427.4 -07.4959 26272.6
 20 04 2013  20 07  -21.0319 26048.2 -03427.5 -07.4960 26272.7
 20 04 2013  20 08  -21.0319 26048.3 -03427.5 -07.4960 26272.8
 20 04 2013  20 09  -21.0318 26048.3 -03427.5 -07.4960 26272.9
 20 04 2013  20 10  -21.0319 26048.4 -03427.5 -07.4959 26272.9
 20 04 2013  20 11  -21.0318 26048.4 -03427.4 -07.4958 26272.9
 20 04 2013  20 12  -21.0318 26048.4 -03427.4 -07.4957 26272.9
 20 04 2013  20 13  -21.0317 26048.4 -03427.3 -07.4957 26272.9
 20 04 2013  20 14  -21.0317 26048.3 -03427.3 -07.4956 26272.8
 20 04 2013  20 15  -21.0316 26048.2 -03427.2 -07.4955 26272.7
 20 04 2013  20 16  -21.0314 26048.1 -03427.2 -07.4955 26272.6
 20 04 2013  20 17  -21.0312 26048.1 -03427.2 -07.4955 26272.6
 20 04 2013  20 18  -21.0311 26048.0 -03427.2 -07.4955 26272.5
 20 04 2013  20 19  -21.0309 26048.0 -03427.2 -07.4956 26272.5
 20 04 2013  20 20  -21.0308 26048.0 -03427.3 -07.4958 26272.5
 20 04 2013  20 21  -21.0307 26048.1 -03427.5 -07.4960 26272.6
 20 04 2013  20 22  -21.0306 26048.2 -03427.5 -07.4962 26272.7
 20 04 2013  20 23  -21.0305 26048.3 -03427.7 -07.4964 26272.8
 20 04 2013  20 24  -21.0303 26048.4 -03427.7 -07.4965 26272.9
 20 04 2013  20 25  -21.0303 26048.5 -03427.8 -07.4967 26273.1
 20 04 2013  20 26  -21.0301 26048.5 -03427.9 -07.4969 26273.1
 20 04 2013  20 27  -21.0300 26048.5 -03428.0 -07.4970 26273.1
 20 04 2013  20 28  -21.0299 26048.5 -03428.0 -07.4971 26273.1
 20 04 2013  20 29  -21.0298 26048.6 -03428.1 -07.4972 26273.2
 20 04 2013  20 30  -21.0298 26048.6 -03428.2 -07.4974 26273.2
 20 04 2013  20 31  -21.0297 26048.6 -03428.2 -07.4975 26273.3
 20 04 2013  20 32  -21.0297 26048.7 -03428.3 -07.4977 26273.3
 20 04 2013  20 33  -21.0296 26048.7 -03428.4 -07.4978 26273.3
 20 04 2013  20 34  -21.0296 26048.7 -03428.4 -07.4979 26273.3
 20 04 2013  20 35  -21.0296 26048.7 -03428.5 -07.4980 26273.3
 20 04 2013  20 36  -21.0296 26048.7 -03428.5 -07.4981 26273.4
 20 04 2013  20 37  -21.0295 26048.7 -03428.6 -07.4982 26273.3
 20 04 2013  20 38  -21.0296 26048.6 -03428.6 -07.4984 26273.3
 20 04 2013  20 39  -21.0296 26048.5 -03428.6 -07.4985 26273.2
 20 04 2013  20 40  -21.0297 26048.5 -03428.7 -07.4986 26273.2
 20 04 2013  20 41  -21.0299 26048.5 -03428.8 -07.4987 26273.2
 20 04 2013  20 42  -21.0300 26048.5 -03428.8 -07.4988 26273.2
 20 04 2013  20 43  -21.0301 26048.5 -03428.9 -07.4989 26273.2
 20 04 2013  20 44  -21.0302 26048.4 -03428.9 -07.4991 26273.1
 20 04 2013  20 45  -21.0305 26048.3 -03428.9 -07.4992 26273.0
 20 04 2013  20 46  -21.0307 26048.3 -03429.0 -07.4993 26273.0
 20 04 2013  20 47  -21.0308 26048.3 -03429.0 -07.4994 26273.0
 20 04 2013  20 48  -21.0310 26048.2 -03429.1 -07.4995 26272.9
 20 04 2013  20 49  -21.0313 26048.2 -03429.1 -07.4996 26272.9
 20 04 2013  20 50  -21.0315 26048.1 -03429.1 -07.4996 26272.8
 20 04 2013  20 51  -21.0318 26048.0 -03429.2 -07.4998 26272.8
 20 04 2013  20 52  -21.0320 26047.9 -03429.2 -07.4999 26272.7
 20 04 2013  20 53  -21.0324 26047.9 -03429.3 -07.5000 26272.7
 20 04 2013  20 54  -21.0326 26047.9 -03429.3 -07.5001 26272.7
 20 04 2013  20 55  -21.0328 26047.9 -03429.3 -07.5001 26272.6
 20 04 2013  20 56  -21.0328 26047.8 -03429.4 -07.5002 26272.6
 20 04 2013  20 57  -21.0329 26047.8 -03429.4 -07.5003 26272.6
 20 04 2013  20 58  -21.0329 26047.8 -03429.5 -07.5004 26272.6
 20 04 2013  20 59  -21.0330 26048.0 -03429.6 -07.5006 26272.8
 20 04 2013  21 00  -21.0330 26048.0 -03429.6 -07.5008 26272.9
 20 04 2013  21 01  -21.0331 26048.1 -03429.8 -07.5010 26273.0
 20 04 2013  21 02  -21.0332 26048.2 -03429.8 -07.5011 26273.0
 20 04 2013  21 03  -21.0334 26048.4 -03429.9 -07.5013 26273.2
 20 04 2013  21 04  -21.0335 26048.5 -03430.1 -07.5015 26273.4
 20 04 2013  21 05  -21.0336 26048.7 -03430.2 -07.5018 26273.6
 20 04 2013  21 06  -21.0336 26049.0 -03430.3 -07.5020 26273.9
 20 04 2013  21 07  -21.0337 26049.2 -03430.5 -07.5022 26274.1
 20 04 2013  21 08  -21.0337 26049.5 -03430.6 -07.5025 26274.4
 20 04 2013  21 09  -21.0337 26049.7 -03430.7 -07.5026 26274.6
 20 04 2013  21 10  -21.0338 26049.8 -03430.8 -07.5028 26274.7
 20 04 2013  21 11  -21.0340 26049.9 -03430.9 -07.5029 26274.9
 20 04 2013  21 12  -21.0342 26050.1 -03431.0 -07.5030 26275.1
 20 04 2013  21 13  -21.0344 26050.3 -03431.1 -07.5032 26275.2
 20 04 2013  21 14  -21.0345 26050.4 -03431.1 -07.5033 26275.4
 20 04 2013  21 15  -21.0345 26050.4 -03431.2 -07.5034 26275.4
 20 04 2013  21 16  -21.0344 26050.5 -03431.2 -07.5035 26275.5
 20 04 2013  21 17  -21.0344 26050.7 -03431.3 -07.5037 26275.7
 20 04 2013  21 18  -21.0344 26050.8 -03431.4 -07.5038 26275.9
 20 04 2013  21 19  -21.0343 26050.9 -03431.4 -07.5038 26275.9
 20 04 2013  21 20  -21.0342 26050.7 -03431.4 -07.5038 26275.8
 20 04 2013  21 21  -21.0340 26050.6 -03431.4 -07.5037 26275.7
 20 04 2013  21 22  -21.0338 26050.5 -03431.3 -07.5037 26275.5
 20 04 2013  21 23  -21.0335 26050.6 -03431.4 -07.5037 26275.6
 20 04 2013  21 24  -21.0334 26050.7 -03431.5 -07.5040 26275.8
 20 04 2013  21 25  -21.0331 26050.9 -03431.6 -07.5042 26276.0
 20 04 2013  21 26  -21.0328 26051.3 -03431.9 -07.5046 26276.3
 20 04 2013  21 27  -21.0325 26051.6 -03432.1 -07.5050 26276.7
 20 04 2013  21 28  -21.0324 26052.0 -03432.3 -07.5053 26277.1
 20 04 2013  21 29  -21.0323 26052.4 -03432.5 -07.5057 26277.6
 20 04 2013  21 30  -21.0320 26052.8 -03432.7 -07.5060 26278.0
 20 04 2013  21 31  -21.0319 26053.0 -03432.8 -07.5062 26278.2
 20 04 2013  21 32  -21.0319 26053.1 -03432.9 -07.5063 26278.3
 20 04 2013  21 33  -21.0321 26053.2 -03432.9 -07.5063 26278.3
 20 04 2013  21 34  -21.0323 26053.1 -03432.9 -07.5063 26278.3
 20 04 2013  21 35  -21.0323 26053.0 -03432.8 -07.5062 26278.2
 20 04 2013  21 36  -21.0324 26053.1 -03432.8 -07.5062 26278.2
 20 04 2013  21 37  -21.0324 26053.0 -03432.7 -07.5060 26278.1
 20 04 2013  21 38  -21.0323 26052.8 -03432.7 -07.5059 26278.0
 20 04 2013  21 39  -21.0322 26052.8 -03432.6 -07.5058 26277.9
 20 04 2013  21 40  -21.0321 26052.7 -03432.6 -07.5057 26277.8
 20 04 2013  21 41  -21.0320 26052.6 -03432.5 -07.5057 26277.8
 20 04 2013  21 42  -21.0320 26052.6 -03432.5 -07.5057 26277.7
 20 04 2013  21 43  -21.0320 26052.5 -03432.5 -07.5057 26277.7
 20 04 2013  21 44  -21.0321 26052.5 -03432.5 -07.5057 26277.7
 20 04 2013  21 45  -21.0321 26052.6 -03432.6 -07.5057 26277.7
 20 04 2013  21 46  -21.0322 26052.6 -03432.6 -07.5058 26277.8
 20 04 2013  21 47  -21.0321 26052.7 -03432.6 -07.5059 26277.9
 20 04 2013  21 48  -21.0321 26052.7 -03432.6 -07.5059 26277.9
 20 04 2013  21 49  -21.0321 26052.8 -03432.6 -07.5059 26278.0
 20 04 2013  21 50  -21.0321 26053.0 -03432.7 -07.5060 26278.1
 20 04 2013  21 51  -21.0319 26053.0 -03432.7 -07.5060 26278.2
 20 04 2013  21 52  -21.0317 26053.1 -03432.7 -07.5060 26278.2
 20 04 2013  21 53  -21.0314 26053.1 -03432.7 -07.5060 26278.3
 20 04 2013  21 54  -21.0311 26053.3 -03432.8 -07.5061 26278.5
 20 04 2013  21 55  -21.0308 26053.5 -03432.9 -07.5063 26278.7
 20 04 2013  21 56  -21.0307 26053.6 -03433.0 -07.5064 26278.9
 20 04 2013  21 57  -21.0307 26053.8 -03433.1 -07.5065 26279.0
 20 04 2013  21 58  -21.0308 26053.8 -03433.1 -07.5065 26279.0
 20 04 2013  21 59  -21.0310 26053.9 -03433.1 -07.5065 26279.1
 20 04 2013  22 00  -21.0312 26053.9 -03433.1 -07.5065 26279.1
 20 04 2013  22 01  -21.0313 26053.6 -03432.9 -07.5062 26278.8
 20 04 2013  22 02  -21.0315 26053.3 -03432.7 -07.5059 26278.5
 20 04 2013  22 03  -21.0317 26052.9 -03432.5 -07.5056 26278.1
 20 04 2013  22 04  -21.0319 26052.6 -03432.4 -07.5053 26277.7
 20 04 2013  22 05  -21.0321 26052.3 -03432.2 -07.5051 26277.4
 20 04 2013  22 06  -21.0323 26052.1 -03432.1 -07.5049 26277.2
 20 04 2013  22 07  -21.0326 26052.0 -03432.1 -07.5049 26277.1
 20 04 2013  22 08  -21.0327 26051.9 -03432.1 -07.5049 26277.0
 20 04 2013  22 09  -21.0327 26051.9 -03432.0 -07.5048 26277.0
 20 04 2013  22 10  -21.0327 26051.8 -03432.0 -07.5048 26276.9
 20 04 2013  22 11  -21.0328 26051.7 -03432.0 -07.5048 26276.8
 20 04 2013  22 12  -21.0329 26051.9 -03432.1 -07.5050 26277.0
 20 04 2013  22 13  -21.0329 26052.1 -03432.3 -07.5052 26277.2
 20 04 2013  22 14  -21.0327 26052.4 -03432.4 -07.5055 26277.6
 20 04 2013  22 15  -21.0327 26052.8 -03432.6 -07.5059 26278.0
 20 04 2013  22 16  -21.0325 26053.0 -03432.8 -07.5061 26278.2
 20 04 2013  22 17  -21.0325 26053.1 -03432.8 -07.5062 26278.3
 20 04 2013  22 18  -21.0325 26053.1 -03432.8 -07.5061 26278.2
 20 04 2013  22 19  -21.0326 26052.9 -03432.7 -07.5060 26278.1
 20 04 2013  22 20  -21.0328 26052.8 -03432.6 -07.5059 26278.0
 20 04 2013  22 21  -21.0328 26052.6 -03432.6 -07.5058 26277.8
 20 04 2013  22 22  -21.0329 26052.5 -03432.5 -07.5056 26277.6
 20 04 2013  22 23  -21.0331 26052.3 -03432.4 -07.5056 26277.5
 20 04 2013  22 24  -21.0332 26052.2 -03432.4 -07.5055 26277.3
 20 04 2013  22 25  -21.0333 26052.1 -03432.3 -07.5054 26277.2
 20 04 2013  22 26  -21.0332 26051.9 -03432.3 -07.5054 26277.0
 20 04 2013  22 27  -21.0333 26051.8 -03432.2 -07.5053 26277.0
 20 04 2013  22 28  -21.0333 26051.8 -03432.2 -07.5053 26276.9
 20 04 2013  22 29  -21.0334 26051.7 -03432.2 -07.5053 26276.8
 20 04 2013  22 30  -21.0336 26051.7 -03432.3 -07.5054 26276.8
 20 04 2013  22 31  -21.0338 26051.7 -03432.3 -07.5055 26276.8
 20 04 2013  22 32  -21.0339 26051.6 -03432.3 -07.5055 26276.8
 20 04 2013  22 33  -21.0338 26051.6 -03432.3 -07.5055 26276.8
 20 04 2013  22 34  -21.0340 26051.6 -03432.4 -07.5056 26276.8
 20 04 2013  22 35  -21.0340 26051.6 -03432.4 -07.5057 26276.7
 20 04 2013  22 36  -21.0341 26051.5 -03432.4 -07.5057 26276.7
 20 04 2013  22 37  -21.0343 26051.5 -03432.4 -07.5057 26276.7
 20 04 2013  22 38  -21.0346 26051.5 -03432.4 -07.5057 26276.7
 20 04 2013  22 39  -21.0347 26051.5 -03432.5 -07.5059 26276.7
 20 04 2013  22 40  -21.0349 26051.5 -03432.5 -07.5059 26276.7
 20 04 2013  22 41  -21.0349 26051.6 -03432.5 -07.5059 26276.7
 20 04 2013  22 42  -21.0350 26051.5 -03432.5 -07.5060 26276.7
 20 04 2013  22 43  -21.0350 26051.6 -03432.5 -07.5060 26276.8
 20 04 2013  22 44  -21.0350 26051.7 -03432.6 -07.5060 26276.8
 20 04 2013  22 45  -21.0349 26051.6 -03432.6 -07.5062 26276.8
 20 04 2013  22 46  -21.0349 26051.7 -03432.7 -07.5062 26276.8
 20 04 2013  22 47  -21.0350 26051.8 -03432.7 -07.5063 26277.0
 20 04 2013  22 48  -21.0351 26051.8 -03432.8 -07.5064 26277.0
 20 04 2013  22 49  -21.0352 26051.8 -03432.8 -07.5065 26277.0
 20 04 2013  22 50  -21.0353 26051.7 -03432.7 -07.5064 26276.9
 20 04 2013  22 51  -21.0354 26051.6 -03432.7 -07.5063 26276.8
 20 04 2013  22 52  -21.0354 26051.6 -03432.7 -07.5063 26276.8
 20 04 2013  22 53  -21.0355 26051.5 -03432.7 -07.5063 26276.7
 20 04 2013  22 54  -21.0355 26051.4 -03432.6 -07.5063 26276.6
 20 04 2013  22 55  -21.0355 26051.4 -03432.6 -07.5063 26276.6
 20 04 2013  22 56  -21.0354 26051.4 -03432.6 -07.5063 26276.5
 20 04 2013  22 57  -21.0354 26051.3 -03432.6 -07.5063 26276.5
 20 04 2013  22 58  -21.0353 26051.2 -03432.6 -07.5063 26276.4
 20 04 2013  22 59  -21.0353 26051.2 -03432.6 -07.5063 26276.4
 20 04 2013  23 00  -21.0354 26051.2 -03432.6 -07.5064 26276.3
 20 04 2013  23 01  -21.0355 26051.2 -03432.7 -07.5064 26276.3
 20 04 2013  23 02  -21.0356 26051.1 -03432.7 -07.5064 26276.3
 20 04 2013  23 03  -21.0358 26051.0 -03432.7 -07.5065 26276.2
 20 04 2013  23 04  -21.0359 26051.0 -03432.7 -07.5065 26276.2
 20 04 2013  23 05  -21.0360 26051.0 -03432.7 -07.5065 26276.1
 20 04 2013  23 06  -21.0362 26050.9 -03432.7 -07.5065 26276.1
 20 04 2013  23 07  -21.0364 26050.9 -03432.7 -07.5065 26276.0
 20 04 2013  23 08  -21.0364 26050.8 -03432.7 -07.5065 26276.0
 20 04 2013  23 09  -21.0364 26050.8 -03432.7 -07.5065 26276.0
 20 04 2013  23 10  -21.0364 26050.7 -03432.7 -07.5066 26275.9
 20 04 2013  23 11  -21.0365 26050.7 -03432.7 -07.5065 26275.9
 20 04 2013  23 12  -21.0364 26050.7 -03432.7 -07.5066 26275.9
 20 04 2013  23 13  -21.0364 26050.6 -03432.7 -07.5066 26275.8
 20 04 2013  23 14  -21.0364 26050.6 -03432.7 -07.5065 26275.8
 20 04 2013  23 15  -21.0364 26050.5 -03432.7 -07.5066 26275.7
 20 04 2013  23 16  -21.0365 26050.5 -03432.7 -07.5066 26275.7
 20 04 2013  23 17  -21.0365 26050.5 -03432.7 -07.5066 26275.6
 20 04 2013  23 18  -21.0364 26050.4 -03432.7 -07.5066 26275.6
 20 04 2013  23 19  -21.0365 26050.3 -03432.7 -07.5066 26275.5
 20 04 2013  23 20  -21.0365 26050.2 -03432.6 -07.5066 26275.4
 20 04 2013  23 21  -21.0366 26050.2 -03432.6 -07.5066 26275.3
 20 04 2013  23 22  -21.0366 26050.1 -03432.6 -07.5065 26275.3
 20 04 2013  23 23  -21.0365 26050.1 -03432.6 -07.5066 26275.3
 20 04 2013  23 24  -21.0366 26050.1 -03432.6 -07.5067 26275.3
 20 04 2013  23 25  -21.0366 26050.0 -03432.6 -07.5066 26275.2
 20 04 2013  23 26  -21.0366 26050.0 -03432.6 -07.5066 26275.2
 20 04 2013  23 27  -21.0366 26049.9 -03432.6 -07.5066 26275.1
 20 04 2013  23 28  -21.0367 26049.8 -03432.6 -07.5066 26275.0
 20 04 2013  23 29  -21.0367 26049.7 -03432.6 -07.5066 26274.9
 20 04 2013  23 30  -21.0365 26049.7 -03432.5 -07.5065 26274.8
 20 04 2013  23 31  -21.0365 26049.6 -03432.5 -07.5065 26274.8
 20 04 2013  23 32  -21.0365 26049.5 -03432.5 -07.5065 26274.7
 20 04 2013  23 33  -21.0365 26049.4 -03432.5 -07.5066 26274.6
 20 04 2013  23 34  -21.0366 26049.4 -03432.6 -07.5067 26274.6
 20 04 2013  23 35  -21.0366 26049.5 -03432.6 -07.5068 26274.7
 20 04 2013  23 36  -21.0365 26049.6 -03432.7 -07.5069 26274.8
 20 04 2013  23 37  -21.0365 26049.5 -03432.7 -07.5070 26274.7
 20 04 2013  23 38  -21.0368 26049.3 -03432.6 -07.5068 26274.5
 20 04 2013  23 39  -21.0366 26049.5 -03432.7 -07.5070 26274.7
 20 04 2013  23 40  -21.0365 26049.6 -03432.8 -07.5071 26274.8
 20 04 2013  23 41  -21.0364 26049.6 -03432.8 -07.5072 26274.8
 20 04 2013  23 42  -21.0364 26049.4 -03432.8 -07.5072 26274.7
 20 04 2013  23 43  -21.0366 26049.3 -03432.8 -07.5071 26274.5
 20 04 2013  23 44  -21.0365 26049.3 -03432.7 -07.5071 26274.5
 20 04 2013  23 45  -21.0364 26049.4 -03432.8 -07.5072 26274.7
 20 04 2013  23 46  -21.0363 26049.4 -03432.8 -07.5073 26274.7
 20 04 2013  23 47  -21.0362 26049.3 -03432.8 -07.5072 26274.5
 20 04 2013  23 48  -21.0363 26049.1 -03432.7 -07.5072 26274.3
 20 04 2013  23 49  -21.0365 26048.9 -03432.7 -07.5071 26274.1
 20 04 2013  23 50  -21.0365 26048.7 -03432.6 -07.5070 26273.9
 20 04 2013  23 51  -21.0365 26048.6 -03432.6 -07.5070 26273.8
 20 04 2013  23 52  -21.0365 26048.5 -03432.6 -07.5069 26273.7
 20 04 2013  23 53  -21.0365 26048.5 -03432.6 -07.5069 26273.6
 20 04 2013  23 54  -21.0364 26048.5 -03432.6 -07.5070 26273.7
 20 04 2013  23 55  -21.0363 26048.6 -03432.7 -07.5072 26273.8
 20 04 2013  23 56  -21.0362 26048.7 -03432.8 -07.5074 26274.0
 20 04 2013  23 57  -21.0363 26048.5 -03432.7 -07.5073 26273.8
