SAO LUIS EMBRACE-03 <329> 1 Min. Reported data

 DD MM YYYY  HH MM   D(Deg)  H(nT)   Z(nT)   I(Deg)   F(nT)

 25 11 2013  00 00  -21.0089 26021.9 -03510.2 -07.6824 26257.6
 25 11 2013  00 01  -21.0086 26021.9 -03510.1 -07.6823 26257.6
 25 11 2013  00 02  -21.0086 26021.8 -03510.1 -07.6824 26257.5
 25 11 2013  00 03  -21.0086 26021.8 -03510.1 -07.6824 26257.4
 25 11 2013  00 04  -21.0087 26021.8 -03510.2 -07.6825 26257.5
 25 11 2013  00 05  -21.0087 26022.0 -03510.3 -07.6827 26257.7
 25 11 2013  00 06  -21.0088 26022.0 -03510.4 -07.6829 26257.7
 25 11 2013  00 07  -21.0090 26022.0 -03510.4 -07.6829 26257.7
 25 11 2013  00 08  -21.0089 26022.0 -03510.4 -07.6829 26257.7
 25 11 2013  00 09  -21.0089 26022.0 -03510.4 -07.6830 26257.7
 25 11 2013  00 10  -21.0090 26022.0 -03510.5 -07.6831 26257.7
 25 11 2013  00 11  -21.0089 26022.0 -03510.5 -07.6830 26257.7
 25 11 2013  00 12  -21.0088 26022.0 -03510.5 -07.6831 26257.7
 25 11 2013  00 13  -21.0089 26022.0 -03510.5 -07.6832 26257.7
 25 11 2013  00 14  -21.0087 26022.0 -03510.5 -07.6832 26257.7
 25 11 2013  00 15  -21.0086 26022.0 -03510.5 -07.6832 26257.7
 25 11 2013  00 16  -21.0084 26021.9 -03510.5 -07.6832 26257.6
 25 11 2013  00 17  -21.0083 26021.9 -03510.6 -07.6833 26257.6
 25 11 2013  00 18  -21.0082 26021.9 -03510.6 -07.6833 26257.6
 25 11 2013  00 19  -21.0081 26021.9 -03510.6 -07.6833 26257.6
 25 11 2013  00 20  -21.0081 26021.9 -03510.6 -07.6834 26257.6
 25 11 2013  00 21  -21.0080 26021.9 -03510.6 -07.6834 26257.6
 25 11 2013  00 22  -21.0079 26021.9 -03510.6 -07.6834 26257.6
 25 11 2013  00 23  -21.0079 26021.9 -03510.7 -07.6835 26257.6
 25 11 2013  00 24  -21.0078 26021.8 -03510.7 -07.6835 26257.6
 25 11 2013  00 25  -21.0078 26021.8 -03510.7 -07.6836 26257.6
 25 11 2013  00 26  -21.0076 26021.8 -03510.7 -07.6837 26257.6
 25 11 2013  00 27  -21.0075 26021.8 -03510.7 -07.6837 26257.6
 25 11 2013  00 28  -21.0075 26021.9 -03510.8 -07.6838 26257.6
 25 11 2013  00 29  -21.0075 26021.9 -03510.9 -07.6839 26257.7
 25 11 2013  00 30  -21.0072 26021.9 -03510.8 -07.6839 26257.7
 25 11 2013  00 31  -21.0071 26021.9 -03510.9 -07.6839 26257.7
 25 11 2013  00 32  -21.0070 26021.9 -03510.9 -07.6839 26257.7
 25 11 2013  00 33  -21.0070 26022.0 -03510.9 -07.6840 26257.8
 25 11 2013  00 34  -21.0071 26021.9 -03510.9 -07.6840 26257.7
 25 11 2013  00 35  -21.0071 26021.9 -03510.9 -07.6840 26257.7
 25 11 2013  00 36  -21.0071 26021.8 -03510.9 -07.6840 26257.6
 25 11 2013  00 37  -21.0071 26021.8 -03510.9 -07.6840 26257.6
 25 11 2013  00 38  -21.0073 26021.8 -03510.9 -07.6840 26257.5
 25 11 2013  00 39  -21.0073 26021.7 -03510.8 -07.6839 26257.4
 25 11 2013  00 40  -21.0073 26021.6 -03510.8 -07.6838 26257.4
 25 11 2013  00 41  -21.0073 26021.6 -03510.8 -07.6838 26257.3
 25 11 2013  00 42  -21.0073 26021.6 -03510.8 -07.6838 26257.3
 25 11 2013  00 43  -21.0074 26021.6 -03510.8 -07.6839 26257.3
 25 11 2013  00 44  -21.0075 26021.6 -03510.8 -07.6839 26257.4
 25 11 2013  00 45  -21.0076 26021.7 -03510.9 -07.6840 26257.4
 25 11 2013  00 46  -21.0078 26021.7 -03510.9 -07.6840 26257.4
 25 11 2013  00 47  -21.0079 26021.7 -03510.9 -07.6841 26257.4
 25 11 2013  00 48  -21.0080 26021.6 -03510.9 -07.6840 26257.4
 25 11 2013  00 49  -21.0081 26021.6 -03510.9 -07.6840 26257.4
 25 11 2013  00 50  -21.0083 26021.5 -03510.8 -07.6839 26257.3
 25 11 2013  00 51  -21.0084 26021.5 -03510.8 -07.6838 26257.3
 25 11 2013  00 52  -21.0085 26021.5 -03510.8 -07.6838 26257.2
 25 11 2013  00 53  -21.0087 26021.5 -03510.8 -07.6839 26257.2
 25 11 2013  00 54  -21.0088 26021.5 -03510.8 -07.6839 26257.2
 25 11 2013  00 55  -21.0088 26021.4 -03510.8 -07.6838 26257.2
 25 11 2013  00 56  -21.0090 26021.4 -03510.8 -07.6839 26257.2
 25 11 2013  00 57  -21.0091 26021.4 -03510.8 -07.6839 26257.2
 25 11 2013  00 58  -21.0091 26021.4 -03510.8 -07.6839 26257.2
 25 11 2013  00 59  -21.0092 26021.4 -03510.8 -07.6839 26257.2
 25 11 2013  01 00  -21.0093 26021.4 -03510.8 -07.6838 26257.1
 25 11 2013  01 01  -21.0093 26021.3 -03510.7 -07.6838 26257.1
 25 11 2013  01 02  -21.0093 26021.3 -03510.7 -07.6838 26257.1
 25 11 2013  01 03  -21.0091 26021.3 -03510.7 -07.6838 26257.1
 25 11 2013  01 04  -21.0091 26021.2 -03510.7 -07.6837 26257.0
 25 11 2013  01 05  -21.0092 26021.2 -03510.7 -07.6837 26256.9
 25 11 2013  01 06  -21.0093 26021.2 -03510.7 -07.6837 26257.0
 25 11 2013  01 07  -21.0095 26021.2 -03510.7 -07.6838 26256.9
 25 11 2013  01 08  -21.0095 26021.1 -03510.7 -07.6837 26256.9
 25 11 2013  01 09  -21.0097 26021.1 -03510.6 -07.6837 26256.8
 25 11 2013  01 10  -21.0099 26021.0 -03510.6 -07.6837 26256.8
 25 11 2013  01 11  -21.0098 26021.1 -03510.6 -07.6836 26256.8
 25 11 2013  01 12  -21.0098 26021.1 -03510.6 -07.6836 26256.9
 25 11 2013  01 13  -21.0100 26021.1 -03510.7 -07.6837 26256.9
 25 11 2013  01 14  -21.0102 26021.1 -03510.6 -07.6837 26256.8
 25 11 2013  01 15  -21.0102 26021.0 -03510.6 -07.6836 26256.7
 25 11 2013  01 16  -21.0102 26021.0 -03510.6 -07.6835 26256.7
 25 11 2013  01 17  -21.0103 26021.0 -03510.6 -07.6835 26256.7
 25 11 2013  01 18  -21.0103 26021.0 -03510.6 -07.6836 26256.7
 25 11 2013  01 19  -21.0104 26021.0 -03510.6 -07.6835 26256.7
 25 11 2013  01 20  -21.0106 26021.0 -03510.5 -07.6835 26256.7
 25 11 2013  01 21  -21.0108 26020.9 -03510.5 -07.6835 26256.6
 25 11 2013  01 22  -21.0108 26020.9 -03510.5 -07.6834 26256.7
 25 11 2013  01 23  -21.0109 26021.0 -03510.5 -07.6834 26256.7
 25 11 2013  01 24  -21.0110 26020.9 -03510.5 -07.6834 26256.7
 25 11 2013  01 25  -21.0112 26020.8 -03510.5 -07.6834 26256.6
 25 11 2013  01 26  -21.0113 26020.9 -03510.5 -07.6834 26256.6
 25 11 2013  01 27  -21.0114 26020.9 -03510.5 -07.6835 26256.6
 25 11 2013  01 28  -21.0115 26020.9 -03510.5 -07.6834 26256.6
 25 11 2013  01 29  -21.0115 26020.9 -03510.5 -07.6834 26256.7
 25 11 2013  01 30  -21.0115 26020.9 -03510.5 -07.6835 26256.7
 25 11 2013  01 31  -21.0115 26020.9 -03510.5 -07.6834 26256.6
 25 11 2013  01 32  -21.0115 26020.9 -03510.5 -07.6833 26256.6
 25 11 2013  01 33  -21.0116 26020.8 -03510.5 -07.6833 26256.6
 25 11 2013  01 34  -21.0117 26020.8 -03510.4 -07.6833 26256.5
 25 11 2013  01 35  -21.0117 26020.8 -03510.5 -07.6833 26256.5
 25 11 2013  01 36  -21.0118 26020.9 -03510.4 -07.6833 26256.6
 25 11 2013  01 37  -21.0118 26020.7 -03510.4 -07.6833 26256.5
 25 11 2013  01 38  -21.0119 26020.7 -03510.4 -07.6833 26256.5
 25 11 2013  01 39  -21.0121 26020.8 -03510.5 -07.6834 26256.5
 25 11 2013  01 40  -21.0120 26020.7 -03510.4 -07.6832 26256.4
 25 11 2013  01 41  -21.0121 26020.7 -03510.4 -07.6833 26256.4
 25 11 2013  01 42  -21.0120 26020.7 -03510.4 -07.6833 26256.5
 25 11 2013  01 43  -21.0120 26020.7 -03510.4 -07.6833 26256.4
 25 11 2013  01 44  -21.0120 26020.7 -03510.4 -07.6833 26256.4
 25 11 2013  01 45  -21.0120 26020.6 -03510.4 -07.6832 26256.3
 25 11 2013  01 46  -21.0119 26020.5 -03510.4 -07.6832 26256.3
 25 11 2013  01 47  -21.0118 26020.5 -03510.3 -07.6831 26256.2
 25 11 2013  01 48  -21.0119 26020.5 -03510.3 -07.6831 26256.2
 25 11 2013  01 49  -21.0119 26020.4 -03510.3 -07.6830 26256.1
 25 11 2013  01 50  -21.0121 26020.3 -03510.2 -07.6830 26256.0
 25 11 2013  01 51  -21.0122 26020.2 -03510.2 -07.6830 26255.9
 25 11 2013  01 52  -21.0123 26020.2 -03510.2 -07.6830 26255.9
 25 11 2013  01 53  -21.0126 26020.1 -03510.2 -07.6830 26255.8
 25 11 2013  01 54  -21.0128 26020.0 -03510.2 -07.6829 26255.7
 25 11 2013  01 55  -21.0129 26020.0 -03510.2 -07.6829 26255.7
 25 11 2013  01 56  -21.0130 26020.0 -03510.2 -07.6830 26255.7
 25 11 2013  01 57  -21.0130 26020.0 -03510.2 -07.6830 26255.7
 25 11 2013  01 58  -21.0131 26020.0 -03510.2 -07.6830 26255.7
 25 11 2013  01 59  -21.0132 26019.9 -03510.2 -07.6830 26255.6
 25 11 2013  02 00  -21.0133 26019.9 -03510.2 -07.6830 26255.6
 25 11 2013  02 01  -21.0135 26019.9 -03510.2 -07.6830 26255.6
 25 11 2013  02 02  -21.0138 26019.9 -03510.2 -07.6831 26255.6
 25 11 2013  02 03  -21.0140 26019.8 -03510.2 -07.6831 26255.5
 25 11 2013  02 04  -21.0141 26019.7 -03510.1 -07.6829 26255.4
 25 11 2013  02 05  -21.0143 26019.7 -03510.1 -07.6829 26255.4
 25 11 2013  02 06  -21.0144 26019.5 -03510.1 -07.6829 26255.2
 25 11 2013  02 07  -21.0145 26019.4 -03510.0 -07.6827 26255.1
 25 11 2013  02 08  -21.0147 26019.4 -03510.0 -07.6828 26255.0
 25 11 2013  02 09  -21.0149 26019.3 -03510.0 -07.6828 26255.0
 25 11 2013  02 10  -21.0151 26019.3 -03510.0 -07.6828 26255.0
 25 11 2013  02 11  -21.0154 26019.2 -03510.0 -07.6828 26254.9
 25 11 2013  02 12  -21.0157 26019.3 -03510.1 -07.6829 26255.0
 25 11 2013  02 13  -21.0158 26019.4 -03510.1 -07.6830 26255.1
 25 11 2013  02 14  -21.0160 26019.3 -03510.1 -07.6829 26255.0
 25 11 2013  02 15  -21.0161 26019.3 -03510.1 -07.6830 26255.0
 25 11 2013  02 16  -21.0162 26019.3 -03510.1 -07.6830 26254.9
 25 11 2013  02 17  -21.0162 26019.2 -03510.1 -07.6829 26254.9
 25 11 2013  02 18  -21.0161 26019.2 -03510.0 -07.6829 26254.9
 25 11 2013  02 19  -21.0161 26019.1 -03510.0 -07.6829 26254.8
 25 11 2013  02 20  -21.0161 26019.0 -03510.0 -07.6829 26254.7
 25 11 2013  02 21  -21.0162 26019.0 -03510.0 -07.6830 26254.7
 25 11 2013  02 22  -21.0161 26019.0 -03510.0 -07.6829 26254.7
 25 11 2013  02 23  -21.0162 26019.0 -03510.0 -07.6829 26254.7
 25 11 2013  02 24  -21.0163 26018.9 -03510.0 -07.6830 26254.6
 25 11 2013  02 25  -21.0164 26018.9 -03510.0 -07.6830 26254.6
 25 11 2013  02 26  -21.0163 26018.9 -03510.0 -07.6829 26254.6
 25 11 2013  02 27  -21.0162 26018.8 -03510.0 -07.6829 26254.5
 25 11 2013  02 28  -21.0162 26018.8 -03510.0 -07.6830 26254.5
 25 11 2013  02 29  -21.0163 26018.8 -03510.0 -07.6830 26254.5
 25 11 2013  02 30  -21.0162 26018.8 -03510.0 -07.6830 26254.4
 25 11 2013  02 31  -21.0162 26018.8 -03510.1 -07.6831 26254.5
 25 11 2013  02 32  -21.0162 26018.8 -03510.1 -07.6832 26254.5
 25 11 2013  02 33  -21.0163 26018.8 -03510.2 -07.6833 26254.5
 25 11 2013  02 34  -21.0162 26018.8 -03510.2 -07.6833 26254.6
 25 11 2013  02 35  -21.0162 26018.9 -03510.2 -07.6834 26254.6
 25 11 2013  02 36  -21.0161 26018.8 -03510.2 -07.6834 26254.5
 25 11 2013  02 37  -21.0160 26018.8 -03510.2 -07.6834 26254.5
 25 11 2013  02 38  -21.0160 26018.8 -03510.3 -07.6835 26254.5
 25 11 2013  02 39  -21.0159 26018.8 -03510.3 -07.6835 26254.5
 25 11 2013  02 40  -21.0160 26018.8 -03510.3 -07.6836 26254.5
 25 11 2013  02 41  -21.0160 26018.8 -03510.3 -07.6836 26254.5
 25 11 2013  02 42  -21.0161 26018.8 -03510.3 -07.6837 26254.5
 25 11 2013  02 43  -21.0161 26018.8 -03510.4 -07.6837 26254.6
 25 11 2013  02 44  -21.0162 26018.9 -03510.4 -07.6838 26254.6
 25 11 2013  02 45  -21.0161 26018.9 -03510.4 -07.6838 26254.6
 25 11 2013  02 46  -21.0161 26018.8 -03510.4 -07.6838 26254.6
 25 11 2013  02 47  -21.0160 26018.8 -03510.4 -07.6837 26254.6
 25 11 2013  02 48  -21.0159 26018.8 -03510.4 -07.6837 26254.6
 25 11 2013  02 49  -21.0158 26018.8 -03510.4 -07.6837 26254.5
 25 11 2013  02 50  -21.0158 26018.8 -03510.4 -07.6838 26254.5
 25 11 2013  02 51  -21.0158 26018.8 -03510.4 -07.6838 26254.5
 25 11 2013  02 52  -21.0158 26018.7 -03510.4 -07.6838 26254.4
 25 11 2013  02 53  -21.0158 26018.6 -03510.3 -07.6837 26254.4
 25 11 2013  02 54  -21.0156 26018.6 -03510.3 -07.6836 26254.3
 25 11 2013  02 55  -21.0155 26018.6 -03510.3 -07.6837 26254.3
 25 11 2013  02 56  -21.0155 26018.6 -03510.4 -07.6838 26254.3
 25 11 2013  02 57  -21.0156 26018.6 -03510.4 -07.6839 26254.4
 25 11 2013  02 58  -21.0157 26018.7 -03510.5 -07.6840 26254.4
 25 11 2013  02 59  -21.0160 26018.8 -03510.6 -07.6842 26254.5
 25 11 2013  03 00  -21.0162 26018.9 -03510.6 -07.6843 26254.6
 25 11 2013  03 01  -21.0166 26018.9 -03510.7 -07.6843 26254.7
 25 11 2013  03 02  -21.0170 26019.0 -03510.7 -07.6845 26254.7
 25 11 2013  03 03  -21.0172 26019.0 -03510.7 -07.6844 26254.8
 25 11 2013  03 04  -21.0171 26019.0 -03510.7 -07.6844 26254.7
 25 11 2013  03 05  -21.0173 26018.9 -03510.6 -07.6843 26254.7
 25 11 2013  03 06  -21.0174 26018.9 -03510.6 -07.6843 26254.7
 25 11 2013  03 07  -21.0176 26018.9 -03510.6 -07.6843 26254.7
 25 11 2013  03 08  -21.0178 26018.9 -03510.6 -07.6842 26254.7
 25 11 2013  03 09  -21.0179 26018.9 -03510.6 -07.6842 26254.6
 25 11 2013  03 10  -21.0179 26018.9 -03510.6 -07.6842 26254.6
 25 11 2013  03 11  -21.0178 26018.8 -03510.6 -07.6842 26254.6
 25 11 2013  03 12  -21.0180 26018.8 -03510.6 -07.6841 26254.6
 25 11 2013  03 13  -21.0180 26018.8 -03510.6 -07.6842 26254.6
 25 11 2013  03 14  -21.0180 26018.8 -03510.6 -07.6842 26254.6
 25 11 2013  03 15  -21.0182 26018.9 -03510.6 -07.6842 26254.6
 25 11 2013  03 16  -21.0183 26018.9 -03510.6 -07.6842 26254.7
 25 11 2013  03 17  -21.0183 26018.9 -03510.6 -07.6843 26254.7
 25 11 2013  03 18  -21.0183 26018.9 -03510.6 -07.6842 26254.7
 25 11 2013  03 19  -21.0184 26019.0 -03510.6 -07.6842 26254.7
 25 11 2013  03 20  -21.0185 26019.0 -03510.7 -07.6843 26254.8
 25 11 2013  03 21  -21.0185 26019.0 -03510.6 -07.6843 26254.8
 25 11 2013  03 22  -21.0186 26019.1 -03510.7 -07.6843 26254.8
 25 11 2013  03 23  -21.0186 26019.0 -03510.7 -07.6843 26254.8
 25 11 2013  03 24  -21.0188 26019.1 -03510.7 -07.6844 26254.8
 25 11 2013  03 25  -21.0188 26019.1 -03510.7 -07.6844 26254.9
 25 11 2013  03 26  -21.0188 26019.1 -03510.7 -07.6844 26254.9
 25 11 2013  03 27  -21.0190 26019.2 -03510.7 -07.6844 26255.0
 25 11 2013  03 28  -21.0191 26019.2 -03510.8 -07.6845 26255.0
 25 11 2013  03 29  -21.0190 26019.3 -03510.7 -07.6844 26255.1
 25 11 2013  03 30  -21.0192 26019.3 -03510.8 -07.6844 26255.1
 25 11 2013  03 31  -21.0193 26019.3 -03510.8 -07.6844 26255.1
 25 11 2013  03 32  -21.0194 26019.4 -03510.8 -07.6845 26255.2
 25 11 2013  03 33  -21.0195 26019.5 -03510.8 -07.6845 26255.3
 25 11 2013  03 34  -21.0195 26019.6 -03510.8 -07.6845 26255.4
 25 11 2013  03 35  -21.0194 26019.6 -03510.8 -07.6844 26255.4
 25 11 2013  03 36  -21.0193 26019.6 -03510.8 -07.6844 26255.4
 25 11 2013  03 37  -21.0193 26019.6 -03510.8 -07.6844 26255.4
 25 11 2013  03 38  -21.0192 26019.6 -03510.8 -07.6843 26255.4
 25 11 2013  03 39  -21.0191 26019.7 -03510.7 -07.6843 26255.4
 25 11 2013  03 40  -21.0190 26019.6 -03510.8 -07.6843 26255.4
 25 11 2013  03 41  -21.0187 26019.6 -03510.7 -07.6842 26255.4
 25 11 2013  03 42  -21.0186 26019.6 -03510.7 -07.6842 26255.3
 25 11 2013  03 43  -21.0184 26019.5 -03510.6 -07.6841 26255.3
 25 11 2013  03 44  -21.0182 26019.5 -03510.6 -07.6841 26255.2
 25 11 2013  03 45  -21.0181 26019.6 -03510.7 -07.6842 26255.4
 25 11 2013  03 46  -21.0179 26019.5 -03510.6 -07.6841 26255.3
 25 11 2013  03 47  -21.0180 26019.4 -03510.6 -07.6841 26255.2
 25 11 2013  03 48  -21.0181 26019.7 -03510.8 -07.6844 26255.5
 25 11 2013  03 49  -21.0182 26019.6 -03510.8 -07.6844 26255.4
 25 11 2013  03 50  -21.0183 26019.6 -03510.7 -07.6843 26255.4
 25 11 2013  03 51  -21.0183 26019.7 -03510.8 -07.6843 26255.5
 25 11 2013  03 52  -21.0183 26019.7 -03510.7 -07.6843 26255.4
 25 11 2013  03 53  -21.0184 26019.6 -03510.8 -07.6843 26255.4
 25 11 2013  03 54  -21.0183 26019.7 -03510.8 -07.6844 26255.5
 25 11 2013  03 55  -21.0184 26019.8 -03510.8 -07.6845 26255.5
 25 11 2013  03 56  -21.0184 26019.8 -03510.8 -07.6845 26255.6
 25 11 2013  03 57  -21.0185 26019.9 -03510.9 -07.6845 26255.7
 25 11 2013  03 58  -21.0184 26019.9 -03510.9 -07.6845 26255.7
 25 11 2013  03 59  -21.0185 26019.9 -03510.9 -07.6845 26255.7
 25 11 2013  04 00  -21.0184 26019.9 -03510.8 -07.6845 26255.7
 25 11 2013  04 01  -21.0183 26019.9 -03510.8 -07.6844 26255.7
 25 11 2013  04 02  -21.0181 26019.9 -03510.8 -07.6843 26255.6
 25 11 2013  04 03  -21.0180 26019.9 -03510.8 -07.6844 26255.7
 25 11 2013  04 04  -21.0179 26019.8 -03510.8 -07.6843 26255.6
 25 11 2013  04 05  -21.0177 26019.8 -03510.8 -07.6843 26255.6
 25 11 2013  04 06  -21.0175 26019.9 -03510.8 -07.6843 26255.7
 25 11 2013  04 07  -21.0173 26019.9 -03510.8 -07.6845 26255.7
 25 11 2013  04 08  -21.0171 26019.9 -03510.9 -07.6845 26255.7
 25 11 2013  04 09  -21.0170 26020.0 -03510.9 -07.6846 26255.8
 25 11 2013  04 10  -21.0168 26020.1 -03511.0 -07.6847 26255.9
 25 11 2013  04 11  -21.0166 26020.0 -03511.0 -07.6847 26255.8
 25 11 2013  04 12  -21.0164 26020.0 -03511.0 -07.6846 26255.8
 25 11 2013  04 13  -21.0162 26020.2 -03511.0 -07.6847 26256.0
 25 11 2013  04 14  -21.0160 26020.2 -03511.1 -07.6849 26256.0
 25 11 2013  04 15  -21.0156 26020.3 -03511.2 -07.6850 26256.1
 25 11 2013  04 16  -21.0155 26020.4 -03511.2 -07.6851 26256.2
 25 11 2013  04 17  -21.0153 26020.4 -03511.3 -07.6852 26256.3
 25 11 2013  04 18  -21.0153 26020.5 -03511.3 -07.6854 26256.4
 25 11 2013  04 19  -21.0153 26020.6 -03511.5 -07.6856 26256.5
 25 11 2013  04 20  -21.0153 26020.8 -03511.5 -07.6857 26256.6
 25 11 2013  04 21  -21.0152 26020.8 -03511.5 -07.6857 26256.7
 25 11 2013  04 22  -21.0153 26020.9 -03511.6 -07.6858 26256.7
 25 11 2013  04 23  -21.0154 26021.0 -03511.7 -07.6859 26256.8
 25 11 2013  04 24  -21.0155 26021.1 -03511.7 -07.6860 26257.0
 25 11 2013  04 25  -21.0156 26021.2 -03511.7 -07.6860 26257.0
 25 11 2013  04 26  -21.0158 26021.3 -03511.8 -07.6861 26257.2
 25 11 2013  04 27  -21.0160 26021.3 -03511.8 -07.6861 26257.3
 25 11 2013  04 28  -21.0163 26021.5 -03511.9 -07.6862 26257.4
 25 11 2013  04 29  -21.0163 26021.5 -03511.9 -07.6862 26257.4
 25 11 2013  04 30  -21.0162 26021.5 -03511.8 -07.6861 26257.4
 25 11 2013  04 31  -21.0159 26021.4 -03511.7 -07.6859 26257.3
 25 11 2013  04 32  -21.0158 26021.4 -03511.7 -07.6859 26257.3
 25 11 2013  04 33  -21.0156 26021.4 -03511.7 -07.6858 26257.3
 25 11 2013  04 34  -21.0155 26021.3 -03511.7 -07.6858 26257.2
 25 11 2013  04 35  -21.0154 26021.4 -03511.7 -07.6858 26257.3
 25 11 2013  04 36  -21.0152 26021.3 -03511.6 -07.6857 26257.2
 25 11 2013  04 37  -21.0151 26021.3 -03511.6 -07.6856 26257.2
 25 11 2013  04 38  -21.0151 26021.3 -03511.6 -07.6857 26257.2
 25 11 2013  04 39  -21.0150 26021.3 -03511.6 -07.6857 26257.2
 25 11 2013  04 40  -21.0150 26021.4 -03511.6 -07.6858 26257.2
 25 11 2013  04 41  -21.0149 26021.3 -03511.6 -07.6857 26257.2
 25 11 2013  04 42  -21.0147 26021.2 -03511.6 -07.6857 26257.1
 25 11 2013  04 43  -21.0147 26021.3 -03511.6 -07.6857 26257.1
 25 11 2013  04 44  -21.0145 26021.2 -03511.6 -07.6856 26257.1
 25 11 2013  04 45  -21.0143 26021.3 -03511.6 -07.6857 26257.2
 25 11 2013  04 46  -21.0142 26021.4 -03511.7 -07.6858 26257.2
 25 11 2013  04 47  -21.0141 26021.3 -03511.7 -07.6858 26257.2
 25 11 2013  04 48  -21.0139 26021.3 -03511.7 -07.6859 26257.2
 25 11 2013  04 49  -21.0139 26021.4 -03511.7 -07.6859 26257.3
 25 11 2013  04 50  -21.0139 26021.4 -03511.7 -07.6859 26257.3
 25 11 2013  04 51  -21.0139 26021.4 -03511.7 -07.6860 26257.3
 25 11 2013  04 52  -21.0138 26021.4 -03511.8 -07.6860 26257.3
 25 11 2013  04 53  -21.0139 26021.4 -03511.8 -07.6861 26257.3
 25 11 2013  04 54  -21.0138 26021.4 -03511.8 -07.6860 26257.3
 25 11 2013  04 55  -21.0139 26021.5 -03511.8 -07.6861 26257.4
 25 11 2013  04 56  -21.0139 26021.5 -03511.9 -07.6862 26257.4
 25 11 2013  04 57  -21.0140 26021.5 -03511.9 -07.6862 26257.4
 25 11 2013  04 58  -21.0140 26021.6 -03511.9 -07.6863 26257.5
 25 11 2013  04 59  -21.0141 26021.7 -03512.0 -07.6864 26257.6
 25 11 2013  05 00  -21.0141 26021.7 -03512.0 -07.6864 26257.6
 25 11 2013  05 01  -21.0143 26021.7 -03512.0 -07.6864 26257.7
 25 11 2013  05 02  -21.0145 26021.8 -03512.0 -07.6865 26257.7
 25 11 2013  05 03  -21.0145 26021.8 -03512.0 -07.6864 26257.8
 25 11 2013  05 04  -21.0145 26021.9 -03512.0 -07.6864 26257.8
 25 11 2013  05 05  -21.0146 26021.9 -03512.1 -07.6865 26257.8
 25 11 2013  05 06  -21.0147 26022.0 -03512.1 -07.6866 26257.9
 25 11 2013  05 07  -21.0147 26022.0 -03512.1 -07.6866 26257.9
 25 11 2013  05 08  -21.0147 26022.1 -03512.1 -07.6866 26258.0
 25 11 2013  05 09  -21.0148 26022.2 -03512.1 -07.6866 26258.1
 25 11 2013  05 10  -21.0147 26022.2 -03512.1 -07.6866 26258.1
 25 11 2013  05 11  -21.0148 26022.3 -03512.2 -07.6866 26258.2
 25 11 2013  05 12  -21.0149 26022.4 -03512.2 -07.6867 26258.3
 25 11 2013  05 13  -21.0150 26022.4 -03512.2 -07.6867 26258.4
 25 11 2013  05 14  -21.0150 26022.5 -03512.3 -07.6867 26258.5
 25 11 2013  05 15  -21.0150 26022.7 -03512.3 -07.6869 26258.6
 25 11 2013  05 16  -21.0149 26022.7 -03512.4 -07.6869 26258.7
 25 11 2013  05 17  -21.0148 26022.7 -03512.4 -07.6869 26258.7
 25 11 2013  05 18  -21.0148 26022.9 -03512.4 -07.6869 26258.8
 25 11 2013  05 19  -21.0146 26022.9 -03512.4 -07.6869 26258.8
 25 11 2013  05 20  -21.0145 26022.9 -03512.4 -07.6868 26258.8
 25 11 2013  05 21  -21.0143 26022.9 -03512.3 -07.6868 26258.9
 25 11 2013  05 22  -21.0142 26022.9 -03512.3 -07.6868 26258.8
 25 11 2013  05 23  -21.0141 26022.9 -03512.3 -07.6868 26258.8
 25 11 2013  05 24  -21.0138 26022.8 -03512.3 -07.6868 26258.8
 25 11 2013  05 25  -21.0137 26022.8 -03512.3 -07.6868 26258.7
 25 11 2013  05 26  -21.0135 26022.8 -03512.3 -07.6867 26258.7
 25 11 2013  05 27  -21.0134 26022.7 -03512.3 -07.6868 26258.7
 25 11 2013  05 28  -21.0132 26022.7 -03512.3 -07.6867 26258.7
 25 11 2013  05 29  -21.0131 26022.7 -03512.3 -07.6867 26258.7
 25 11 2013  05 30  -21.0131 26022.7 -03512.3 -07.6868 26258.7
 25 11 2013  05 31  -21.0131 26022.7 -03512.3 -07.6869 26258.7
 25 11 2013  05 32  -21.0131 26022.8 -03512.4 -07.6869 26258.7
 25 11 2013  05 33  -21.0131 26022.8 -03512.4 -07.6869 26258.7
 25 11 2013  05 34  -21.0131 26022.8 -03512.4 -07.6869 26258.7
 25 11 2013  05 35  -21.0132 26022.8 -03512.4 -07.6870 26258.8
 25 11 2013  05 36  -21.0132 26022.8 -03512.4 -07.6870 26258.8
 25 11 2013  05 37  -21.0134 26022.9 -03512.4 -07.6870 26258.8
 25 11 2013  05 38  -21.0134 26022.9 -03512.4 -07.6869 26258.9
 25 11 2013  05 39  -21.0136 26022.9 -03512.4 -07.6870 26258.9
 25 11 2013  05 40  -21.0136 26022.9 -03512.4 -07.6870 26258.9
 25 11 2013  05 41  -21.0134 26022.9 -03512.4 -07.6869 26258.9
 25 11 2013  05 42  -21.0134 26022.9 -03512.4 -07.6869 26258.9
 25 11 2013  05 43  -21.0134 26022.9 -03512.3 -07.6868 26258.8
 25 11 2013  05 44  -21.0134 26022.8 -03512.3 -07.6868 26258.8
 25 11 2013  05 45  -21.0134 26022.9 -03512.4 -07.6868 26258.8
 25 11 2013  05 46  -21.0134 26023.0 -03512.4 -07.6870 26259.0
 25 11 2013  05 47  -21.0134 26023.0 -03512.4 -07.6870 26259.0
 25 11 2013  05 48  -21.0133 26023.1 -03512.5 -07.6870 26259.1
 25 11 2013  05 49  -21.0132 26023.1 -03512.5 -07.6871 26259.1
 25 11 2013  05 50  -21.0132 26023.1 -03512.5 -07.6871 26259.1
 25 11 2013  05 51  -21.0132 26023.1 -03512.5 -07.6871 26259.1
 25 11 2013  05 52  -21.0132 26023.1 -03512.5 -07.6871 26259.1
 25 11 2013  05 53  -21.0132 26023.2 -03512.5 -07.6871 26259.1
 25 11 2013  05 54  -21.0132 26023.2 -03512.5 -07.6872 26259.2
 25 11 2013  05 55  -21.0132 26023.2 -03512.6 -07.6872 26259.2
 25 11 2013  05 56  -21.0132 26023.2 -03512.6 -07.6872 26259.2
 25 11 2013  05 57  -21.0133 26023.2 -03512.5 -07.6871 26259.2
 25 11 2013  05 58  -21.0133 26023.2 -03512.5 -07.6872 26259.2
 25 11 2013  05 59  -21.0133 26023.3 -03512.6 -07.6872 26259.3
 25 11 2013  06 00  -21.0133 26023.3 -03512.6 -07.6872 26259.3
 25 11 2013  06 01  -21.0132 26023.3 -03512.6 -07.6872 26259.3
 25 11 2013  06 02  -21.0131 26023.3 -03512.6 -07.6872 26259.3
 25 11 2013  06 03  -21.0131 26023.3 -03512.6 -07.6872 26259.3
 25 11 2013  06 04  -21.0131 26023.3 -03512.6 -07.6872 26259.3
 25 11 2013  06 05  -21.0131 26023.3 -03512.6 -07.6872 26259.3
 25 11 2013  06 06  -21.0131 26023.3 -03512.6 -07.6873 26259.3
 25 11 2013  06 07  -21.0130 26023.3 -03512.6 -07.6872 26259.3
 25 11 2013  06 08  -21.0131 26023.4 -03512.6 -07.6873 26259.4
 25 11 2013  06 09  -21.0131 26023.4 -03512.6 -07.6873 26259.4
 25 11 2013  06 10  -21.0131 26023.4 -03512.6 -07.6873 26259.4
 25 11 2013  06 11  -21.0131 26023.4 -03512.7 -07.6873 26259.4
 25 11 2013  06 12  -21.0131 26023.4 -03512.6 -07.6873 26259.4
 25 11 2013  06 13  -21.0131 26023.5 -03512.7 -07.6874 26259.5
 25 11 2013  06 14  -21.0130 26023.5 -03512.7 -07.6874 26259.5
 25 11 2013  06 15  -21.0130 26023.5 -03512.7 -07.6874 26259.5
 25 11 2013  06 16  -21.0130 26023.5 -03512.7 -07.6875 26259.5
 25 11 2013  06 17  -21.0129 26023.5 -03512.7 -07.6873 26259.5
 25 11 2013  06 18  -21.0128 26023.5 -03512.7 -07.6874 26259.5
 25 11 2013  06 19  -21.0127 26023.5 -03512.7 -07.6874 26259.5
 25 11 2013  06 20  -21.0127 26023.5 -03512.7 -07.6874 26259.5
 25 11 2013  06 21  -21.0127 26023.5 -03512.7 -07.6874 26259.5
 25 11 2013  06 22  -21.0126 26023.5 -03512.7 -07.6875 26259.5
 25 11 2013  06 23  -21.0126 26023.5 -03512.7 -07.6874 26259.5
 25 11 2013  06 24  -21.0125 26023.5 -03512.7 -07.6874 26259.5
 25 11 2013  06 25  -21.0125 26023.5 -03512.7 -07.6874 26259.5
 25 11 2013  06 26  -21.0124 26023.5 -03512.7 -07.6875 26259.5
 25 11 2013  06 27  -21.0125 26023.5 -03512.7 -07.6874 26259.5
 25 11 2013  06 28  -21.0125 26023.4 -03512.7 -07.6874 26259.4
 25 11 2013  06 29  -21.0125 26023.4 -03512.7 -07.6874 26259.4
 25 11 2013  06 30  -21.0124 26023.4 -03512.7 -07.6874 26259.4
 25 11 2013  06 31  -21.0123 26023.4 -03512.7 -07.6874 26259.4
 25 11 2013  06 32  -21.0122 26023.4 -03512.7 -07.6874 26259.4
 25 11 2013  06 33  -21.0121 26023.5 -03512.7 -07.6875 26259.5
 25 11 2013  06 34  -21.0120 26023.5 -03512.7 -07.6875 26259.5
 25 11 2013  06 35  -21.0119 26023.5 -03512.8 -07.6876 26259.5
 25 11 2013  06 36  -21.0118 26023.6 -03512.8 -07.6876 26259.6
 25 11 2013  06 37  -21.0117 26023.7 -03512.8 -07.6876 26259.7
 25 11 2013  06 38  -21.0116 26023.7 -03512.8 -07.6877 26259.7
 25 11 2013  06 39  -21.0115 26023.7 -03512.9 -07.6877 26259.7
 25 11 2013  06 40  -21.0115 26023.7 -03512.9 -07.6878 26259.7
 25 11 2013  06 41  -21.0114 26023.7 -03512.9 -07.6878 26259.8
 25 11 2013  06 42  -21.0114 26023.8 -03512.9 -07.6878 26259.8
 25 11 2013  06 43  -21.0114 26023.8 -03512.9 -07.6878 26259.8
 25 11 2013  06 44  -21.0114 26023.9 -03513.0 -07.6879 26259.9
 25 11 2013  06 45  -21.0114 26023.9 -03513.0 -07.6879 26260.0
 25 11 2013  06 46  -21.0113 26023.9 -03513.0 -07.6879 26259.9
 25 11 2013  06 47  -21.0113 26023.9 -03513.0 -07.6880 26260.0
 25 11 2013  06 48  -21.0113 26024.0 -03513.0 -07.6880 26260.0
 25 11 2013  06 49  -21.0113 26024.0 -03513.1 -07.6881 26260.0
 25 11 2013  06 50  -21.0113 26024.0 -03513.1 -07.6880 26260.0
 25 11 2013  06 51  -21.0113 26024.1 -03513.1 -07.6881 26260.1
 25 11 2013  06 52  -21.0113 26024.1 -03513.1 -07.6881 26260.2
 25 11 2013  06 53  -21.0112 26024.2 -03513.1 -07.6881 26260.3
 25 11 2013  06 54  -21.0112 26024.2 -03513.1 -07.6881 26260.3
 25 11 2013  06 55  -21.0111 26024.2 -03513.1 -07.6882 26260.3
 25 11 2013  06 56  -21.0111 26024.2 -03513.1 -07.6882 26260.3
 25 11 2013  06 57  -21.0110 26024.2 -03513.1 -07.6881 26260.3
 25 11 2013  06 58  -21.0109 26024.2 -03513.1 -07.6881 26260.3
 25 11 2013  06 59  -21.0109 26024.1 -03513.1 -07.6881 26260.2
 25 11 2013  07 00  -21.0110 26024.1 -03513.1 -07.6880 26260.1
 25 11 2013  07 01  -21.0110 26024.0 -03513.1 -07.6881 26260.1
 25 11 2013  07 02  -21.0110 26023.9 -03513.0 -07.6880 26260.0
 25 11 2013  07 03  -21.0110 26023.9 -03513.0 -07.6879 26259.9
 25 11 2013  07 04  -21.0111 26023.8 -03513.0 -07.6880 26259.9
 25 11 2013  07 05  -21.0111 26023.7 -03513.0 -07.6879 26259.8
 25 11 2013  07 06  -21.0112 26023.7 -03512.9 -07.6879 26259.7
 25 11 2013  07 07  -21.0113 26023.7 -03512.9 -07.6879 26259.7
 25 11 2013  07 08  -21.0113 26023.7 -03512.9 -07.6878 26259.7
 25 11 2013  07 09  -21.0113 26023.6 -03512.9 -07.6878 26259.7
 25 11 2013  07 10  -21.0114 26023.6 -03512.9 -07.6879 26259.7
 25 11 2013  07 11  -21.0113 26023.6 -03512.9 -07.6878 26259.6
 25 11 2013  07 12  -21.0114 26023.5 -03512.9 -07.6879 26259.6
 25 11 2013  07 13  -21.0115 26023.5 -03512.9 -07.6878 26259.5
 25 11 2013  07 14  -21.0115 26023.5 -03512.9 -07.6879 26259.5
 25 11 2013  07 15  -21.0115 26023.5 -03512.9 -07.6879 26259.5
 25 11 2013  07 16  -21.0115 26023.5 -03512.9 -07.6879 26259.5
 25 11 2013  07 17  -21.0116 26023.4 -03512.9 -07.6879 26259.5
 25 11 2013  07 18  -21.0116 26023.4 -03512.9 -07.6879 26259.4
 25 11 2013  07 19  -21.0117 26023.4 -03512.9 -07.6879 26259.4
 25 11 2013  07 20  -21.0117 26023.3 -03513.0 -07.6880 26259.4
 25 11 2013  07 21  -21.0117 26023.3 -03512.9 -07.6880 26259.3
 25 11 2013  07 22  -21.0115 26023.2 -03512.9 -07.6880 26259.2
 25 11 2013  07 23  -21.0115 26023.2 -03512.9 -07.6880 26259.2
 25 11 2013  07 24  -21.0115 26023.0 -03512.9 -07.6880 26259.1
 25 11 2013  07 25  -21.0115 26023.0 -03512.9 -07.6880 26259.0
 25 11 2013  07 26  -21.0116 26023.0 -03512.9 -07.6880 26259.0
 25 11 2013  07 27  -21.0116 26022.9 -03512.9 -07.6880 26259.0
 25 11 2013  07 28  -21.0116 26022.9 -03512.9 -07.6881 26258.9
 25 11 2013  07 29  -21.0114 26022.9 -03512.9 -07.6881 26258.9
 25 11 2013  07 30  -21.0113 26022.9 -03513.0 -07.6882 26258.9
 25 11 2013  07 31  -21.0113 26022.8 -03513.0 -07.6882 26258.9
 25 11 2013  07 32  -21.0114 26022.8 -03513.0 -07.6883 26258.8
 25 11 2013  07 33  -21.0114 26022.8 -03513.0 -07.6883 26258.8
 25 11 2013  07 34  -21.0114 26022.7 -03513.0 -07.6883 26258.8
 25 11 2013  07 35  -21.0113 26022.7 -03513.0 -07.6883 26258.7
 25 11 2013  07 36  -21.0114 26022.6 -03513.0 -07.6883 26258.7
 25 11 2013  07 37  -21.0116 26022.6 -03513.0 -07.6883 26258.7
 25 11 2013  07 38  -21.0117 26022.6 -03513.0 -07.6883 26258.6
 25 11 2013  07 39  -21.0118 26022.6 -03513.0 -07.6882 26258.6
 25 11 2013  07 40  -21.0118 26022.6 -03512.9 -07.6882 26258.7
 25 11 2013  07 41  -21.0120 26022.7 -03513.0 -07.6882 26258.7
 25 11 2013  07 42  -21.0120 26022.7 -03512.9 -07.6881 26258.7
 25 11 2013  07 43  -21.0120 26022.6 -03512.9 -07.6881 26258.7
 25 11 2013  07 44  -21.0120 26022.6 -03512.9 -07.6881 26258.7
 25 11 2013  07 45  -21.0120 26022.7 -03512.9 -07.6881 26258.7
 25 11 2013  07 46  -21.0120 26022.6 -03512.9 -07.6880 26258.7
 25 11 2013  07 47  -21.0123 26022.6 -03512.9 -07.6881 26258.6
 25 11 2013  07 48  -21.0123 26022.6 -03512.9 -07.6881 26258.6
 25 11 2013  07 49  -21.0123 26022.6 -03512.9 -07.6881 26258.6
 25 11 2013  07 50  -21.0121 26022.5 -03512.9 -07.6881 26258.6
 25 11 2013  07 51  -21.0122 26022.5 -03512.9 -07.6882 26258.5
 25 11 2013  07 52  -21.0123 26022.5 -03512.9 -07.6882 26258.5
 25 11 2013  07 53  -21.0123 26022.5 -03513.0 -07.6883 26258.5
 25 11 2013  07 54  -21.0122 26022.4 -03512.9 -07.6882 26258.4
 25 11 2013  07 55  -21.0123 26022.4 -03512.9 -07.6882 26258.4
 25 11 2013  07 56  -21.0122 26022.3 -03512.9 -07.6882 26258.3
 25 11 2013  07 57  -21.0122 26022.3 -03512.9 -07.6882 26258.3
 25 11 2013  07 58  -21.0123 26022.3 -03512.9 -07.6882 26258.3
 25 11 2013  07 59  -21.0123 26022.3 -03513.0 -07.6883 26258.4
 25 11 2013  08 00  -21.0122 26022.3 -03513.0 -07.6883 26258.3
 25 11 2013  08 01  -21.0122 26022.3 -03513.0 -07.6883 26258.3
 25 11 2013  08 02  -21.0123 26022.3 -03513.0 -07.6884 26258.4
 25 11 2013  08 03  -21.0123 26022.4 -03513.0 -07.6885 26258.4
 25 11 2013  08 04  -21.0124 26022.4 -03513.0 -07.6885 26258.4
 25 11 2013  08 05  -21.0126 26022.4 -03513.1 -07.6885 26258.5
 25 11 2013  08 06  -21.0127 26022.5 -03513.1 -07.6886 26258.6
 25 11 2013  08 07  -21.0128 26022.5 -03513.1 -07.6886 26258.5
 25 11 2013  08 08  -21.0132 26022.5 -03513.1 -07.6886 26258.6
 25 11 2013  08 09  -21.0135 26022.6 -03513.1 -07.6886 26258.7
 25 11 2013  08 10  -21.0137 26022.7 -03513.2 -07.6887 26258.8
 25 11 2013  08 11  -21.0139 26022.8 -03513.2 -07.6887 26258.8
 25 11 2013  08 12  -21.0142 26022.7 -03513.2 -07.6886 26258.8
 25 11 2013  08 13  -21.0145 26022.7 -03513.1 -07.6885 26258.8
 25 11 2013  08 14  -21.0148 26022.7 -03513.1 -07.6885 26258.8
 25 11 2013  08 15  -21.0151 26022.7 -03513.0 -07.6884 26258.7
 25 11 2013  08 16  -21.0153 26022.7 -03513.0 -07.6883 26258.7
 25 11 2013  08 17  -21.0154 26022.7 -03513.0 -07.6882 26258.7
 25 11 2013  08 18  -21.0156 26022.7 -03512.9 -07.6881 26258.8
 25 11 2013  08 19  -21.0157 26022.8 -03512.9 -07.6880 26258.8
 25 11 2013  08 20  -21.0159 26022.8 -03512.9 -07.6881 26258.9
 25 11 2013  08 21  -21.0159 26022.9 -03512.9 -07.6881 26258.9
 25 11 2013  08 22  -21.0160 26022.9 -03512.9 -07.6880 26258.9
 25 11 2013  08 23  -21.0161 26022.9 -03512.9 -07.6879 26258.9
 25 11 2013  08 24  -21.0163 26022.8 -03512.8 -07.6879 26258.9
 25 11 2013  08 25  -21.0164 26022.8 -03512.8 -07.6878 26258.8
 25 11 2013  08 26  -21.0165 26022.8 -03512.7 -07.6877 26258.8
 25 11 2013  08 27  -21.0168 26022.8 -03512.7 -07.6877 26258.8
 25 11 2013  08 28  -21.0169 26022.7 -03512.7 -07.6877 26258.8
 25 11 2013  08 29  -21.0169 26022.7 -03512.7 -07.6877 26258.7
 25 11 2013  08 30  -21.0169 26022.7 -03512.7 -07.6877 26258.7
 25 11 2013  08 31  -21.0169 26022.7 -03512.7 -07.6877 26258.7
 25 11 2013  08 32  -21.0170 26022.7 -03512.8 -07.6878 26258.7
 25 11 2013  08 33  -21.0172 26022.7 -03512.8 -07.6879 26258.7
 25 11 2013  08 34  -21.0173 26022.7 -03512.8 -07.6879 26258.7
 25 11 2013  08 35  -21.0173 26022.7 -03512.8 -07.6879 26258.7
 25 11 2013  08 36  -21.0174 26022.7 -03512.9 -07.6880 26258.7
 25 11 2013  08 37  -21.0176 26022.7 -03512.9 -07.6881 26258.8
 25 11 2013  08 38  -21.0178 26022.8 -03512.9 -07.6881 26258.8
 25 11 2013  08 39  -21.0181 26022.8 -03513.0 -07.6882 26258.9
 25 11 2013  08 40  -21.0185 26022.8 -03513.0 -07.6883 26258.8
 25 11 2013  08 41  -21.0188 26022.8 -03513.0 -07.6883 26258.9
 25 11 2013  08 42  -21.0190 26022.9 -03513.0 -07.6883 26258.9
 25 11 2013  08 43  -21.0192 26022.9 -03513.0 -07.6883 26258.9
 25 11 2013  08 44  -21.0193 26023.0 -03513.0 -07.6883 26259.0
 25 11 2013  08 45  -21.0196 26023.1 -03513.0 -07.6883 26259.1
 25 11 2013  08 46  -21.0201 26023.2 -03513.1 -07.6883 26259.3
 25 11 2013  08 47  -21.0206 26023.3 -03513.1 -07.6883 26259.3
 25 11 2013  08 48  -21.0211 26023.4 -03513.0 -07.6882 26259.4
 25 11 2013  08 49  -21.0213 26023.4 -03513.0 -07.6880 26259.4
 25 11 2013  08 50  -21.0215 26023.4 -03512.9 -07.6879 26259.4
 25 11 2013  08 51  -21.0217 26023.5 -03512.8 -07.6877 26259.5
 25 11 2013  08 52  -21.0218 26023.5 -03512.8 -07.6876 26259.5
 25 11 2013  08 53  -21.0220 26023.5 -03512.7 -07.6875 26259.5
 25 11 2013  08 54  -21.0222 26023.6 -03512.7 -07.6874 26259.6
 25 11 2013  08 55  -21.0224 26023.7 -03512.7 -07.6873 26259.7
 25 11 2013  08 56  -21.0228 26023.8 -03512.6 -07.6870 26259.8
 25 11 2013  08 57  -21.0231 26023.9 -03512.5 -07.6870 26259.9
 25 11 2013  08 58  -21.0233 26024.1 -03512.6 -07.6870 26260.0
 25 11 2013  08 59  -21.0236 26024.2 -03512.6 -07.6870 26260.2
 25 11 2013  09 00  -21.0241 26024.3 -03512.5 -07.6868 26260.3
 25 11 2013  09 01  -21.0246 26024.3 -03512.5 -07.6867 26260.3
 25 11 2013  09 02  -21.0248 26024.4 -03512.4 -07.6864 26260.4
 25 11 2013  09 03  -21.0250 26024.5 -03512.3 -07.6863 26260.4
 25 11 2013  09 04  -21.0253 26024.5 -03512.2 -07.6861 26260.4
 25 11 2013  09 05  -21.0257 26024.5 -03512.1 -07.6859 26260.4
 25 11 2013  09 06  -21.0260 26024.5 -03512.1 -07.6857 26260.4
 25 11 2013  09 07  -21.0264 26024.5 -03512.0 -07.6855 26260.4
 25 11 2013  09 08  -21.0268 26024.6 -03511.9 -07.6854 26260.5
 25 11 2013  09 09  -21.0272 26024.7 -03511.9 -07.6853 26260.6
 25 11 2013  09 10  -21.0278 26024.8 -03511.8 -07.6852 26260.7
 25 11 2013  09 11  -21.0283 26024.9 -03511.8 -07.6851 26260.8
 25 11 2013  09 12  -21.0288 26025.1 -03511.8 -07.6849 26261.0
 25 11 2013  09 13  -21.0293 26025.2 -03511.7 -07.6847 26261.0
 25 11 2013  09 14  -21.0299 26025.3 -03511.6 -07.6845 26261.1
 25 11 2013  09 15  -21.0304 26025.4 -03511.5 -07.6843 26261.3
 25 11 2013  09 16  -21.0308 26025.5 -03511.3 -07.6837 26261.3
 25 11 2013  09 17  -21.0316 26025.6 -03511.4 -07.6839 26261.4
 25 11 2013  09 18  -21.0322 26025.7 -03511.3 -07.6837 26261.5
 25 11 2013  09 19  -21.0328 26025.7 -03511.2 -07.6835 26261.5
 25 11 2013  09 20  -21.0333 26025.8 -03511.1 -07.6833 26261.6
 25 11 2013  09 21  -21.0338 26025.9 -03511.0 -07.6831 26261.7
 25 11 2013  09 22  -21.0344 26026.0 -03511.0 -07.6829 26261.8
 25 11 2013  09 23  -21.0349 26026.1 -03510.9 -07.6827 26261.8
 25 11 2013  09 24  -21.0355 26026.1 -03510.8 -07.6825 26261.9
 25 11 2013  09 25  -21.0361 26026.2 -03510.7 -07.6823 26261.9
 25 11 2013  09 26  -21.0367 26026.3 -03510.5 -07.6819 26262.0
 25 11 2013  09 27  -21.0372 26026.4 -03510.6 -07.6820 26262.1
 25 11 2013  09 28  -21.0378 26026.5 -03510.5 -07.6818 26262.2
 25 11 2013  09 29  -21.0383 26026.6 -03510.5 -07.6817 26262.3
 25 11 2013  09 30  -21.0389 26026.7 -03510.4 -07.6815 26262.3
 25 11 2013  09 31  -21.0395 26026.8 -03510.4 -07.6814 26262.5
 25 11 2013  09 32  -21.0401 26027.0 -03510.3 -07.6813 26262.6
 25 11 2013  09 33  -21.0408 26027.1 -03510.3 -07.6812 26262.8
 25 11 2013  09 34  -21.0414 26027.3 -03510.3 -07.6811 26262.9
 25 11 2013  09 35  -21.0418 26027.4 -03510.2 -07.6809 26263.1
 25 11 2013  09 36  -21.0423 26027.6 -03510.2 -07.6808 26263.2
 25 11 2013  09 37  -21.0428 26027.7 -03510.1 -07.6806 26263.3
 25 11 2013  09 38  -21.0434 26027.9 -03510.1 -07.6805 26263.5
 25 11 2013  09 39  -21.0440 26028.0 -03510.1 -07.6804 26263.6
 25 11 2013  09 40  -21.0445 26028.2 -03510.0 -07.6802 26263.8
 25 11 2013  09 41  -21.0449 26028.2 -03509.9 -07.6800 26263.8
 25 11 2013  09 42  -21.0455 26028.4 -03509.9 -07.6798 26263.9
 25 11 2013  09 43  -21.0460 26028.5 -03509.8 -07.6798 26264.1
 25 11 2013  09 44  -21.0466 26028.7 -03509.8 -07.6796 26264.2
 25 11 2013  09 45  -21.0472 26028.8 -03509.8 -07.6795 26264.4
 25 11 2013  09 46  -21.0478 26029.0 -03509.7 -07.6794 26264.5
 25 11 2013  09 47  -21.0482 26029.0 -03509.7 -07.6792 26264.6
 25 11 2013  09 48  -21.0487 26029.1 -03509.6 -07.6791 26264.6
 25 11 2013  09 49  -21.0490 26029.2 -03509.6 -07.6790 26264.7
 25 11 2013  09 50  -21.0496 26029.4 -03509.5 -07.6789 26264.9
 25 11 2013  09 51  -21.0502 26029.5 -03509.5 -07.6788 26265.1
 25 11 2013  09 52  -21.0508 26029.7 -03509.5 -07.6786 26265.3
 25 11 2013  09 53  -21.0512 26029.8 -03509.4 -07.6785 26265.3
 25 11 2013  09 54  -21.0517 26030.0 -03509.4 -07.6783 26265.5
 25 11 2013  09 55  -21.0522 26030.2 -03509.3 -07.6782 26265.7
 25 11 2013  09 56  -21.0531 26030.4 -03509.3 -07.6781 26265.9
 25 11 2013  09 57  -21.0536 26030.4 -03509.2 -07.6778 26265.9
 25 11 2013  09 58  -21.0541 26030.6 -03509.1 -07.6775 26266.0
 25 11 2013  09 59  -21.0545 26030.7 -03509.0 -07.6773 26266.1
 25 11 2013  10 00  -21.0553 26030.9 -03508.9 -07.6771 26266.3
 25 11 2013  10 01  -21.0558 26030.9 -03508.8 -07.6769 26266.3
 25 11 2013  10 02  -21.0560 26031.0 -03508.7 -07.6766 26266.4
 25 11 2013  10 03  -21.0564 26031.1 -03508.6 -07.6764 26266.5
 25 11 2013  10 04  -21.0571 26031.2 -03508.6 -07.6763 26266.6
 25 11 2013  10 05  -21.0575 26031.3 -03508.5 -07.6760 26266.6
 25 11 2013  10 06  -21.0577 26031.4 -03508.4 -07.6759 26266.8
 25 11 2013  10 07  -21.0584 26031.7 -03508.5 -07.6758 26267.1
 25 11 2013  10 08  -21.0590 26031.8 -03508.4 -07.6757 26267.2
 25 11 2013  10 09  -21.0595 26031.9 -03508.3 -07.6755 26267.3
 25 11 2013  10 10  -21.0597 26032.0 -03508.3 -07.6754 26267.4
 25 11 2013  10 11  -21.0604 26032.4 -03508.3 -07.6754 26267.7
 25 11 2013  10 12  -21.0610 26032.6 -03508.3 -07.6753 26268.0
 25 11 2013  10 13  -21.0615 26032.9 -03508.3 -07.6752 26268.2
 25 11 2013  10 14  -21.0619 26033.1 -03508.3 -07.6750 26268.4
 25 11 2013  10 15  -21.0623 26033.3 -03508.2 -07.6748 26268.6
 25 11 2013  10 16  -21.0628 26033.5 -03508.1 -07.6746 26268.8
 25 11 2013  10 17  -21.0631 26033.6 -03508.1 -07.6744 26268.9
 25 11 2013  10 18  -21.0636 26033.9 -03508.0 -07.6742 26269.2
 25 11 2013  10 19  -21.0641 26034.3 -03508.0 -07.6741 26269.5
 25 11 2013  10 20  -21.0643 26034.5 -03507.9 -07.6738 26269.8
 25 11 2013  10 21  -21.0645 26034.8 -03507.9 -07.6736 26270.1
 25 11 2013  10 22  -21.0650 26035.1 -03507.8 -07.6734 26270.3
 25 11 2013  10 23  -21.0653 26035.3 -03507.7 -07.6732 26270.6
 25 11 2013  10 24  -21.0655 26035.7 -03507.6 -07.6729 26270.9
 25 11 2013  10 25  -21.0658 26036.0 -03507.6 -07.6727 26271.2
 25 11 2013  10 26  -21.0663 26036.4 -03507.5 -07.6725 26271.6
 25 11 2013  10 27  -21.0666 26036.6 -03507.4 -07.6721 26271.8
 25 11 2013  10 28  -21.0668 26036.9 -03507.3 -07.6719 26272.0
 25 11 2013  10 29  -21.0670 26037.2 -03507.2 -07.6716 26272.3
 25 11 2013  10 30  -21.0673 26037.2 -03507.1 -07.6713 26272.4
 25 11 2013  10 31  -21.0672 26037.5 -03507.0 -07.6710 26272.6
 25 11 2013  10 32  -21.0675 26037.7 -03506.9 -07.6707 26272.8
 25 11 2013  10 33  -21.0676 26037.9 -03506.8 -07.6705 26273.0
 25 11 2013  10 34  -21.0679 26038.1 -03506.7 -07.6702 26273.1
 25 11 2013  10 35  -21.0678 26038.3 -03506.6 -07.6699 26273.4
 25 11 2013  10 36  -21.0679 26038.4 -03506.5 -07.6696 26273.4
 25 11 2013  10 37  -21.0682 26038.8 -03506.4 -07.6694 26273.8
 25 11 2013  10 38  -21.0683 26038.9 -03506.3 -07.6691 26273.9
 25 11 2013  10 39  -21.0681 26039.0 -03506.2 -07.6688 26274.0
 25 11 2013  10 40  -21.0682 26039.3 -03506.1 -07.6685 26274.3
 25 11 2013  10 41  -21.0681 26039.6 -03506.0 -07.6683 26274.5
 25 11 2013  10 42  -21.0681 26039.7 -03505.9 -07.6680 26274.7
 25 11 2013  10 43  -21.0679 26039.8 -03505.7 -07.6676 26274.7
 25 11 2013  10 44  -21.0680 26040.1 -03505.7 -07.6674 26275.0
 25 11 2013  10 45  -21.0678 26040.3 -03505.6 -07.6671 26275.2
 25 11 2013  10 46  -21.0680 26040.6 -03505.5 -07.6669 26275.5
 25 11 2013  10 47  -21.0676 26040.8 -03505.4 -07.6666 26275.6
 25 11 2013  10 48  -21.0674 26041.1 -03505.3 -07.6663 26276.0
 25 11 2013  10 49  -21.0674 26041.3 -03505.2 -07.6661 26276.2
 25 11 2013  10 50  -21.0673 26041.6 -03505.2 -07.6658 26276.5
 25 11 2013  10 51  -21.0673 26042.0 -03505.1 -07.6655 26276.8
 25 11 2013  10 52  -21.0667 26042.2 -03504.9 -07.6652 26277.0
 25 11 2013  10 53  -21.0664 26042.3 -03504.8 -07.6649 26277.1
 25 11 2013  10 54  -21.0663 26042.6 -03504.7 -07.6647 26277.4
 25 11 2013  10 55  -21.0661 26042.9 -03504.7 -07.6644 26277.6
 25 11 2013  10 56  -21.0658 26043.1 -03504.6 -07.6641 26277.9
 25 11 2013  10 57  -21.0654 26043.3 -03504.4 -07.6638 26278.0
 25 11 2013  10 58  -21.0655 26043.7 -03504.4 -07.6636 26278.4
 25 11 2013  10 59  -21.0653 26043.9 -03504.3 -07.6632 26278.6
 25 11 2013  11 00  -21.0652 26044.2 -03504.2 -07.6630 26278.9
 25 11 2013  11 01  -21.0649 26044.5 -03504.1 -07.6627 26279.2
 25 11 2013  11 02  -21.0647 26044.7 -03504.0 -07.6624 26279.4
 25 11 2013  11 03  -21.0646 26045.0 -03503.9 -07.6621 26279.6
 25 11 2013  11 04  -21.0645 26045.2 -03503.8 -07.6618 26279.9
 25 11 2013  11 05  -21.0643 26045.4 -03503.6 -07.6614 26280.0
 25 11 2013  11 06  -21.0639 26045.5 -03503.5 -07.6611 26280.1
 25 11 2013  11 07  -21.0636 26045.7 -03503.4 -07.6608 26280.3
 25 11 2013  11 08  -21.0637 26046.0 -03503.3 -07.6606 26280.6
 25 11 2013  11 09  -21.0636 26046.3 -03503.2 -07.6603 26280.8
 25 11 2013  11 10  -21.0635 26046.5 -03503.2 -07.6601 26281.1
 25 11 2013  11 11  -21.0633 26046.7 -03503.1 -07.6598 26281.2
 25 11 2013  11 12  -21.0633 26047.1 -03503.0 -07.6596 26281.6
 25 11 2013  11 13  -21.0633 26047.4 -03502.9 -07.6593 26281.9
 25 11 2013  11 14  -21.0630 26047.6 -03502.8 -07.6590 26282.1
 25 11 2013  11 15  -21.0629 26047.9 -03502.7 -07.6587 26282.3
 25 11 2013  11 16  -21.0627 26048.1 -03502.5 -07.6583 26282.6
 25 11 2013  11 17  -21.0625 26048.6 -03502.5 -07.6581 26283.1
 25 11 2013  11 18  -21.0621 26048.6 -03502.3 -07.6576 26283.0
 25 11 2013  11 19  -21.0620 26048.4 -03501.9 -07.6569 26282.8
 25 11 2013  11 20  -21.0613 26048.9 -03501.9 -07.6568 26283.2
 25 11 2013  11 21  -21.0612 26049.3 -03501.9 -07.6565 26283.6
 25 11 2013  11 22  -21.0611 26049.6 -03501.8 -07.6563 26283.9
 25 11 2013  11 23  -21.0608 26049.6 -03501.6 -07.6558 26283.9
 25 11 2013  11 24  -21.0603 26049.7 -03501.4 -07.6553 26284.0
 25 11 2013  11 25  -21.0597 26050.4 -03501.4 -07.6553 26284.6
 25 11 2013  11 26  -21.0595 26050.4 -03501.2 -07.6547 26284.6
 25 11 2013  11 27  -21.0596 26050.3 -03500.9 -07.6542 26284.5
 25 11 2013  11 28  -21.0591 26050.6 -03500.9 -07.6539 26284.8
 25 11 2013  11 29  -21.0585 26051.4 -03501.0 -07.6539 26285.5
 25 11 2013  11 30  -21.0586 26051.3 -03500.7 -07.6534 26285.5
 25 11 2013  11 31  -21.0586 26051.8 -03500.7 -07.6532 26285.9
 25 11 2013  11 32  -21.0579 26052.3 -03500.6 -07.6529 26286.5
 25 11 2013  11 33  -21.0575 26052.6 -03500.5 -07.6525 26286.7
 25 11 2013  11 34  -21.0573 26052.7 -03500.3 -07.6520 26286.8
 25 11 2013  11 35  -21.0568 26053.1 -03500.1 -07.6516 26287.2
 25 11 2013  11 36  -21.0561 26053.3 -03500.0 -07.6512 26287.4
 25 11 2013  11 37  -21.0560 26053.5 -03499.9 -07.6510 26287.6
 25 11 2013  11 38  -21.0558 26054.0 -03499.8 -07.6507 26288.0
 25 11 2013  11 39  -21.0552 26054.4 -03499.7 -07.6503 26288.4
 25 11 2013  11 40  -21.0549 26054.7 -03499.6 -07.6500 26288.7
 25 11 2013  11 41  -21.0548 26054.9 -03499.4 -07.6495 26288.8
 25 11 2013  11 42  -21.0546 26055.2 -03499.3 -07.6492 26289.2
 25 11 2013  11 43  -21.0540 26055.5 -03499.1 -07.6488 26289.4
 25 11 2013  11 44  -21.0537 26055.8 -03499.0 -07.6485 26289.7
 25 11 2013  11 45  -21.0533 26055.9 -03498.8 -07.6480 26289.8
 25 11 2013  11 46  -21.0528 26056.1 -03498.7 -07.6476 26289.9
 25 11 2013  11 47  -21.0524 26056.4 -03498.6 -07.6474 26290.2
 25 11 2013  11 48  -21.0520 26056.6 -03498.5 -07.6470 26290.4
 25 11 2013  11 49  -21.0514 26056.8 -03498.3 -07.6467 26290.6
 25 11 2013  11 50  -21.0510 26057.1 -03498.2 -07.6464 26290.8
 25 11 2013  11 51  -21.0507 26057.4 -03498.2 -07.6462 26291.1
 25 11 2013  11 52  -21.0501 26057.6 -03498.1 -07.6459 26291.4
 25 11 2013  11 53  -21.0494 26057.9 -03498.0 -07.6456 26291.6
 25 11 2013  11 54  -21.0488 26058.1 -03497.9 -07.6454 26291.9
 25 11 2013  11 55  -21.0482 26058.2 -03497.8 -07.6450 26291.9
 25 11 2013  11 56  -21.0476 26058.3 -03497.6 -07.6447 26292.0
 25 11 2013  11 57  -21.0469 26058.7 -03497.6 -07.6446 26292.3
 25 11 2013  11 58  -21.0464 26058.9 -03497.6 -07.6445 26292.6
 25 11 2013  11 59  -21.0460 26059.2 -03497.5 -07.6442 26292.8
 25 11 2013  12 00  -21.0454 26059.6 -03497.5 -07.6440 26293.2
 25 11 2013  12 01  -21.0448 26060.0 -03497.5 -07.6439 26293.6
 25 11 2013  12 02  -21.0443 26060.4 -03497.4 -07.6437 26294.0
 25 11 2013  12 03  -21.0437 26060.7 -03497.4 -07.6434 26294.3
 25 11 2013  12 04  -21.0429 26061.1 -03497.3 -07.6432 26294.7
 25 11 2013  12 05  -21.0423 26061.5 -03497.2 -07.6429 26295.1
 25 11 2013  12 06  -21.0413 26061.8 -03497.1 -07.6426 26295.4
 25 11 2013  12 07  -21.0404 26062.4 -03497.1 -07.6424 26295.9
 25 11 2013  12 08  -21.0397 26062.9 -03497.0 -07.6421 26296.4
 25 11 2013  12 09  -21.0390 26063.3 -03496.9 -07.6417 26296.8
 25 11 2013  12 10  -21.0387 26063.9 -03496.8 -07.6414 26297.4
 25 11 2013  12 11  -21.0384 26064.3 -03496.7 -07.6410 26297.8
 25 11 2013  12 12  -21.0379 26064.6 -03496.5 -07.6405 26298.1
 25 11 2013  12 13  -21.0373 26065.1 -03496.4 -07.6401 26298.6
 25 11 2013  12 14  -21.0366 26065.6 -03496.2 -07.6396 26299.0
 25 11 2013  12 15  -21.0359 26066.0 -03496.0 -07.6391 26299.4
 25 11 2013  12 16  -21.0351 26066.3 -03495.8 -07.6385 26299.6
 25 11 2013  12 17  -21.0345 26066.5 -03495.6 -07.6379 26299.8
 25 11 2013  12 18  -21.0336 26066.7 -03495.3 -07.6374 26300.0
 25 11 2013  12 19  -21.0326 26067.0 -03495.2 -07.6369 26300.3
 25 11 2013  12 20  -21.0316 26067.1 -03494.9 -07.6363 26300.4
 25 11 2013  12 21  -21.0308 26067.3 -03494.7 -07.6358 26300.5
 25 11 2013  12 22  -21.0299 26067.5 -03494.5 -07.6353 26300.7
 25 11 2013  12 23  -21.0290 26067.8 -03494.4 -07.6349 26300.9
 25 11 2013  12 24  -21.0279 26068.0 -03494.1 -07.6344 26301.1
 25 11 2013  12 25  -21.0270 26068.3 -03494.0 -07.6340 26301.4
 25 11 2013  12 26  -21.0262 26068.4 -03493.8 -07.6335 26301.5
 25 11 2013  12 27  -21.0257 26068.8 -03493.7 -07.6331 26301.9
 25 11 2013  12 28  -21.0250 26069.2 -03493.6 -07.6328 26302.2
 25 11 2013  12 29  -21.0243 26069.6 -03493.5 -07.6325 26302.6
 25 11 2013  12 30  -21.0236 26069.8 -03493.3 -07.6319 26302.8
 25 11 2013  12 31  -21.0228 26070.0 -03493.0 -07.6314 26303.0
 25 11 2013  12 32  -21.0221 26070.2 -03492.8 -07.6309 26303.1
 25 11 2013  12 33  -21.0215 26070.4 -03492.7 -07.6305 26303.3
 25 11 2013  12 34  -21.0210 26070.6 -03492.4 -07.6300 26303.5
 25 11 2013  12 35  -21.0204 26070.9 -03492.3 -07.6296 26303.7
 25 11 2013  12 36  -21.0199 26071.1 -03492.1 -07.6291 26304.0
 25 11 2013  12 37  -21.0197 26071.4 -03492.0 -07.6288 26304.2
 25 11 2013  12 38  -21.0195 26071.5 -03491.8 -07.6284 26304.3
 25 11 2013  12 39  -21.0184 26071.9 -03491.7 -07.6281 26304.7
 25 11 2013  12 40  -21.0171 26072.2 -03491.5 -07.6275 26305.0
 25 11 2013  12 41  -21.0160 26072.4 -03491.2 -07.6268 26305.2
 25 11 2013  12 42  -21.0154 26072.5 -03491.0 -07.6263 26305.2
 25 11 2013  12 43  -21.0146 26072.6 -03490.8 -07.6259 26305.3
 25 11 2013  12 44  -21.0140 26072.7 -03490.7 -07.6255 26305.3
 25 11 2013  12 45  -21.0134 26072.7 -03490.5 -07.6251 26305.3
 25 11 2013  12 46  -21.0130 26072.8 -03490.3 -07.6248 26305.4
 25 11 2013  12 47  -21.0124 26072.9 -03490.2 -07.6244 26305.4
 25 11 2013  12 48  -21.0121 26073.1 -03490.1 -07.6241 26305.6
 25 11 2013  12 49  -21.0113 26073.0 -03489.8 -07.6236 26305.5
 25 11 2013  12 50  -21.0110 26073.3 -03489.8 -07.6234 26305.8
 25 11 2013  12 51  -21.0103 26073.4 -03489.6 -07.6231 26305.9
 25 11 2013  12 52  -21.0094 26073.0 -03489.3 -07.6225 26305.5
 25 11 2013  12 53  -21.0087 26073.3 -03489.2 -07.6222 26305.8
 25 11 2013  12 54  -21.0081 26073.6 -03489.2 -07.6221 26306.0
 25 11 2013  12 55  -21.0077 26073.6 -03489.0 -07.6217 26306.0
 25 11 2013  12 56  -21.0071 26074.0 -03489.0 -07.6215 26306.3
 25 11 2013  12 57  -21.0067 26074.2 -03488.9 -07.6213 26306.6
 25 11 2013  12 58  -21.0063 26074.1 -03488.6 -07.6207 26306.4
 25 11 2013  12 59  -21.0058 26074.5 -03488.6 -07.6205 26306.8
 25 11 2013  13 00  -21.0051 26074.7 -03488.5 -07.6202 26307.0
 25 11 2013  13 01  -21.0046 26074.9 -03488.3 -07.6198 26307.2
 25 11 2013  13 02  -21.0043 26075.3 -03488.3 -07.6196 26307.6
 25 11 2013  13 03  -21.0041 26075.7 -03488.2 -07.6193 26308.0
 25 11 2013  13 04  -21.0037 26075.9 -03488.0 -07.6187 26308.1
 25 11 2013  13 05  -21.0031 26076.0 -03487.7 -07.6182 26308.2
 25 11 2013  13 06  -21.0027 26076.2 -03487.6 -07.6178 26308.4
 25 11 2013  13 07  -21.0023 26076.3 -03487.4 -07.6174 26308.5
 25 11 2013  13 08  -21.0018 26076.3 -03487.1 -07.6169 26308.4
 25 11 2013  13 09  -21.0014 26076.4 -03487.0 -07.6165 26308.5
 25 11 2013  13 10  -21.0010 26076.6 -03486.8 -07.6161 26308.7
 25 11 2013  13 11  -21.0005 26076.7 -03486.7 -07.6157 26308.7
 25 11 2013  13 12  -21.0000 26076.8 -03486.5 -07.6153 26308.8
 25 11 2013  13 13  -20.9994 26076.8 -03486.3 -07.6149 26308.8
 25 11 2013  13 14  -20.9989 26077.0 -03486.2 -07.6146 26309.0
 25 11 2013  13 15  -20.9984 26077.1 -03486.0 -07.6142 26309.1
 25 11 2013  13 16  -20.9980 26077.4 -03485.9 -07.6139 26309.3
 25 11 2013  13 17  -20.9973 26077.2 -03485.7 -07.6134 26309.2
 25 11 2013  13 18  -20.9967 26077.5 -03485.6 -07.6132 26309.4
 25 11 2013  13 19  -20.9963 26078.0 -03485.6 -07.6131 26309.9
 25 11 2013  13 20  -20.9955 26077.8 -03485.4 -07.6126 26309.7
 25 11 2013  13 21  -20.9950 26077.9 -03485.2 -07.6123 26309.7
 25 11 2013  13 22  -20.9944 26078.2 -03485.2 -07.6121 26310.1
 25 11 2013  13 23  -20.9937 26078.3 -03485.1 -07.6118 26310.2
 25 11 2013  13 24  -20.9930 26078.5 -03484.9 -07.6115 26310.3
 25 11 2013  13 25  -20.9922 26078.5 -03484.8 -07.6112 26310.4
 25 11 2013  13 26  -20.9915 26078.7 -03484.7 -07.6110 26310.5
 25 11 2013  13 27  -20.9907 26078.8 -03484.7 -07.6108 26310.6
 25 11 2013  13 28  -20.9900 26079.0 -03484.6 -07.6106 26310.8
 25 11 2013  13 29  -20.9894 26079.1 -03484.5 -07.6103 26310.9
 25 11 2013  13 30  -20.9886 26079.3 -03484.4 -07.6101 26311.0
 25 11 2013  13 31  -20.9879 26079.2 -03484.2 -07.6098 26310.9
 25 11 2013  13 32  -20.9871 26079.3 -03484.2 -07.6095 26311.0
 25 11 2013  13 33  -20.9864 26079.4 -03484.1 -07.6093 26311.1
 25 11 2013  13 34  -20.9856 26079.4 -03483.9 -07.6090 26311.1
 25 11 2013  13 35  -20.9850 26079.3 -03483.8 -07.6088 26311.0
 25 11 2013  13 36  -20.9842 26079.2 -03483.6 -07.6085 26310.9
 25 11 2013  13 37  -20.9836 26079.2 -03483.6 -07.6083 26310.9
 25 11 2013  13 38  -20.9828 26079.1 -03483.4 -07.6080 26310.8
 25 11 2013  13 39  -20.9822 26079.3 -03483.4 -07.6080 26310.9
 25 11 2013  13 40  -20.9815 26079.4 -03483.4 -07.6079 26311.1
 25 11 2013  13 41  -20.9808 26079.4 -03483.3 -07.6077 26311.0
 25 11 2013  13 42  -20.9801 26079.5 -03483.2 -07.6075 26311.0
 25 11 2013  13 43  -20.9793 26079.6 -03483.2 -07.6074 26311.2
 25 11 2013  13 44  -20.9786 26079.5 -03483.1 -07.6072 26311.1
 25 11 2013  13 45  -20.9776 26079.4 -03483.0 -07.6069 26311.0
 25 11 2013  13 46  -20.9767 26079.5 -03482.9 -07.6068 26311.0
 25 11 2013  13 47  -20.9759 26079.7 -03482.9 -07.6067 26311.2
 25 11 2013  13 48  -20.9751 26079.9 -03482.9 -07.6067 26311.4
 25 11 2013  13 49  -20.9743 26080.0 -03482.8 -07.6065 26311.5
 25 11 2013  13 50  -20.9739 26080.2 -03482.8 -07.6064 26311.7
 25 11 2013  13 51  -20.9733 26080.4 -03482.8 -07.6063 26311.9
 25 11 2013  13 52  -20.9727 26080.3 -03482.7 -07.6061 26311.8
 25 11 2013  13 53  -20.9720 26080.3 -03482.6 -07.6059 26311.8
 25 11 2013  13 54  -20.9712 26080.4 -03482.5 -07.6056 26311.8
 25 11 2013  13 55  -20.9706 26080.3 -03482.4 -07.6054 26311.8
 25 11 2013  13 56  -20.9701 26080.6 -03482.4 -07.6054 26312.0
 25 11 2013  13 57  -20.9696 26080.7 -03482.4 -07.6053 26312.2
 25 11 2013  13 58  -20.9691 26080.8 -03482.3 -07.6051 26312.3
 25 11 2013  13 59  -20.9684 26080.8 -03482.2 -07.6048 26312.2
 25 11 2013  14 00  -20.9675 26080.6 -03482.0 -07.6045 26312.0
 25 11 2013  14 01  -20.9667 26080.4 -03481.9 -07.6043 26311.8
 25 11 2013  14 02  -20.9659 26080.4 -03481.8 -07.6042 26311.7
 25 11 2013  14 03  -20.9652 26080.3 -03481.8 -07.6041 26311.7
 25 11 2013  14 04  -20.9649 26080.5 -03481.8 -07.6042 26311.9
 25 11 2013  14 05  -20.9645 26080.6 -03481.8 -07.6041 26312.0
 25 11 2013  14 06  -20.9641 26080.7 -03481.8 -07.6041 26312.1
 25 11 2013  14 07  -20.9634 26080.7 -03481.7 -07.6039 26312.0
 25 11 2013  14 08  -20.9627 26080.7 -03481.7 -07.6039 26312.0
 25 11 2013  14 09  -20.9620 26080.6 -03481.7 -07.6038 26312.0
 25 11 2013  14 10  -20.9617 26080.7 -03481.7 -07.6038 26312.1
 25 11 2013  14 11  -20.9614 26080.5 -03481.6 -07.6037 26311.8
 25 11 2013  14 12  -20.9608 26080.5 -03481.6 -07.6036 26311.8
 25 11 2013  14 13  -20.9603 26080.6 -03481.6 -07.6038 26311.9
 25 11 2013  14 14  -20.9600 26080.7 -03481.7 -07.6038 26312.0
 25 11 2013  14 15  -20.9597 26080.7 -03481.7 -07.6038 26312.1
 25 11 2013  14 16  -20.9593 26080.8 -03481.7 -07.6038 26312.2
 25 11 2013  14 17  -20.9588 26080.8 -03481.7 -07.6038 26312.2
 25 11 2013  14 18  -20.9582 26080.6 -03481.6 -07.6036 26311.9
 25 11 2013  14 19  -20.9576 26080.4 -03481.5 -07.6036 26311.8
 25 11 2013  14 20  -20.9574 26080.6 -03481.6 -07.6038 26311.9
 25 11 2013  14 21  -20.9573 26080.4 -03481.6 -07.6038 26311.7
 25 11 2013  14 22  -20.9570 26080.3 -03481.7 -07.6039 26311.7
 25 11 2013  14 23  -20.9566 26080.3 -03481.7 -07.6040 26311.7
 25 11 2013  14 24  -20.9562 26080.3 -03481.8 -07.6042 26311.7
 25 11 2013  14 25  -20.9559 26080.3 -03481.9 -07.6044 26311.7
 25 11 2013  14 26  -20.9557 26080.3 -03482.0 -07.6046 26311.8
 25 11 2013  14 27  -20.9556 26080.3 -03482.1 -07.6049 26311.7
 25 11 2013  14 28  -20.9556 26080.4 -03482.3 -07.6051 26311.8
 25 11 2013  14 29  -20.9556 26080.4 -03482.3 -07.6053 26311.9
 25 11 2013  14 30  -20.9553 26080.3 -03482.4 -07.6055 26311.8
 25 11 2013  14 31  -20.9550 26080.2 -03482.5 -07.6057 26311.7
 25 11 2013  14 32  -20.9551 26080.4 -03482.7 -07.6061 26311.9
 25 11 2013  14 33  -20.9553 26080.4 -03482.8 -07.6064 26311.9
 25 11 2013  14 34  -20.9554 26080.2 -03482.9 -07.6065 26311.7
 25 11 2013  14 35  -20.9554 26080.1 -03482.9 -07.6066 26311.6
 25 11 2013  14 36  -20.9554 26080.0 -03483.0 -07.6069 26311.6
 25 11 2013  14 37  -20.9555 26080.1 -03483.2 -07.6072 26311.7
 25 11 2013  14 38  -20.9556 26080.1 -03483.3 -07.6074 26311.7
 25 11 2013  14 39  -20.9559 26080.3 -03483.5 -07.6078 26311.9
 25 11 2013  14 40  -20.9563 26080.3 -03483.6 -07.6080 26311.9
 25 11 2013  14 41  -20.9566 26080.3 -03483.6 -07.6081 26311.9
 25 11 2013  14 42  -20.9569 26080.2 -03483.7 -07.6083 26311.8
 25 11 2013  14 43  -20.9572 26080.2 -03483.8 -07.6085 26311.9
 25 11 2013  14 44  -20.9575 26080.2 -03483.9 -07.6087 26311.9
 25 11 2013  14 45  -20.9577 26080.1 -03483.9 -07.6087 26311.8
 25 11 2013  14 46  -20.9579 26080.2 -03484.0 -07.6089 26311.9
 25 11 2013  14 47  -20.9582 26080.2 -03484.0 -07.6090 26311.9
 25 11 2013  14 48  -20.9586 26080.2 -03484.0 -07.6091 26311.9
 25 11 2013  14 49  -20.9591 26080.3 -03484.1 -07.6092 26312.0
 25 11 2013  14 50  -20.9597 26080.3 -03484.2 -07.6093 26312.0
 25 11 2013  14 51  -20.9602 26080.2 -03484.1 -07.6092 26311.9
 25 11 2013  14 52  -20.9607 26080.3 -03484.1 -07.6092 26312.0
 25 11 2013  14 53  -20.9611 26080.3 -03484.1 -07.6091 26312.0
 25 11 2013  14 54  -20.9617 26080.3 -03484.1 -07.6091 26311.9
 25 11 2013  14 55  -20.9623 26080.3 -03484.0 -07.6090 26312.0
 25 11 2013  14 56  -20.9627 26080.3 -03484.0 -07.6090 26311.9
 25 11 2013  14 57  -20.9633 26080.2 -03483.9 -07.6089 26311.8
 25 11 2013  14 58  -20.9639 26080.0 -03483.9 -07.6087 26311.7
 25 11 2013  14 59  -20.9643 26079.9 -03483.8 -07.6086 26311.6
 25 11 2013  15 00  -20.9648 26079.8 -03483.8 -07.6086 26311.5
 25 11 2013  15 01  -20.9653 26079.8 -03483.7 -07.6085 26311.5
 25 11 2013  15 02  -20.9659 26079.9 -03483.7 -07.6085 26311.5
 25 11 2013  15 03  -20.9664 26079.8 -03483.7 -07.6084 26311.5
 25 11 2013  15 04  -20.9670 26079.9 -03483.7 -07.6084 26311.5
 25 11 2013  15 05  -20.9676 26079.8 -03483.6 -07.6082 26311.5
 25 11 2013  15 06  -20.9683 26079.8 -03483.6 -07.6082 26311.4
 25 11 2013  15 07  -20.9690 26079.7 -03483.5 -07.6081 26311.3
 25 11 2013  15 08  -20.9695 26079.7 -03483.4 -07.6079 26311.3
 25 11 2013  15 09  -20.9701 26079.6 -03483.3 -07.6077 26311.2
 25 11 2013  15 10  -20.9707 26079.6 -03483.3 -07.6077 26311.2
 25 11 2013  15 11  -20.9713 26079.6 -03483.3 -07.6077 26311.2
 25 11 2013  15 12  -20.9719 26079.6 -03483.3 -07.6076 26311.2
 25 11 2013  15 13  -20.9725 26079.7 -03483.3 -07.6075 26311.3
 25 11 2013  15 14  -20.9734 26079.7 -03483.3 -07.6075 26311.3
 25 11 2013  15 15  -20.9740 26079.6 -03483.2 -07.6073 26311.2
 25 11 2013  15 16  -20.9745 26079.5 -03483.1 -07.6073 26311.0
 25 11 2013  15 17  -20.9750 26079.2 -03483.0 -07.6071 26310.8
 25 11 2013  15 18  -20.9758 26079.2 -03483.0 -07.6071 26310.8
 25 11 2013  15 19  -20.9763 26079.1 -03483.0 -07.6071 26310.7
 25 11 2013  15 20  -20.9770 26079.1 -03483.0 -07.6072 26310.6
 25 11 2013  15 21  -20.9775 26078.8 -03483.0 -07.6072 26310.4
 25 11 2013  15 22  -20.9779 26078.5 -03482.8 -07.6069 26310.0
 25 11 2013  15 23  -20.9781 26078.1 -03482.7 -07.6068 26309.7
 25 11 2013  15 24  -20.9786 26078.2 -03482.9 -07.6071 26309.7
 25 11 2013  15 25  -20.9791 26078.2 -03482.9 -07.6072 26309.7
 25 11 2013  15 26  -20.9795 26078.1 -03482.9 -07.6071 26309.6
 25 11 2013  15 27  -20.9798 26077.9 -03482.9 -07.6072 26309.4
 25 11 2013  15 28  -20.9800 26077.7 -03482.9 -07.6073 26309.2
 25 11 2013  15 29  -20.9802 26077.6 -03483.0 -07.6075 26309.2
 25 11 2013  15 30  -20.9804 26077.4 -03483.0 -07.6077 26309.0
 25 11 2013  15 31  -20.9806 26077.4 -03483.1 -07.6079 26309.0
 25 11 2013  15 32  -20.9809 26077.4 -03483.3 -07.6083 26309.0
 25 11 2013  15 33  -20.9811 26077.3 -03483.4 -07.6085 26309.0
 25 11 2013  15 34  -20.9813 26077.2 -03483.4 -07.6086 26308.9
 25 11 2013  15 35  -20.9814 26077.1 -03483.5 -07.6088 26308.7
 25 11 2013  15 36  -20.9814 26077.0 -03483.6 -07.6091 26308.6
 25 11 2013  15 37  -20.9819 26076.8 -03483.8 -07.6094 26308.5
 25 11 2013  15 38  -20.9820 26076.6 -03483.8 -07.6096 26308.3
 25 11 2013  15 39  -20.9821 26076.3 -03483.9 -07.6099 26308.0
 25 11 2013  15 40  -20.9820 26076.0 -03484.0 -07.6101 26307.8
 25 11 2013  15 41  -20.9820 26075.6 -03484.0 -07.6104 26307.3
 25 11 2013  15 42  -20.9820 26075.2 -03484.1 -07.6107 26307.0
 25 11 2013  15 43  -20.9822 26075.2 -03484.3 -07.6112 26307.0
 25 11 2013  15 44  -20.9825 26075.0 -03484.5 -07.6116 26306.8
 25 11 2013  15 45  -20.9826 26074.7 -03484.7 -07.6121 26306.5
 25 11 2013  15 46  -20.9828 26074.4 -03484.9 -07.6125 26306.2
 25 11 2013  15 47  -20.9829 26074.2 -03485.0 -07.6129 26306.0
 25 11 2013  15 48  -20.9834 26074.0 -03485.3 -07.6135 26305.9
 25 11 2013  15 49  -20.9838 26073.9 -03485.6 -07.6141 26305.8
 25 11 2013  15 50  -20.9840 26073.7 -03485.7 -07.6145 26305.6
 25 11 2013  15 51  -20.9839 26073.4 -03485.9 -07.6149 26305.4
 25 11 2013  15 52  -20.9838 26073.2 -03486.1 -07.6154 26305.2
 25 11 2013  15 53  -20.9840 26073.2 -03486.4 -07.6162 26305.3
 25 11 2013  15 54  -20.9844 26073.4 -03486.8 -07.6170 26305.5
 25 11 2013  15 55  -20.9851 26073.6 -03487.1 -07.6176 26305.8
 25 11 2013  15 56  -20.9858 26073.8 -03487.4 -07.6181 26306.0
 25 11 2013  15 57  -20.9863 26073.6 -03487.5 -07.6184 26305.8
 25 11 2013  15 58  -20.9863 26073.0 -03487.4 -07.6184 26305.2
 25 11 2013  15 59  -20.9862 26072.5 -03487.4 -07.6186 26304.7
 25 11 2013  16 00  -20.9864 26071.9 -03487.5 -07.6190 26304.2
 25 11 2013  16 01  -20.9867 26071.5 -03487.7 -07.6194 26303.8
 25 11 2013  16 02  -20.9870 26071.0 -03487.8 -07.6198 26303.3
 25 11 2013  16 03  -20.9872 26070.5 -03487.9 -07.6202 26302.8
 25 11 2013  16 04  -20.9877 26070.3 -03488.1 -07.6208 26302.6
 25 11 2013  16 05  -20.9883 26070.0 -03488.3 -07.6212 26302.3
 25 11 2013  16 06  -20.9888 26069.6 -03488.4 -07.6216 26302.0
 25 11 2013  16 07  -20.9890 26069.4 -03488.6 -07.6219 26301.8
 25 11 2013  16 08  -20.9894 26069.2 -03488.7 -07.6223 26301.6
 25 11 2013  16 09  -20.9898 26069.0 -03488.9 -07.6228 26301.5
 25 11 2013  16 10  -20.9901 26068.8 -03489.1 -07.6232 26301.3
 25 11 2013  16 11  -20.9904 26068.6 -03489.2 -07.6236 26301.1
 25 11 2013  16 12  -20.9909 26068.4 -03489.4 -07.6240 26300.9
 25 11 2013  16 13  -20.9912 26068.2 -03489.4 -07.6241 26300.7
 25 11 2013  16 14  -20.9917 26068.0 -03489.5 -07.6244 26300.5
 25 11 2013  16 15  -20.9919 26067.5 -03489.5 -07.6245 26300.0
 25 11 2013  16 16  -20.9919 26067.2 -03489.6 -07.6248 26299.7
 25 11 2013  16 17  -20.9920 26066.9 -03489.8 -07.6253 26299.5
 25 11 2013  16 18  -20.9925 26066.7 -03490.0 -07.6257 26299.3
 25 11 2013  16 19  -20.9930 26066.6 -03490.1 -07.6261 26299.2
 25 11 2013  16 20  -20.9933 26066.2 -03490.2 -07.6263 26298.9
 25 11 2013  16 21  -20.9935 26065.9 -03490.3 -07.6266 26298.5
 25 11 2013  16 22  -20.9938 26065.6 -03490.4 -07.6270 26298.3
 25 11 2013  16 23  -20.9942 26065.4 -03490.6 -07.6275 26298.1
 25 11 2013  16 24  -20.9944 26065.1 -03490.7 -07.6278 26297.8
 25 11 2013  16 25  -20.9949 26065.0 -03490.9 -07.6282 26297.7
 25 11 2013  16 26  -20.9955 26064.9 -03491.1 -07.6287 26297.6
 25 11 2013  16 27  -20.9960 26064.6 -03491.2 -07.6290 26297.3
 25 11 2013  16 28  -20.9964 26064.3 -03491.3 -07.6293 26297.1
 25 11 2013  16 29  -20.9971 26064.2 -03491.5 -07.6298 26297.0
 25 11 2013  16 30  -20.9978 26063.8 -03491.5 -07.6300 26296.6
 25 11 2013  16 31  -20.9983 26063.5 -03491.6 -07.6302 26296.3
 25 11 2013  16 32  -20.9989 26063.1 -03491.8 -07.6307 26296.0
 25 11 2013  16 33  -20.9995 26062.8 -03491.9 -07.6310 26295.7
 25 11 2013  16 34  -21.0000 26062.5 -03492.0 -07.6314 26295.4
 25 11 2013  16 35  -21.0006 26062.3 -03492.2 -07.6318 26295.2
 25 11 2013  16 36  -21.0013 26062.1 -03492.4 -07.6323 26295.0
 25 11 2013  16 37  -21.0019 26061.9 -03492.5 -07.6327 26294.8
 25 11 2013  16 38  -21.0022 26061.7 -03492.6 -07.6329 26294.7
 25 11 2013  16 39  -21.0027 26061.4 -03492.8 -07.6334 26294.4
 25 11 2013  16 40  -21.0032 26061.2 -03492.9 -07.6337 26294.2
 25 11 2013  16 41  -21.0038 26060.9 -03493.0 -07.6340 26294.0
 25 11 2013  16 42  -21.0042 26060.7 -03493.1 -07.6343 26293.8
 25 11 2013  16 43  -21.0045 26060.5 -03493.2 -07.6346 26293.5
 25 11 2013  16 44  -21.0050 26060.2 -03493.4 -07.6350 26293.3
 25 11 2013  16 45  -21.0054 26060.0 -03493.5 -07.6354 26293.1
 25 11 2013  16 46  -21.0057 26059.6 -03493.6 -07.6356 26292.8
 25 11 2013  16 47  -21.0060 26059.4 -03493.7 -07.6360 26292.5
 25 11 2013  16 48  -21.0063 26059.0 -03493.8 -07.6363 26292.2
 25 11 2013  16 49  -21.0066 26058.8 -03494.0 -07.6367 26292.0
 25 11 2013  16 50  -21.0071 26058.6 -03494.3 -07.6374 26291.9
 25 11 2013  16 51  -21.0076 26058.4 -03494.5 -07.6378 26291.7
 25 11 2013  16 52  -21.0081 26058.1 -03494.6 -07.6382 26291.4
 25 11 2013  16 53  -21.0085 26057.9 -03494.7 -07.6386 26291.2
 25 11 2013  16 54  -21.0089 26057.7 -03494.9 -07.6390 26291.0
 25 11 2013  16 55  -21.0092 26057.5 -03495.1 -07.6395 26290.8
 25 11 2013  16 56  -21.0097 26057.2 -03495.3 -07.6400 26290.6
 25 11 2013  16 57  -21.0102 26057.0 -03495.5 -07.6405 26290.4
 25 11 2013  16 58  -21.0106 26056.8 -03495.7 -07.6410 26290.3
 25 11 2013  16 59  -21.0110 26056.7 -03496.0 -07.6416 26290.1
 25 11 2013  17 00  -21.0115 26056.5 -03496.2 -07.6421 26290.0
 25 11 2013  17 01  -21.0121 26056.2 -03496.3 -07.6425 26289.7
 25 11 2013  17 02  -21.0126 26055.9 -03496.5 -07.6430 26289.5
 25 11 2013  17 03  -21.0129 26055.5 -03496.6 -07.6434 26289.1
 25 11 2013  17 04  -21.0132 26055.2 -03496.8 -07.6439 26288.8
 25 11 2013  17 05  -21.0136 26055.1 -03497.1 -07.6445 26288.8
 25 11 2013  17 06  -21.0143 26054.9 -03497.3 -07.6450 26288.6
 25 11 2013  17 07  -21.0146 26054.6 -03497.4 -07.6452 26288.3
 25 11 2013  17 08  -21.0149 26054.3 -03497.5 -07.6457 26288.0
 25 11 2013  17 09  -21.0154 26054.2 -03497.8 -07.6463 26287.9
 25 11 2013  17 10  -21.0159 26054.1 -03498.0 -07.6468 26287.9
 25 11 2013  17 11  -21.0166 26054.0 -03498.3 -07.6474 26287.8
 25 11 2013  17 12  -21.0171 26053.7 -03498.4 -07.6477 26287.6
 25 11 2013  17 13  -21.0173 26053.2 -03498.4 -07.6478 26287.0
 25 11 2013  17 14  -21.0168 26052.6 -03498.4 -07.6480 26286.5
 25 11 2013  17 15  -21.0172 26052.6 -03498.7 -07.6487 26286.5
 25 11 2013  17 16  -21.0181 26052.8 -03499.1 -07.6496 26286.7
 25 11 2013  17 17  -21.0190 26052.7 -03499.3 -07.6500 26286.7
 25 11 2013  17 18  -21.0196 26052.5 -03499.4 -07.6503 26286.5
 25 11 2013  17 19  -21.0200 26052.3 -03499.6 -07.6507 26286.3
 25 11 2013  17 20  -21.0205 26052.2 -03499.7 -07.6510 26286.2
 25 11 2013  17 21  -21.0212 26052.0 -03499.9 -07.6514 26286.0
 25 11 2013  17 22  -21.0218 26051.9 -03500.0 -07.6517 26285.9
 25 11 2013  17 23  -21.0225 26051.7 -03500.1 -07.6520 26285.8
 25 11 2013  17 24  -21.0231 26051.6 -03500.2 -07.6523 26285.7
 25 11 2013  17 25  -21.0235 26051.4 -03500.3 -07.6526 26285.5
 25 11 2013  17 26  -21.0239 26051.2 -03500.4 -07.6528 26285.3
 25 11 2013  17 27  -21.0246 26051.0 -03500.4 -07.6529 26285.1
 25 11 2013  17 28  -21.0254 26050.6 -03500.4 -07.6530 26284.8
 25 11 2013  17 29  -21.0259 26050.3 -03500.4 -07.6531 26284.4
 25 11 2013  17 30  -21.0265 26050.1 -03500.5 -07.6533 26284.3
 25 11 2013  17 31  -21.0272 26050.0 -03500.6 -07.6534 26284.2
 25 11 2013  17 32  -21.0279 26049.8 -03500.5 -07.6535 26283.9
 25 11 2013  17 33  -21.0284 26049.5 -03500.5 -07.6535 26283.7
 25 11 2013  17 34  -21.0288 26049.4 -03500.5 -07.6535 26283.5
 25 11 2013  17 35  -21.0293 26049.2 -03500.6 -07.6537 26283.4
 25 11 2013  17 36  -21.0298 26049.0 -03500.6 -07.6538 26283.1
 25 11 2013  17 37  -21.0301 26048.8 -03500.6 -07.6538 26283.0
 25 11 2013  17 38  -21.0304 26048.7 -03500.6 -07.6539 26282.8
 25 11 2013  17 39  -21.0307 26048.4 -03500.6 -07.6541 26282.6
 25 11 2013  17 40  -21.0311 26048.2 -03500.7 -07.6542 26282.4
 25 11 2013  17 41  -21.0316 26048.0 -03500.7 -07.6544 26282.2
 25 11 2013  17 42  -21.0321 26047.8 -03500.8 -07.6546 26282.0
 25 11 2013  17 43  -21.0327 26047.7 -03500.8 -07.6547 26281.9
 25 11 2013  17 44  -21.0332 26047.5 -03500.9 -07.6549 26281.8
 25 11 2013  17 45  -21.0336 26047.4 -03500.9 -07.6550 26281.6
 25 11 2013  17 46  -21.0340 26047.2 -03500.9 -07.6551 26281.4
 25 11 2013  17 47  -21.0345 26047.0 -03501.0 -07.6553 26281.2
 25 11 2013  17 48  -21.0351 26046.8 -03501.0 -07.6554 26281.0
 25 11 2013  17 49  -21.0354 26046.6 -03501.0 -07.6555 26280.8
 25 11 2013  17 50  -21.0360 26046.4 -03501.1 -07.6557 26280.7
 25 11 2013  17 51  -21.0366 26046.2 -03501.1 -07.6558 26280.4
 25 11 2013  17 52  -21.0370 26046.0 -03501.2 -07.6560 26280.2
 25 11 2013  17 53  -21.0376 26045.8 -03501.3 -07.6562 26280.1
 25 11 2013  17 54  -21.0381 26045.6 -03501.3 -07.6563 26279.9
 25 11 2013  17 55  -21.0388 26045.5 -03501.4 -07.6565 26279.8
 25 11 2013  17 56  -21.0396 26045.5 -03501.5 -07.6567 26279.8
 25 11 2013  17 57  -21.0404 26045.3 -03501.4 -07.6567 26279.6
 25 11 2013  17 58  -21.0409 26045.0 -03501.3 -07.6566 26279.3
 25 11 2013  17 59  -21.0415 26044.8 -03501.3 -07.6567 26279.1
 25 11 2013  18 00  -21.0418 26044.6 -03501.4 -07.6568 26278.9
 25 11 2013  18 01  -21.0422 26044.5 -03501.4 -07.6569 26278.8
 25 11 2013  18 02  -21.0428 26044.3 -03501.5 -07.6571 26278.6
 25 11 2013  18 03  -21.0433 26044.2 -03501.5 -07.6572 26278.5
 25 11 2013  18 04  -21.0439 26044.1 -03501.6 -07.6573 26278.4
 25 11 2013  18 05  -21.0443 26043.9 -03501.5 -07.6573 26278.2
 25 11 2013  18 06  -21.0448 26043.7 -03501.5 -07.6572 26278.0
 25 11 2013  18 07  -21.0451 26043.6 -03501.5 -07.6574 26277.9
 25 11 2013  18 08  -21.0456 26043.5 -03501.5 -07.6573 26277.8
 25 11 2013  18 09  -21.0461 26043.4 -03501.5 -07.6575 26277.7
 25 11 2013  18 10  -21.0464 26043.3 -03501.5 -07.6575 26277.6
 25 11 2013  18 11  -21.0469 26043.2 -03501.5 -07.6575 26277.5
 25 11 2013  18 12  -21.0474 26043.2 -03501.6 -07.6577 26277.5
 25 11 2013  18 13  -21.0477 26043.1 -03501.6 -07.6576 26277.5
 25 11 2013  18 14  -21.0480 26043.0 -03501.5 -07.6576 26277.4
 25 11 2013  18 15  -21.0485 26043.0 -03501.6 -07.6577 26277.3
 25 11 2013  18 16  -21.0489 26042.9 -03501.6 -07.6577 26277.3
 25 11 2013  18 17  -21.0491 26042.9 -03501.5 -07.6575 26277.2
 25 11 2013  18 18  -21.0494 26042.9 -03501.5 -07.6575 26277.2
 25 11 2013  18 19  -21.0497 26042.9 -03501.5 -07.6576 26277.2
 25 11 2013  18 20  -21.0498 26042.8 -03501.5 -07.6575 26277.2
 25 11 2013  18 21  -21.0499 26042.7 -03501.4 -07.6574 26277.0
 25 11 2013  18 22  -21.0500 26042.6 -03501.4 -07.6574 26276.9
 25 11 2013  18 23  -21.0501 26042.5 -03501.4 -07.6574 26276.8
 25 11 2013  18 24  -21.0502 26042.4 -03501.3 -07.6573 26276.7
 25 11 2013  18 25  -21.0500 26042.3 -03501.3 -07.6574 26276.7
 25 11 2013  18 26  -21.0500 26042.3 -03501.4 -07.6574 26276.6
 25 11 2013  18 27  -21.0502 26042.2 -03501.4 -07.6576 26276.6
 25 11 2013  18 28  -21.0501 26042.1 -03501.4 -07.6575 26276.4
 25 11 2013  18 29  -21.0503 26041.9 -03501.4 -07.6576 26276.2
 25 11 2013  18 30  -21.0503 26041.9 -03501.4 -07.6577 26276.2
 25 11 2013  18 31  -21.0504 26041.8 -03501.5 -07.6578 26276.1
 25 11 2013  18 32  -21.0504 26041.8 -03501.5 -07.6579 26276.1
 25 11 2013  18 33  -21.0505 26041.6 -03501.5 -07.6580 26276.0
 25 11 2013  18 34  -21.0504 26041.5 -03501.6 -07.6581 26275.9
 25 11 2013  18 35  -21.0504 26041.4 -03501.6 -07.6583 26275.8
 25 11 2013  18 36  -21.0504 26041.4 -03501.7 -07.6585 26275.7
 25 11 2013  18 37  -21.0505 26041.3 -03501.8 -07.6587 26275.7
 25 11 2013  18 38  -21.0506 26041.2 -03501.8 -07.6587 26275.6
 25 11 2013  18 39  -21.0505 26041.0 -03501.8 -07.6587 26275.4
 25 11 2013  18 40  -21.0506 26041.0 -03501.9 -07.6590 26275.4
 25 11 2013  18 41  -21.0507 26041.0 -03502.0 -07.6591 26275.4
 25 11 2013  18 42  -21.0506 26040.9 -03502.0 -07.6593 26275.3
 25 11 2013  18 43  -21.0516 26040.7 -03501.9 -07.6591 26275.1
 25 11 2013  18 44  -21.0546 26040.4 -03501.8 -07.6590 26274.8
 25 11 2013  18 45  -21.0562 26040.6 -03501.9 -07.6592 26275.0
 25 11 2013  18 46  -21.0566 26040.3 -03502.1 -07.6596 26274.8
 25 11 2013  18 47  -21.0547 26040.1 -03502.1 -07.6597 26274.5
 25 11 2013  18 48  -21.0528 26039.9 -03502.1 -07.6598 26274.3
 25 11 2013  18 49  -21.0527 26039.8 -03502.2 -07.6599 26274.3
 25 11 2013  18 50  -21.0527 26039.7 -03502.1 -07.6599 26274.2
 25 11 2013  18 51  -21.0527 26039.6 -03502.2 -07.6599 26274.1
 25 11 2013  18 52  -21.0525 26039.5 -03502.1 -07.6599 26274.0
 25 11 2013  18 53  -21.0523 26039.5 -03502.1 -07.6599 26273.9
 25 11 2013  18 54  -21.0521 26039.4 -03502.1 -07.6598 26273.9
 25 11 2013  18 55  -21.0519 26039.4 -03502.1 -07.6598 26273.8
 25 11 2013  18 56  -21.0508 26039.4 -03502.1 -07.6599 26273.8
 25 11 2013  18 57  -21.0496 26039.6 -03502.4 -07.6604 26274.1
 25 11 2013  18 58  -21.0494 26039.6 -03502.4 -07.6604 26274.1
 25 11 2013  18 59  -21.0492 26039.6 -03502.4 -07.6604 26274.1
 25 11 2013  19 00  -21.0489 26039.5 -03502.4 -07.6604 26274.0
 25 11 2013  19 01  -21.0487 26039.5 -03502.3 -07.6603 26273.9
 25 11 2013  19 02  -21.0486 26039.4 -03502.4 -07.6604 26273.9
 25 11 2013  19 03  -21.0484 26039.4 -03502.4 -07.6604 26273.9
 25 11 2013  19 04  -21.0481 26039.4 -03502.4 -07.6605 26273.9
 25 11 2013  19 05  -21.0480 26039.4 -03502.5 -07.6606 26273.9
 25 11 2013  19 06  -21.0481 26039.4 -03502.5 -07.6607 26273.9
 25 11 2013  19 07  -21.0479 26039.4 -03502.5 -07.6607 26273.9
 25 11 2013  19 08  -21.0478 26039.3 -03502.5 -07.6607 26273.8
 25 11 2013  19 09  -21.0477 26039.2 -03502.5 -07.6608 26273.7
 25 11 2013  19 10  -21.0474 26039.2 -03502.5 -07.6608 26273.7
 25 11 2013  19 11  -21.0473 26039.1 -03502.5 -07.6609 26273.6
 25 11 2013  19 12  -21.0472 26039.0 -03502.5 -07.6609 26273.5
 25 11 2013  19 13  -21.0471 26038.9 -03502.5 -07.6610 26273.4
 25 11 2013  19 14  -21.0469 26039.0 -03502.6 -07.6611 26273.5
 25 11 2013  19 15  -21.0470 26039.0 -03502.7 -07.6612 26273.5
 25 11 2013  19 16  -21.0470 26038.9 -03502.7 -07.6612 26273.4
 25 11 2013  19 17  -21.0470 26038.9 -03502.7 -07.6613 26273.4
 25 11 2013  19 18  -21.0470 26038.8 -03502.8 -07.6615 26273.4
 25 11 2013  19 19  -21.0470 26038.9 -03502.8 -07.6616 26273.4
 25 11 2013  19 20  -21.0469 26038.6 -03502.8 -07.6616 26273.2
 25 11 2013  19 21  -21.0469 26038.6 -03502.8 -07.6616 26273.1
 25 11 2013  19 22  -21.0466 26038.5 -03502.8 -07.6617 26273.1
 25 11 2013  19 23  -21.0464 26038.2 -03502.8 -07.6617 26272.8
 25 11 2013  19 24  -21.0463 26038.2 -03502.8 -07.6618 26272.7
 25 11 2013  19 25  -21.0463 26038.2 -03502.9 -07.6619 26272.7
 25 11 2013  19 26  -21.0464 26037.8 -03502.8 -07.6618 26272.4
 25 11 2013  19 27  -21.0464 26037.8 -03502.8 -07.6619 26272.4
 25 11 2013  19 28  -21.0462 26037.5 -03502.7 -07.6618 26272.1
 25 11 2013  19 29  -21.0460 26037.3 -03502.7 -07.6618 26271.9
 25 11 2013  19 30  -21.0457 26037.8 -03503.0 -07.6624 26272.4
 25 11 2013  19 31  -21.0458 26037.8 -03503.1 -07.6626 26272.4
 25 11 2013  19 32  -21.0460 26037.7 -03503.1 -07.6626 26272.3
 25 11 2013  19 33  -21.0459 26037.5 -03503.1 -07.6626 26272.1
 25 11 2013  19 34  -21.0459 26037.3 -03503.1 -07.6626 26271.9
 25 11 2013  19 35  -21.0457 26037.2 -03503.1 -07.6626 26271.8
 25 11 2013  19 36  -21.0455 26037.0 -03503.1 -07.6627 26271.6
 25 11 2013  19 37  -21.0452 26036.8 -03503.1 -07.6628 26271.4
 25 11 2013  19 38  -21.0451 26036.6 -03503.1 -07.6628 26271.3
 25 11 2013  19 39  -21.0450 26036.7 -03503.2 -07.6630 26271.3
 25 11 2013  19 40  -21.0449 26036.4 -03503.1 -07.6629 26271.0
 25 11 2013  19 41  -21.0448 26036.2 -03503.1 -07.6631 26270.8
 25 11 2013  19 42  -21.0448 26036.3 -03503.3 -07.6633 26271.0
 25 11 2013  19 43  -21.0447 26036.1 -03503.3 -07.6633 26270.7
 25 11 2013  19 44  -21.0446 26036.0 -03503.3 -07.6634 26270.7
 25 11 2013  19 45  -21.0444 26036.0 -03503.3 -07.6636 26270.6
 25 11 2013  19 46  -21.0443 26035.8 -03503.4 -07.6636 26270.4
 25 11 2013  19 47  -21.0442 26035.8 -03503.4 -07.6638 26270.5
 25 11 2013  19 48  -21.0441 26035.7 -03503.5 -07.6639 26270.4
 25 11 2013  19 49  -21.0440 26035.7 -03503.5 -07.6640 26270.3
 25 11 2013  19 50  -21.0440 26035.7 -03503.6 -07.6641 26270.4
 25 11 2013  19 51  -21.0439 26035.5 -03503.6 -07.6642 26270.2
 25 11 2013  19 52  -21.0436 26035.5 -03503.6 -07.6643 26270.2
 25 11 2013  19 53  -21.0435 26035.5 -03503.7 -07.6644 26270.2
 25 11 2013  19 54  -21.0435 26035.2 -03503.6 -07.6643 26269.9
 25 11 2013  19 55  -21.0433 26035.1 -03503.6 -07.6644 26269.8
 25 11 2013  19 56  -21.0430 26035.3 -03503.7 -07.6646 26270.0
 25 11 2013  19 57  -21.0428 26035.2 -03503.8 -07.6647 26269.9
 25 11 2013  19 58  -21.0427 26035.4 -03503.9 -07.6650 26270.2
 25 11 2013  19 59  -21.0426 26035.0 -03503.8 -07.6648 26269.7
 25 11 2013  20 00  -21.0425 26035.1 -03503.9 -07.6649 26269.8
 25 11 2013  20 01  -21.0422 26035.0 -03503.9 -07.6650 26269.7
 25 11 2013  20 02  -21.0418 26035.1 -03504.0 -07.6653 26269.9
 25 11 2013  20 03  -21.0416 26035.1 -03504.1 -07.6655 26269.8
 25 11 2013  20 04  -21.0414 26034.8 -03504.1 -07.6654 26269.6
 25 11 2013  20 05  -21.0412 26034.8 -03504.1 -07.6656 26269.6
 25 11 2013  20 06  -21.0409 26034.7 -03504.2 -07.6657 26269.5
 25 11 2013  20 07  -21.0407 26034.7 -03504.3 -07.6659 26269.5
 25 11 2013  20 08  -21.0404 26034.6 -03504.3 -07.6660 26269.3
 25 11 2013  20 09  -21.0401 26034.5 -03504.3 -07.6661 26269.3
 25 11 2013  20 10  -21.0398 26034.4 -03504.4 -07.6663 26269.2
 25 11 2013  20 11  -21.0394 26034.3 -03504.5 -07.6664 26269.1
 25 11 2013  20 12  -21.0390 26034.2 -03504.5 -07.6666 26269.1
 25 11 2013  20 13  -21.0386 26034.1 -03504.5 -07.6667 26268.9
 25 11 2013  20 14  -21.0383 26034.1 -03504.7 -07.6669 26268.9
 25 11 2013  20 15  -21.0379 26034.0 -03504.7 -07.6671 26268.9
 25 11 2013  20 16  -21.0375 26033.9 -03504.8 -07.6673 26268.8
 25 11 2013  20 17  -21.0370 26033.9 -03504.9 -07.6675 26268.8
 25 11 2013  20 18  -21.0366 26034.1 -03505.0 -07.6678 26268.9
 25 11 2013  20 19  -21.0362 26033.6 -03505.0 -07.6679 26268.5
 25 11 2013  20 20  -21.0357 26033.5 -03505.1 -07.6680 26268.4
 25 11 2013  20 21  -21.0354 26033.5 -03505.1 -07.6682 26268.4
 25 11 2013  20 22  -21.0352 26033.2 -03505.2 -07.6683 26268.1
 25 11 2013  20 23  -21.0349 26033.1 -03505.2 -07.6685 26268.1
 25 11 2013  20 24  -21.0346 26032.9 -03505.3 -07.6686 26267.8
 25 11 2013  20 25  -21.0341 26032.9 -03505.4 -07.6688 26267.8
 25 11 2013  20 26  -21.0336 26032.9 -03505.5 -07.6691 26267.9
 25 11 2013  20 27  -21.0332 26032.9 -03505.6 -07.6693 26267.9
 25 11 2013  20 28  -21.0329 26032.8 -03505.7 -07.6695 26267.8
 25 11 2013  20 29  -21.0327 26032.8 -03505.8 -07.6698 26267.8
 25 11 2013  20 30  -21.0323 26032.7 -03505.9 -07.6700 26267.7
 25 11 2013  20 31  -21.0320 26032.7 -03506.0 -07.6703 26267.7
 25 11 2013  20 32  -21.0317 26032.7 -03506.1 -07.6705 26267.8
 25 11 2013  20 33  -21.0315 26032.5 -03506.2 -07.6706 26267.6
 25 11 2013  20 34  -21.0312 26032.3 -03506.1 -07.6706 26267.3
 25 11 2013  20 35  -21.0309 26032.2 -03506.1 -07.6706 26267.3
 25 11 2013  20 36  -21.0305 26032.2 -03506.2 -07.6709 26267.2
 25 11 2013  20 37  -21.0301 26032.1 -03506.3 -07.6711 26267.2
 25 11 2013  20 38  -21.0298 26032.0 -03506.4 -07.6713 26267.1
 25 11 2013  20 39  -21.0294 26031.9 -03506.4 -07.6714 26267.0
 25 11 2013  20 40  -21.0290 26031.8 -03506.4 -07.6715 26266.9
 25 11 2013  20 41  -21.0288 26031.7 -03506.5 -07.6716 26266.8
 25 11 2013  20 42  -21.0284 26031.7 -03506.5 -07.6717 26266.8
 25 11 2013  20 43  -21.0281 26031.5 -03506.5 -07.6717 26266.6
 25 11 2013  20 44  -21.0277 26031.4 -03506.6 -07.6718 26266.6
 25 11 2013  20 45  -21.0274 26031.4 -03506.6 -07.6719 26266.5
 25 11 2013  20 46  -21.0271 26031.3 -03506.6 -07.6720 26266.4
 25 11 2013  20 47  -21.0268 26031.3 -03506.7 -07.6721 26266.4
 25 11 2013  20 48  -21.0265 26031.1 -03506.7 -07.6722 26266.2
 25 11 2013  20 49  -21.0260 26031.2 -03506.7 -07.6723 26266.3
 25 11 2013  20 50  -21.0257 26031.1 -03506.8 -07.6725 26266.2
 25 11 2013  20 51  -21.0253 26031.1 -03506.9 -07.6726 26266.2
 25 11 2013  20 52  -21.0250 26031.0 -03507.0 -07.6728 26266.2
 25 11 2013  20 53  -21.0247 26031.0 -03507.0 -07.6730 26266.1
 25 11 2013  20 54  -21.0243 26031.0 -03507.1 -07.6731 26266.2
 25 11 2013  20 55  -21.0242 26030.9 -03507.2 -07.6733 26266.1
 25 11 2013  20 56  -21.0238 26031.0 -03507.2 -07.6734 26266.2
 25 11 2013  20 57  -21.0235 26030.9 -03507.2 -07.6734 26266.1
 25 11 2013  20 58  -21.0230 26030.8 -03507.2 -07.6735 26266.0
 25 11 2013  20 59  -21.0227 26030.7 -03507.3 -07.6736 26265.9
 25 11 2013  21 00  -21.0223 26030.6 -03507.3 -07.6736 26265.9
 25 11 2013  21 01  -21.0220 26030.5 -03507.3 -07.6737 26265.8
 25 11 2013  21 02  -21.0216 26030.4 -03507.3 -07.6737 26265.6
 25 11 2013  21 03  -21.0214 26030.4 -03507.3 -07.6738 26265.6
 25 11 2013  21 04  -21.0212 26030.3 -03507.4 -07.6740 26265.6
 25 11 2013  21 05  -21.0209 26030.3 -03507.5 -07.6741 26265.6
 25 11 2013  21 06  -21.0204 26030.3 -03507.5 -07.6742 26265.5
 25 11 2013  21 07  -21.0200 26030.3 -03507.6 -07.6743 26265.6
 25 11 2013  21 08  -21.0197 26030.3 -03507.6 -07.6745 26265.6
 25 11 2013  21 09  -21.0193 26030.3 -03507.7 -07.6746 26265.6
 25 11 2013  21 10  -21.0189 26030.4 -03507.8 -07.6748 26265.6
 25 11 2013  21 11  -21.0185 26030.3 -03507.8 -07.6749 26265.6
 25 11 2013  21 12  -21.0181 26030.4 -03507.8 -07.6749 26265.7
 25 11 2013  21 13  -21.0177 26030.4 -03508.0 -07.6752 26265.7
 25 11 2013  21 14  -21.0173 26030.4 -03508.1 -07.6754 26265.7
 25 11 2013  21 15  -21.0168 26030.3 -03508.1 -07.6755 26265.7
 25 11 2013  21 16  -21.0165 26030.3 -03508.2 -07.6757 26265.6
 25 11 2013  21 17  -21.0161 26030.3 -03508.2 -07.6757 26265.6
 25 11 2013  21 18  -21.0157 26030.2 -03508.3 -07.6759 26265.6
 25 11 2013  21 19  -21.0154 26030.1 -03508.3 -07.6760 26265.5
 25 11 2013  21 20  -21.0150 26030.1 -03508.3 -07.6761 26265.5
 25 11 2013  21 21  -21.0147 26030.0 -03508.4 -07.6762 26265.4
 25 11 2013  21 22  -21.0144 26029.9 -03508.4 -07.6763 26265.3
 25 11 2013  21 23  -21.0143 26029.8 -03508.5 -07.6764 26265.2
 25 11 2013  21 24  -21.0141 26029.8 -03508.5 -07.6765 26265.1
 25 11 2013  21 25  -21.0137 26029.6 -03508.5 -07.6766 26265.0
 25 11 2013  21 26  -21.0135 26029.5 -03508.6 -07.6767 26264.9
 25 11 2013  21 27  -21.0132 26029.5 -03508.6 -07.6769 26265.0
 25 11 2013  21 28  -21.0130 26029.5 -03508.7 -07.6770 26264.9
 25 11 2013  21 29  -21.0127 26029.4 -03508.7 -07.6771 26264.8
 25 11 2013  21 30  -21.0125 26029.4 -03508.8 -07.6772 26264.8
 25 11 2013  21 31  -21.0122 26029.4 -03508.9 -07.6774 26264.9
 25 11 2013  21 32  -21.0121 26029.5 -03509.0 -07.6776 26264.9
 25 11 2013  21 33  -21.0119 26029.6 -03509.1 -07.6778 26265.0
 25 11 2013  21 34  -21.0117 26029.6 -03509.2 -07.6780 26265.1
 25 11 2013  21 35  -21.0116 26029.6 -03509.2 -07.6782 26265.1
 25 11 2013  21 36  -21.0114 26029.5 -03509.3 -07.6782 26265.0
 25 11 2013  21 37  -21.0114 26029.4 -03509.3 -07.6783 26264.9
 25 11 2013  21 38  -21.0114 26029.3 -03509.3 -07.6784 26264.8
 25 11 2013  21 39  -21.0115 26029.3 -03509.4 -07.6785 26264.8
 25 11 2013  21 40  -21.0113 26029.4 -03509.4 -07.6786 26264.9
 25 11 2013  21 41  -21.0112 26029.4 -03509.5 -07.6787 26264.9
 25 11 2013  21 42  -21.0110 26029.4 -03509.5 -07.6788 26265.0
 25 11 2013  21 43  -21.0110 26029.4 -03509.6 -07.6790 26264.9
 25 11 2013  21 44  -21.0109 26029.5 -03509.7 -07.6791 26265.0
 25 11 2013  21 45  -21.0108 26029.6 -03509.8 -07.6793 26265.1
 25 11 2013  21 46  -21.0107 26029.6 -03509.8 -07.6794 26265.2
 25 11 2013  21 47  -21.0106 26029.6 -03509.9 -07.6795 26265.2
 25 11 2013  21 48  -21.0107 26029.6 -03509.9 -07.6797 26265.2
 25 11 2013  21 49  -21.0106 26029.6 -03510.0 -07.6797 26265.2
 25 11 2013  21 50  -21.0106 26029.6 -03510.0 -07.6798 26265.2
 25 11 2013  21 51  -21.0105 26029.5 -03510.0 -07.6798 26265.1
 25 11 2013  21 52  -21.0106 26029.5 -03510.1 -07.6800 26265.1
 25 11 2013  21 53  -21.0106 26029.3 -03510.0 -07.6799 26264.9
 25 11 2013  21 54  -21.0106 26029.2 -03510.0 -07.6799 26264.8
 25 11 2013  21 55  -21.0107 26029.1 -03510.0 -07.6800 26264.7
 25 11 2013  21 56  -21.0107 26029.0 -03510.0 -07.6800 26264.6
 25 11 2013  21 57  -21.0106 26028.9 -03510.0 -07.6800 26264.5
 25 11 2013  21 58  -21.0107 26028.8 -03510.0 -07.6799 26264.4
 25 11 2013  21 59  -21.0105 26028.7 -03510.0 -07.6800 26264.3
 25 11 2013  22 00  -21.0105 26028.6 -03510.0 -07.6800 26264.2
 25 11 2013  22 01  -21.0104 26028.5 -03510.0 -07.6800 26264.1
 25 11 2013  22 02  -21.0104 26028.5 -03510.0 -07.6802 26264.1
 25 11 2013  22 03  -21.0105 26028.4 -03510.0 -07.6802 26264.0
 25 11 2013  22 04  -21.0103 26028.4 -03510.0 -07.6802 26264.0
 25 11 2013  22 05  -21.0102 26028.3 -03510.1 -07.6803 26263.9
 25 11 2013  22 06  -21.0102 26028.2 -03510.1 -07.6803 26263.9
 25 11 2013  22 07  -21.0102 26028.2 -03510.1 -07.6804 26263.8
 25 11 2013  22 08  -21.0102 26028.1 -03510.1 -07.6805 26263.7
 25 11 2013  22 09  -21.0101 26028.0 -03510.1 -07.6805 26263.7
 25 11 2013  22 10  -21.0101 26028.0 -03510.2 -07.6806 26263.6
 25 11 2013  22 11  -21.0101 26027.9 -03510.2 -07.6807 26263.6
 25 11 2013  22 12  -21.0100 26027.8 -03510.1 -07.6806 26263.4
 25 11 2013  22 13  -21.0098 26027.7 -03510.1 -07.6806 26263.3
 25 11 2013  22 14  -21.0097 26027.7 -03510.2 -07.6807 26263.4
 25 11 2013  22 15  -21.0096 26027.8 -03510.2 -07.6808 26263.4
 25 11 2013  22 16  -21.0092 26027.8 -03510.3 -07.6810 26263.5
 25 11 2013  22 17  -21.0092 26027.8 -03510.4 -07.6811 26263.5
 25 11 2013  22 18  -21.0095 26027.5 -03510.3 -07.6810 26263.2
 25 11 2013  22 19  -21.0096 26027.2 -03510.2 -07.6809 26262.8
 25 11 2013  22 20  -21.0096 26026.9 -03510.1 -07.6808 26262.5
 25 11 2013  22 21  -21.0093 26026.9 -03510.1 -07.6808 26262.5
 25 11 2013  22 22  -21.0091 26026.8 -03510.1 -07.6808 26262.5
 25 11 2013  22 23  -21.0090 26026.8 -03510.1 -07.6809 26262.4
 25 11 2013  22 24  -21.0090 26026.8 -03510.2 -07.6810 26262.4
 25 11 2013  22 25  -21.0090 26026.7 -03510.3 -07.6812 26262.4
 25 11 2013  22 26  -21.0091 26026.8 -03510.3 -07.6813 26262.4
 25 11 2013  22 27  -21.0092 26026.7 -03510.4 -07.6814 26262.4
 25 11 2013  22 28  -21.0091 26026.7 -03510.4 -07.6815 26262.4
 25 11 2013  22 29  -21.0091 26026.8 -03510.5 -07.6816 26262.5
 25 11 2013  22 30  -21.0090 26026.9 -03510.5 -07.6818 26262.6
 25 11 2013  22 31  -21.0090 26026.9 -03510.6 -07.6819 26262.6
 25 11 2013  22 32  -21.0090 26027.0 -03510.6 -07.6819 26262.7
 25 11 2013  22 33  -21.0090 26027.0 -03510.7 -07.6820 26262.7
 25 11 2013  22 34  -21.0089 26027.0 -03510.7 -07.6820 26262.7
 25 11 2013  22 35  -21.0089 26027.0 -03510.7 -07.6820 26262.7
 25 11 2013  22 36  -21.0088 26026.9 -03510.7 -07.6820 26262.6
 25 11 2013  22 37  -21.0089 26026.9 -03510.7 -07.6820 26262.6
 25 11 2013  22 38  -21.0089 26026.9 -03510.7 -07.6820 26262.6
 25 11 2013  22 39  -21.0088 26026.9 -03510.7 -07.6821 26262.6
 25 11 2013  22 40  -21.0088 26026.9 -03510.7 -07.6821 26262.6
 25 11 2013  22 41  -21.0087 26026.9 -03510.7 -07.6821 26262.6
 25 11 2013  22 42  -21.0087 26026.9 -03510.7 -07.6821 26262.6
 25 11 2013  22 43  -21.0087 26026.9 -03510.7 -07.6822 26262.6
 25 11 2013  22 44  -21.0087 26026.8 -03510.7 -07.6822 26262.5
 25 11 2013  22 45  -21.0086 26026.8 -03510.7 -07.6822 26262.5
 25 11 2013  22 46  -21.0085 26026.8 -03510.7 -07.6822 26262.5
 25 11 2013  22 47  -21.0085 26026.8 -03510.7 -07.6822 26262.5
 25 11 2013  22 48  -21.0084 26026.8 -03510.7 -07.6822 26262.5
 25 11 2013  22 49  -21.0082 26026.8 -03510.8 -07.6823 26262.5
 25 11 2013  22 50  -21.0083 26026.8 -03510.8 -07.6823 26262.5
 25 11 2013  22 51  -21.0081 26026.8 -03510.8 -07.6823 26262.5
 25 11 2013  22 52  -21.0081 26026.8 -03510.8 -07.6824 26262.5
 25 11 2013  22 53  -21.0082 26026.8 -03510.8 -07.6823 26262.5
 25 11 2013  22 54  -21.0082 26026.7 -03510.8 -07.6823 26262.4
 25 11 2013  22 55  -21.0081 26026.6 -03510.7 -07.6823 26262.3
 25 11 2013  22 56  -21.0082 26026.6 -03510.8 -07.6823 26262.3
 25 11 2013  22 57  -21.0082 26026.5 -03510.7 -07.6823 26262.2
 25 11 2013  22 58  -21.0082 26026.5 -03510.7 -07.6823 26262.2
 25 11 2013  22 59  -21.0081 26026.5 -03510.7 -07.6823 26262.2
 25 11 2013  23 00  -21.0081 26026.5 -03510.8 -07.6824 26262.2
 25 11 2013  23 01  -21.0081 26026.5 -03510.8 -07.6824 26262.2
 25 11 2013  23 02  -21.0080 26026.5 -03510.8 -07.6824 26262.2
 25 11 2013  23 03  -21.0081 26026.4 -03510.8 -07.6825 26262.2
 25 11 2013  23 04  -21.0081 26026.4 -03510.8 -07.6825 26262.1
 25 11 2013  23 05  -21.0080 26026.4 -03510.8 -07.6825 26262.1
 25 11 2013  23 06  -21.0080 26026.3 -03510.8 -07.6826 26262.1
 25 11 2013  23 07  -21.0079 26026.4 -03510.8 -07.6826 26262.1
 25 11 2013  23 08  -21.0078 26026.4 -03510.9 -07.6826 26262.1
 25 11 2013  23 09  -21.0077 26026.4 -03510.9 -07.6826 26262.1
 25 11 2013  23 10  -21.0076 26026.4 -03510.9 -07.6826 26262.1
 25 11 2013  23 11  -21.0075 26026.4 -03510.9 -07.6826 26262.1
 25 11 2013  23 12  -21.0075 26026.3 -03510.9 -07.6827 26262.0
 25 11 2013  23 13  -21.0075 26026.3 -03510.9 -07.6827 26262.0
 25 11 2013  23 14  -21.0074 26026.2 -03510.9 -07.6826 26262.0
 25 11 2013  23 15  -21.0074 26026.2 -03510.9 -07.6827 26262.0
 25 11 2013  23 16  -21.0074 26026.2 -03510.9 -07.6827 26262.0
 25 11 2013  23 17  -21.0073 26026.2 -03510.9 -07.6827 26261.9
 25 11 2013  23 18  -21.0073 26026.1 -03510.9 -07.6827 26261.9
 25 11 2013  23 19  -21.0071 26026.1 -03510.8 -07.6826 26261.9
 25 11 2013  23 20  -21.0070 26026.0 -03510.8 -07.6827 26261.8
 25 11 2013  23 21  -21.0070 26026.0 -03510.9 -07.6827 26261.7
 25 11 2013  23 22  -21.0069 26026.0 -03510.9 -07.6827 26261.7
 25 11 2013  23 23  -21.0067 26025.9 -03510.8 -07.6827 26261.6
 25 11 2013  23 24  -21.0065 26025.8 -03510.8 -07.6826 26261.6
 25 11 2013  23 25  -21.0064 26025.9 -03510.9 -07.6827 26261.6
 25 11 2013  23 26  -21.0062 26025.9 -03510.9 -07.6828 26261.7
 25 11 2013  23 27  -21.0063 26026.0 -03511.0 -07.6830 26261.7
 25 11 2013  23 28  -21.0064 26026.0 -03511.0 -07.6830 26261.7
 25 11 2013  23 29  -21.0066 26026.0 -03511.0 -07.6831 26261.7
 25 11 2013  23 30  -21.0067 26026.0 -03511.0 -07.6830 26261.7
 25 11 2013  23 31  -21.0067 26026.0 -03511.0 -07.6831 26261.7
 25 11 2013  23 32  -21.0068 26025.9 -03511.0 -07.6831 26261.7
 25 11 2013  23 33  -21.0067 26025.9 -03511.0 -07.6831 26261.7
 25 11 2013  23 34  -21.0067 26025.9 -03511.0 -07.6831 26261.7
 25 11 2013  23 35  -21.0065 26025.9 -03511.0 -07.6831 26261.7
 25 11 2013  23 36  -21.0064 26025.9 -03511.1 -07.6832 26261.7
 25 11 2013  23 37  -21.0063 26026.0 -03511.1 -07.6832 26261.7
 25 11 2013  23 38  -21.0062 26026.0 -03511.1 -07.6832 26261.8
 25 11 2013  23 39  -21.0062 26026.1 -03511.2 -07.6833 26261.9
 25 11 2013  23 40  -21.0062 26026.1 -03511.2 -07.6834 26261.8
 25 11 2013  23 41  -21.0061 26026.0 -03511.2 -07.6834 26261.8
 25 11 2013  23 42  -21.0061 26026.0 -03511.2 -07.6834 26261.8
 25 11 2013  23 43  -21.0060 26026.0 -03511.2 -07.6834 26261.8
 25 11 2013  23 44  -21.0059 26026.0 -03511.2 -07.6834 26261.8
 25 11 2013  23 45  -21.0058 26026.0 -03511.2 -07.6834 26261.8
 25 11 2013  23 46  -21.0057 26026.0 -03511.2 -07.6835 26261.8
 25 11 2013  23 47  -21.0057 26026.0 -03511.2 -07.6835 26261.8
 25 11 2013  23 48  -21.0057 26025.9 -03511.2 -07.6835 26261.7
 25 11 2013  23 49  -21.0057 26025.9 -03511.3 -07.6836 26261.7
 25 11 2013  23 50  -21.0057 26025.8 -03511.2 -07.6835 26261.6
 25 11 2013  23 51  -21.0056 26025.8 -03511.2 -07.6835 26261.6
 25 11 2013  23 52  -21.0055 26025.7 -03511.2 -07.6835 26261.5
 25 11 2013  23 53  -21.0054 26025.7 -03511.2 -07.6836 26261.5
 25 11 2013  23 54  -21.0054 26025.7 -03511.2 -07.6836 26261.5
 25 11 2013  23 55  -21.0054 26025.7 -03511.2 -07.6836 26261.5
 25 11 2013  23 56  -21.0055 26025.7 -03511.2 -07.6836 26261.4
 25 11 2013  23 57  -21.0055 26025.6 -03511.3 -07.6837 26261.4
