SAO LUIS EMBRACE-03 <146> 1 Min. Reported data

 DD MM YYYY  HH MM   D(Deg)  H(nT)   Z(nT)   I(Deg)   F(nT)

 26 05 2013  00 00  -21.0770 26002.3 -03445.1 -07.5473 26229.5
 26 05 2013  00 01  -21.0772 26003.2 -03445.6 -07.5480 26230.5
 26 05 2013  00 02  -21.0777 26004.2 -03446.1 -07.5489 26231.6
 26 05 2013  00 03  -21.0780 26004.1 -03446.0 -07.5488 26231.5
 26 05 2013  00 04  -21.0771 26003.5 -03445.6 -07.5480 26230.8
 26 05 2013  00 05  -21.0761 26003.3 -03445.2 -07.5473 26230.5
 26 05 2013  00 06  -21.0754 26004.3 -03445.6 -07.5478 26231.6
 26 05 2013  00 07  -21.0754 26005.4 -03446.2 -07.5487 26232.8
 26 05 2013  00 08  -21.0755 26005.8 -03446.4 -07.5491 26233.1
 26 05 2013  00 09  -21.0755 26005.1 -03446.0 -07.5484 26232.5
 26 05 2013  00 10  -21.0754 26004.3 -03445.5 -07.5475 26231.5
 26 05 2013  00 11  -21.0749 26004.1 -03445.2 -07.5470 26231.4
 26 05 2013  00 12  -21.0741 26005.3 -03445.7 -07.5476 26232.6
 26 05 2013  00 13  -21.0732 26006.7 -03446.3 -07.5487 26234.0
 26 05 2013  00 14  -21.0724 26007.8 -03446.9 -07.5496 26235.3
 26 05 2013  00 15  -21.0717 26009.2 -03447.5 -07.5505 26236.7
 26 05 2013  00 16  -21.0719 26009.9 -03447.8 -07.5510 26237.4
 26 05 2013  00 17  -21.0719 26011.0 -03448.3 -07.5517 26238.5
 26 05 2013  00 18  -21.0720 26011.2 -03448.3 -07.5517 26238.7
 26 05 2013  00 19  -21.0716 26011.4 -03448.2 -07.5514 26238.9
 26 05 2013  00 20  -21.0709 26011.6 -03448.1 -07.5511 26239.2
 26 05 2013  00 21  -21.0706 26012.4 -03448.3 -07.5514 26239.9
 26 05 2013  00 22  -21.0707 26012.7 -03448.5 -07.5516 26240.3
 26 05 2013  00 23  -21.0718 26012.4 -03448.3 -07.5513 26239.9
 26 05 2013  00 24  -21.0727 26012.8 -03448.3 -07.5513 26240.4
 26 05 2013  00 25  -21.0727 26013.5 -03448.5 -07.5514 26241.1
 26 05 2013  00 26  -21.0722 26014.6 -03448.8 -07.5518 26242.3
 26 05 2013  00 27  -21.0712 26016.6 -03449.5 -07.5528 26244.3
 26 05 2013  00 28  -21.0699 26020.2 -03451.0 -07.5550 26248.1
 26 05 2013  00 29  -21.0692 26023.8 -03452.6 -07.5574 26251.8
 26 05 2013  00 30  -21.0687 26027.9 -03454.4 -07.5600 26256.1
 26 05 2013  00 31  -21.0682 26031.0 -03455.6 -07.5617 26259.3
 26 05 2013  00 32  -21.0690 26032.0 -03455.8 -07.5619 26260.4
 26 05 2013  00 33  -21.0707 26031.1 -03454.9 -07.5603 26259.4
 26 05 2013  00 34  -21.0713 26032.0 -03454.6 -07.5592 26260.2
 26 05 2013  00 35  -21.0705 26035.0 -03455.4 -07.5602 26263.3
 26 05 2013  00 36  -21.0698 26036.6 -03455.8 -07.5606 26265.0
 26 05 2013  00 37  -21.0697 26037.9 -03455.9 -07.5603 26266.2
 26 05 2013  00 38  -21.0690 26040.3 -03456.4 -07.5608 26268.7
 26 05 2013  00 39  -21.0675 26043.0 -03457.1 -07.5616 26271.4
 26 05 2013  00 40  -21.0656 26045.5 -03457.9 -07.5626 26274.0
 26 05 2013  00 41  -21.0670 26043.3 -03456.7 -07.5607 26271.7
 26 05 2013  00 42  -21.0704 26038.9 -03454.1 -07.5563 26267.0
 26 05 2013  00 43  -21.0719 26035.9 -03451.9 -07.5523 26263.7
 26 05 2013  00 44  -21.0708 26037.1 -03451.7 -07.5515 26264.9
 26 05 2013  00 45  -21.0684 26040.7 -03453.0 -07.5534 26268.7
 26 05 2013  00 46  -21.0653 26045.4 -03455.1 -07.5566 26273.6
 26 05 2013  00 47  -21.0633 26048.4 -03456.6 -07.5589 26276.7
 26 05 2013  00 48  -21.0641 26045.6 -03455.3 -07.5569 26273.8
 26 05 2013  00 49  -21.0663 26043.3 -03453.8 -07.5544 26271.3
 26 05 2013  00 50  -21.0679 26039.4 -03451.5 -07.5505 26267.2
 26 05 2013  00 51  -21.0668 26039.8 -03450.9 -07.5492 26267.5
 26 05 2013  00 52  -21.0648 26041.3 -03451.5 -07.5499 26269.0
 26 05 2013  00 53  -21.0639 26042.4 -03451.9 -07.5505 26270.1
 26 05 2013  00 54  -21.0628 26043.7 -03452.5 -07.5513 26271.6
 26 05 2013  00 55  -21.0635 26041.9 -03451.8 -07.5504 26269.7
 26 05 2013  00 56  -21.0667 26036.7 -03449.2 -07.5463 26264.2
 26 05 2013  00 57  -21.0683 26034.2 -03447.5 -07.5433 26261.5
 26 05 2013  00 58  -21.0668 26035.9 -03447.9 -07.5436 26263.2
 26 05 2013  00 59  -21.0644 26039.4 -03449.4 -07.5460 26266.9
 26 05 2013  01 00  -21.0628 26043.3 -03451.5 -07.5494 26271.1
 26 05 2013  01 01  -21.0622 26045.6 -03452.8 -07.5515 26273.5
 26 05 2013  01 02  -21.0635 26043.2 -03451.9 -07.5502 26271.0
 26 05 2013  01 03  -21.0659 26039.4 -03449.7 -07.5465 26266.9
 26 05 2013  01 04  -21.0665 26038.6 -03448.7 -07.5446 26265.9
 26 05 2013  01 05  -21.0660 26038.7 -03448.6 -07.5443 26266.1
 26 05 2013  01 06  -21.0668 26036.6 -03447.6 -07.5429 26263.8
 26 05 2013  01 07  -21.0684 26033.5 -03446.1 -07.5405 26260.6
 26 05 2013  01 08  -21.0695 26028.5 -03443.6 -07.5365 26255.3
 26 05 2013  01 09  -21.0674 26028.9 -03443.2 -07.5356 26255.7
 26 05 2013  01 10  -21.0661 26029.6 -03444.1 -07.5372 26256.4
 26 05 2013  01 11  -21.0677 26027.5 -03443.6 -07.5368 26254.4
 26 05 2013  01 12  -21.0687 26025.2 -03442.5 -07.5351 26251.8
 26 05 2013  01 13  -21.0678 26024.8 -03442.4 -07.5349 26251.5
 26 05 2013  01 14  -21.0668 26024.2 -03442.3 -07.5350 26250.9
 26 05 2013  01 15  -21.0669 26023.9 -03442.4 -07.5353 26250.6
 26 05 2013  01 16  -21.0666 26024.6 -03442.9 -07.5361 26251.3
 26 05 2013  01 17  -21.0657 26026.7 -03444.2 -07.5383 26253.6
 26 05 2013  01 18  -21.0651 26026.5 -03444.5 -07.5390 26253.4
 26 05 2013  01 19  -21.0643 26027.0 -03444.6 -07.5392 26253.9
 26 05 2013  01 20  -21.0627 26028.8 -03445.5 -07.5406 26255.9
 26 05 2013  01 21  -21.0618 26030.6 -03446.6 -07.5423 26257.8
 26 05 2013  01 22  -21.0624 26030.4 -03446.7 -07.5426 26257.6
 26 05 2013  01 23  -21.0636 26029.9 -03446.3 -07.5420 26257.1
 26 05 2013  01 24  -21.0639 26030.0 -03446.2 -07.5416 26257.1
 26 05 2013  01 25  -21.0640 26029.3 -03445.8 -07.5410 26256.4
 26 05 2013  01 26  -21.0652 26027.9 -03445.0 -07.5398 26254.9
 26 05 2013  01 27  -21.0669 26025.4 -03443.8 -07.5378 26252.2
 26 05 2013  01 28  -21.0675 26023.5 -03442.6 -07.5358 26250.2
 26 05 2013  01 29  -21.0662 26023.1 -03442.3 -07.5352 26249.8
 26 05 2013  01 30  -21.0651 26023.2 -03442.5 -07.5357 26249.9
 26 05 2013  01 31  -21.0649 26022.9 -03442.6 -07.5359 26249.6
 26 05 2013  01 32  -21.0652 26022.7 -03442.7 -07.5363 26249.5
 26 05 2013  01 33  -21.0654 26023.0 -03442.9 -07.5367 26249.8
 26 05 2013  01 34  -21.0648 26023.5 -03443.3 -07.5373 26250.3
 26 05 2013  01 35  -21.0638 26024.2 -03443.7 -07.5380 26251.1
 26 05 2013  01 36  -21.0631 26025.3 -03444.4 -07.5391 26252.2
 26 05 2013  01 37  -21.0621 26026.4 -03445.0 -07.5402 26253.4
 26 05 2013  01 38  -21.0613 26026.5 -03445.2 -07.5406 26253.6
 26 05 2013  01 39  -21.0616 26025.7 -03444.9 -07.5402 26252.7
 26 05 2013  01 40  -21.0628 26024.3 -03444.2 -07.5391 26251.3
 26 05 2013  01 41  -21.0640 26023.4 -03443.6 -07.5381 26250.2
 26 05 2013  01 42  -21.0641 26023.0 -03443.4 -07.5376 26249.8
 26 05 2013  01 43  -21.0641 26022.6 -03443.2 -07.5373 26249.4
 26 05 2013  01 44  -21.0647 26022.4 -03443.2 -07.5374 26249.2
 26 05 2013  01 45  -21.0651 26022.1 -03443.1 -07.5373 26248.9
 26 05 2013  01 46  -21.0656 26021.9 -03443.1 -07.5373 26248.7
 26 05 2013  01 47  -21.0656 26021.5 -03442.9 -07.5370 26248.3
 26 05 2013  01 48  -21.0656 26020.9 -03442.7 -07.5367 26247.7
 26 05 2013  01 49  -21.0654 26020.4 -03442.5 -07.5364 26247.1
 26 05 2013  01 50  -21.0654 26019.7 -03442.2 -07.5361 26246.4
 26 05 2013  01 51  -21.0658 26018.6 -03441.8 -07.5356 26245.2
 26 05 2013  01 52  -21.0661 26018.0 -03441.6 -07.5352 26244.7
 26 05 2013  01 53  -21.0661 26017.3 -03441.3 -07.5348 26243.9
 26 05 2013  01 54  -21.0657 26016.9 -03441.2 -07.5347 26243.5
 26 05 2013  01 55  -21.0659 26016.3 -03441.1 -07.5346 26242.8
 26 05 2013  01 56  -21.0659 26015.8 -03440.9 -07.5343 26242.3
 26 05 2013  01 57  -21.0656 26016.5 -03441.5 -07.5353 26243.2
 26 05 2013  01 58  -21.0655 26016.0 -03441.4 -07.5354 26242.6
 26 05 2013  01 59  -21.0669 26015.2 -03441.2 -07.5352 26241.9
 26 05 2013  02 00  -21.0688 26013.8 -03440.7 -07.5344 26240.3
 26 05 2013  02 01  -21.0702 26012.1 -03439.9 -07.5331 26238.6
 26 05 2013  02 02  -21.0701 26010.8 -03439.2 -07.5321 26237.2
 26 05 2013  02 03  -21.0699 26010.4 -03439.1 -07.5319 26236.8
 26 05 2013  02 04  -21.0693 26010.9 -03439.4 -07.5325 26237.3
 26 05 2013  02 05  -21.0687 26011.8 -03440.1 -07.5337 26238.3
 26 05 2013  02 06  -21.0685 26012.9 -03440.9 -07.5352 26239.5
 26 05 2013  02 07  -21.0685 26013.7 -03441.5 -07.5363 26240.4
 26 05 2013  02 08  -21.0683 26014.5 -03442.0 -07.5370 26241.2
 26 05 2013  02 09  -21.0680 26015.0 -03442.3 -07.5376 26241.8
 26 05 2013  02 10  -21.0682 26015.3 -03442.4 -07.5378 26242.1
 26 05 2013  02 11  -21.0682 26015.5 -03442.5 -07.5378 26242.3
 26 05 2013  02 12  -21.0675 26016.1 -03442.6 -07.5380 26242.9
 26 05 2013  02 13  -21.0664 26017.9 -03443.5 -07.5394 26244.8
 26 05 2013  02 14  -21.0666 26020.4 -03444.8 -07.5415 26247.5
 26 05 2013  02 15  -21.0692 26021.2 -03445.4 -07.5425 26248.3
 26 05 2013  02 16  -21.0716 26021.2 -03445.2 -07.5421 26248.3
 26 05 2013  02 17  -21.0715 26021.9 -03445.2 -07.5418 26249.0
 26 05 2013  02 18  -21.0700 26023.7 -03445.7 -07.5424 26250.9
 26 05 2013  02 19  -21.0697 26024.8 -03446.1 -07.5430 26252.0
 26 05 2013  02 20  -21.0699 26023.2 -03445.2 -07.5415 26250.2
 26 05 2013  02 21  -21.0700 26021.2 -03443.8 -07.5391 26248.1
 26 05 2013  02 22  -21.0696 26020.3 -03443.1 -07.5378 26247.1
 26 05 2013  02 23  -21.0692 26019.1 -03442.4 -07.5366 26245.8
 26 05 2013  02 24  -21.0687 26018.3 -03442.0 -07.5359 26245.0
 26 05 2013  02 25  -21.0681 26018.0 -03442.0 -07.5360 26244.7
 26 05 2013  02 26  -21.0679 26017.3 -03441.8 -07.5358 26244.0
 26 05 2013  02 27  -21.0674 26017.4 -03441.8 -07.5357 26244.0
 26 05 2013  02 28  -21.0657 26019.7 -03442.8 -07.5374 26246.5
 26 05 2013  02 29  -21.0634 26022.6 -03444.5 -07.5400 26249.6
 26 05 2013  02 30  -21.0621 26025.2 -03445.8 -07.5423 26252.3
 26 05 2013  02 31  -21.0611 26027.2 -03446.9 -07.5440 26254.5
 26 05 2013  02 32  -21.0627 26027.2 -03447.0 -07.5442 26254.5
 26 05 2013  02 33  -21.0653 26025.7 -03446.1 -07.5427 26252.8
 26 05 2013  02 34  -21.0642 26026.8 -03446.1 -07.5425 26253.9
 26 05 2013  02 35  -21.0632 26027.6 -03446.4 -07.5429 26254.8
 26 05 2013  02 36  -21.0638 26027.8 -03446.4 -07.5428 26255.0
 26 05 2013  02 37  -21.0638 26028.5 -03446.6 -07.5429 26255.6
 26 05 2013  02 38  -21.0654 26026.4 -03445.6 -07.5415 26253.5
 26 05 2013  02 39  -21.0690 26022.4 -03443.7 -07.5384 26249.3
 26 05 2013  02 40  -21.0689 26021.0 -03442.6 -07.5364 26247.8
 26 05 2013  02 41  -21.0682 26020.7 -03442.4 -07.5361 26247.4
 26 05 2013  02 42  -21.0690 26019.7 -03442.1 -07.5357 26246.4
 26 05 2013  02 43  -21.0692 26019.6 -03442.2 -07.5359 26246.3
 26 05 2013  02 44  -21.0697 26018.4 -03441.8 -07.5355 26245.1
 26 05 2013  02 45  -21.0702 26016.5 -03441.0 -07.5344 26243.1
 26 05 2013  02 46  -21.0693 26016.4 -03440.9 -07.5341 26243.0
 26 05 2013  02 47  -21.0690 26016.4 -03441.2 -07.5348 26243.0
 26 05 2013  02 48  -21.0700 26014.4 -03440.5 -07.5339 26240.9
 26 05 2013  02 49  -21.0688 26015.2 -03440.7 -07.5341 26241.7
 26 05 2013  02 50  -21.0673 26016.4 -03441.6 -07.5356 26243.1
 26 05 2013  02 51  -21.0678 26016.8 -03442.0 -07.5364 26243.5
 26 05 2013  02 52  -21.0668 26018.2 -03442.8 -07.5376 26244.9
 26 05 2013  02 53  -21.0664 26018.0 -03442.9 -07.5379 26244.8
 26 05 2013  02 54  -21.0665 26016.6 -03442.2 -07.5370 26243.4
 26 05 2013  02 55  -21.0647 26016.0 -03441.7 -07.5360 26242.6
 26 05 2013  02 56  -21.0627 26017.1 -03442.2 -07.5368 26243.9
 26 05 2013  02 57  -21.0616 26018.1 -03442.9 -07.5380 26244.9
 26 05 2013  02 58  -21.0609 26019.0 -03443.5 -07.5390 26245.9
 26 05 2013  02 59  -21.0598 26019.9 -03444.0 -07.5399 26246.9
 26 05 2013  03 00  -21.0593 26020.7 -03444.5 -07.5406 26247.7
 26 05 2013  03 01  -21.0585 26020.5 -03444.4 -07.5405 26247.5
 26 05 2013  03 02  -21.0579 26019.8 -03444.0 -07.5399 26246.7
 26 05 2013  03 03  -21.0585 26017.6 -03443.2 -07.5387 26244.5
 26 05 2013  03 04  -21.0600 26015.0 -03441.9 -07.5367 26241.7
 26 05 2013  03 05  -21.0608 26014.6 -03441.7 -07.5363 26241.3
 26 05 2013  03 06  -21.0614 26014.5 -03441.7 -07.5365 26241.1
 26 05 2013  03 07  -21.0615 26013.8 -03441.6 -07.5364 26240.4
 26 05 2013  03 08  -21.0606 26013.4 -03441.4 -07.5361 26240.1
 26 05 2013  03 09  -21.0589 26015.1 -03442.3 -07.5374 26241.8
 26 05 2013  03 10  -21.0581 26014.8 -03442.5 -07.5379 26241.6
 26 05 2013  03 11  -21.0588 26012.7 -03441.7 -07.5369 26239.4
 26 05 2013  03 12  -21.0612 26009.6 -03440.4 -07.5349 26236.1
 26 05 2013  03 13  -21.0623 26008.6 -03439.8 -07.5340 26235.0
 26 05 2013  03 14  -21.0610 26008.8 -03439.9 -07.5342 26235.3
 26 05 2013  03 15  -21.0602 26009.5 -03440.4 -07.5350 26236.1
 26 05 2013  03 16  -21.0592 26012.0 -03441.8 -07.5373 26238.7
 26 05 2013  03 17  -21.0574 26015.8 -03443.8 -07.5405 26242.8
 26 05 2013  03 18  -21.0556 26019.5 -03445.8 -07.5438 26246.6
 26 05 2013  03 19  -21.0552 26019.4 -03446.0 -07.5443 26246.6
 26 05 2013  03 20  -21.0556 26017.7 -03445.1 -07.5429 26244.8
 26 05 2013  03 21  -21.0552 26017.2 -03444.6 -07.5420 26244.3
 26 05 2013  03 22  -21.0538 26017.8 -03444.8 -07.5421 26244.9
 26 05 2013  03 23  -21.0541 26018.5 -03445.2 -07.5428 26245.6
 26 05 2013  03 24  -21.0561 26018.6 -03445.4 -07.5433 26245.7
 26 05 2013  03 25  -21.0578 26017.8 -03445.1 -07.5429 26244.9
 26 05 2013  03 26  -21.0571 26016.1 -03444.1 -07.5412 26243.1
 26 05 2013  03 27  -21.0568 26015.1 -03443.4 -07.5399 26242.0
 26 05 2013  03 28  -21.0577 26014.7 -03443.2 -07.5396 26241.5
 26 05 2013  03 29  -21.0577 26014.5 -03443.2 -07.5396 26241.4
 26 05 2013  03 30  -21.0568 26015.4 -03443.5 -07.5401 26242.3
 26 05 2013  03 31  -21.0559 26016.7 -03444.2 -07.5412 26243.7
 26 05 2013  03 32  -21.0555 26018.1 -03445.0 -07.5426 26245.2
 26 05 2013  03 33  -21.0544 26020.7 -03446.1 -07.5443 26247.9
 26 05 2013  03 34  -21.0526 26024.1 -03447.8 -07.5469 26251.5
 26 05 2013  03 35  -21.0519 26025.5 -03448.6 -07.5481 26253.0
 26 05 2013  03 36  -21.0518 26025.5 -03448.5 -07.5480 26253.0
 26 05 2013  03 37  -21.0515 26024.4 -03447.8 -07.5467 26251.8
 26 05 2013  03 38  -21.0506 26024.4 -03447.4 -07.5459 26251.7
 26 05 2013  03 39  -21.0499 26024.2 -03447.1 -07.5453 26251.5
 26 05 2013  03 40  -21.0495 26024.0 -03446.9 -07.5450 26251.3
 26 05 2013  03 41  -21.0498 26023.9 -03446.8 -07.5448 26251.2
 26 05 2013  03 42  -21.0496 26024.2 -03446.9 -07.5448 26251.5
 26 05 2013  03 43  -21.0493 26025.0 -03447.2 -07.5452 26252.3
 26 05 2013  03 44  -21.0495 26025.6 -03447.5 -07.5457 26253.0
 26 05 2013  03 45  -21.0494 26027.2 -03448.2 -07.5468 26254.6
 26 05 2013  03 46  -21.0490 26029.2 -03449.1 -07.5482 26256.7
 26 05 2013  03 47  -21.0491 26030.2 -03449.5 -07.5489 26257.7
 26 05 2013  03 48  -21.0498 26029.9 -03449.3 -07.5485 26257.4
 26 05 2013  03 49  -21.0509 26028.2 -03448.4 -07.5471 26255.6
 26 05 2013  03 50  -21.0524 26025.2 -03446.8 -07.5443 26252.5
 26 05 2013  03 51  -21.0532 26023.2 -03445.5 -07.5422 26250.3
 26 05 2013  03 52  -21.0537 26022.1 -03444.9 -07.5411 26249.1
 26 05 2013  03 53  -21.0539 26022.2 -03444.9 -07.5411 26249.2
 26 05 2013  03 54  -21.0542 26022.7 -03445.3 -07.5418 26249.8
 26 05 2013  03 55  -21.0547 26023.3 -03445.7 -07.5425 26250.4
 26 05 2013  03 56  -21.0553 26023.8 -03446.0 -07.5431 26251.0
 26 05 2013  03 57  -21.0559 26024.5 -03446.4 -07.5437 26251.7
 26 05 2013  03 58  -21.0565 26025.0 -03446.7 -07.5442 26252.2
 26 05 2013  03 59  -21.0574 26025.3 -03446.8 -07.5444 26252.6
 26 05 2013  04 00  -21.0584 26025.5 -03446.9 -07.5446 26252.7
 26 05 2013  04 01  -21.0593 26025.1 -03446.7 -07.5442 26252.4
 26 05 2013  04 02  -21.0602 26024.3 -03446.3 -07.5435 26251.5
 26 05 2013  04 03  -21.0609 26023.4 -03445.7 -07.5425 26250.6
 26 05 2013  04 04  -21.0609 26023.2 -03445.5 -07.5421 26250.3
 26 05 2013  04 05  -21.0609 26023.1 -03445.3 -07.5418 26250.2
 26 05 2013  04 06  -21.0611 26023.3 -03445.4 -07.5420 26250.3
 26 05 2013  04 07  -21.0614 26023.6 -03445.6 -07.5423 26250.7
 26 05 2013  04 08  -21.0615 26024.4 -03446.0 -07.5428 26251.5
 26 05 2013  04 09  -21.0614 26025.0 -03446.3 -07.5434 26252.2
 26 05 2013  04 10  -21.0613 26025.8 -03446.7 -07.5439 26253.1
 26 05 2013  04 11  -21.0611 26026.6 -03447.0 -07.5444 26253.8
 26 05 2013  04 12  -21.0610 26026.5 -03446.9 -07.5443 26253.8
 26 05 2013  04 13  -21.0609 26026.1 -03446.6 -07.5437 26253.4
 26 05 2013  04 14  -21.0608 26025.6 -03446.3 -07.5432 26252.8
 26 05 2013  04 15  -21.0606 26025.4 -03446.1 -07.5428 26252.6
 26 05 2013  04 16  -21.0607 26025.6 -03446.2 -07.5429 26252.8
 26 05 2013  04 17  -21.0608 26025.8 -03446.2 -07.5430 26253.0
 26 05 2013  04 18  -21.0609 26026.1 -03446.4 -07.5432 26253.3
 26 05 2013  04 19  -21.0612 26026.6 -03446.6 -07.5435 26253.8
 26 05 2013  04 20  -21.0613 26026.6 -03446.6 -07.5435 26253.8
 26 05 2013  04 21  -21.0613 26026.3 -03446.4 -07.5431 26253.5
 26 05 2013  04 22  -21.0613 26025.4 -03445.9 -07.5423 26252.6
 26 05 2013  04 23  -21.0609 26025.5 -03445.8 -07.5421 26252.6
 26 05 2013  04 24  -21.0603 26026.6 -03446.3 -07.5429 26253.8
 26 05 2013  04 25  -21.0597 26028.4 -03447.1 -07.5442 26255.6
 26 05 2013  04 26  -21.0595 26030.3 -03448.1 -07.5457 26257.7
 26 05 2013  04 27  -21.0600 26031.8 -03448.9 -07.5470 26259.2
 26 05 2013  04 28  -21.0603 26032.1 -03449.0 -07.5471 26259.5
 26 05 2013  04 29  -21.0597 26031.6 -03448.6 -07.5463 26259.0
 26 05 2013  04 30  -21.0593 26030.3 -03447.7 -07.5449 26257.6
 26 05 2013  04 31  -21.0593 26028.6 -03446.7 -07.5432 26255.9
 26 05 2013  04 32  -21.0599 26026.7 -03445.7 -07.5415 26253.8
 26 05 2013  04 33  -21.0607 26024.7 -03444.6 -07.5398 26251.7
 26 05 2013  04 34  -21.0617 26023.4 -03444.0 -07.5388 26250.3
 26 05 2013  04 35  -21.0623 26023.2 -03443.9 -07.5386 26250.1
 26 05 2013  04 36  -21.0623 26023.7 -03444.2 -07.5392 26250.6
 26 05 2013  04 37  -21.0626 26024.3 -03444.6 -07.5399 26251.3
 26 05 2013  04 38  -21.0632 26024.2 -03444.7 -07.5402 26251.2
 26 05 2013  04 39  -21.0633 26023.8 -03444.6 -07.5400 26250.7
 26 05 2013  04 40  -21.0632 26023.8 -03444.6 -07.5400 26250.8
 26 05 2013  04 41  -21.0625 26024.0 -03444.6 -07.5401 26251.0
 26 05 2013  04 42  -21.0614 26024.5 -03444.9 -07.5404 26251.6
 26 05 2013  04 43  -21.0607 26024.6 -03445.0 -07.5406 26251.6
 26 05 2013  04 44  -21.0608 26024.1 -03444.8 -07.5404 26251.1
 26 05 2013  04 45  -21.0609 26023.8 -03444.6 -07.5401 26250.7
 26 05 2013  04 46  -21.0607 26024.0 -03444.7 -07.5403 26251.0
 26 05 2013  04 47  -21.0602 26024.4 -03445.0 -07.5407 26251.5
 26 05 2013  04 48  -21.0597 26024.6 -03445.1 -07.5408 26251.6
 26 05 2013  04 49  -21.0592 26024.6 -03445.1 -07.5408 26251.7
 26 05 2013  04 50  -21.0587 26024.6 -03445.1 -07.5408 26251.6
 26 05 2013  04 51  -21.0584 26024.5 -03445.0 -07.5407 26251.5
 26 05 2013  04 52  -21.0586 26024.8 -03445.2 -07.5409 26251.9
 26 05 2013  04 53  -21.0595 26025.0 -03445.4 -07.5414 26252.1
 26 05 2013  04 54  -21.0607 26024.8 -03445.3 -07.5413 26251.9
 26 05 2013  04 55  -21.0612 26024.4 -03445.1 -07.5410 26251.4
 26 05 2013  04 56  -21.0610 26024.1 -03444.9 -07.5406 26251.2
 26 05 2013  04 57  -21.0607 26024.1 -03444.8 -07.5404 26251.1
 26 05 2013  04 58  -21.0610 26023.9 -03444.7 -07.5402 26250.9
 26 05 2013  04 59  -21.0636 26023.8 -03444.7 -07.5403 26250.8
 26 05 2013  05 00  -21.0658 26024.1 -03445.0 -07.5407 26251.1
 26 05 2013  05 01  -21.0669 26023.8 -03444.9 -07.5406 26250.8
 26 05 2013  05 02  -21.0676 26023.5 -03444.6 -07.5400 26250.4
 26 05 2013  05 03  -21.0688 26023.1 -03444.4 -07.5397 26250.1
 26 05 2013  05 04  -21.0695 26022.7 -03444.0 -07.5391 26249.6
 26 05 2013  05 05  -21.0694 26021.9 -03443.5 -07.5383 26248.7
 26 05 2013  05 06  -21.0693 26021.1 -03443.1 -07.5375 26247.9
 26 05 2013  05 07  -21.0697 26020.1 -03442.6 -07.5368 26246.8
 26 05 2013  05 08  -21.0718 26018.6 -03442.0 -07.5359 26245.3
 26 05 2013  05 09  -21.0747 26017.4 -03441.6 -07.5354 26244.1
 26 05 2013  05 10  -21.0780 26016.4 -03441.3 -07.5350 26243.0
 26 05 2013  05 11  -21.0805 26015.8 -03441.1 -07.5348 26242.4
 26 05 2013  05 12  -21.0819 26015.2 -03440.8 -07.5343 26241.8
 26 05 2013  05 13  -21.0830 26014.9 -03440.7 -07.5341 26241.4
 26 05 2013  05 14  -21.0834 26014.8 -03440.7 -07.5341 26241.4
 26 05 2013  05 15  -21.0823 26014.8 -03440.7 -07.5341 26241.3
 26 05 2013  05 16  -21.0794 26014.2 -03440.3 -07.5334 26240.7
 26 05 2013  05 17  -21.0755 26013.5 -03439.8 -07.5326 26240.0
 26 05 2013  05 18  -21.0721 26013.1 -03439.6 -07.5323 26239.6
 26 05 2013  05 19  -21.0695 26012.7 -03439.6 -07.5323 26239.1
 26 05 2013  05 20  -21.0670 26012.1 -03439.5 -07.5323 26238.5
 26 05 2013  05 21  -21.0645 26011.5 -03439.4 -07.5324 26237.9
 26 05 2013  05 22  -21.0624 26010.9 -03439.4 -07.5324 26237.3
 26 05 2013  05 23  -21.0612 26010.4 -03439.5 -07.5327 26236.8
 26 05 2013  05 24  -21.0606 26010.0 -03439.6 -07.5331 26236.4
 26 05 2013  05 25  -21.0605 26009.7 -03439.8 -07.5336 26236.2
 26 05 2013  05 26  -21.0611 26009.8 -03440.1 -07.5344 26236.3
 26 05 2013  05 27  -21.0611 26009.7 -03440.4 -07.5350 26236.3
 26 05 2013  05 28  -21.0611 26009.8 -03440.6 -07.5355 26236.4
 26 05 2013  05 29  -21.0614 26009.9 -03440.9 -07.5361 26236.6
 26 05 2013  05 30  -21.0615 26010.0 -03441.2 -07.5366 26236.7
 26 05 2013  05 31  -21.0615 26009.8 -03441.3 -07.5368 26236.4
 26 05 2013  05 32  -21.0616 26009.3 -03441.1 -07.5367 26235.9
 26 05 2013  05 33  -21.0620 26008.4 -03440.8 -07.5363 26235.0
 26 05 2013  05 34  -21.0620 26007.3 -03440.4 -07.5357 26233.9
 26 05 2013  05 35  -21.0615 26006.3 -03440.0 -07.5351 26232.8
 26 05 2013  05 36  -21.0605 26005.7 -03439.8 -07.5347 26232.2
 26 05 2013  05 37  -21.0589 26005.3 -03439.7 -07.5347 26231.8
 26 05 2013  05 38  -21.0569 26005.1 -03439.8 -07.5349 26231.6
 26 05 2013  05 39  -21.0544 26005.1 -03439.9 -07.5352 26231.6
 26 05 2013  05 40  -21.0522 26005.1 -03440.1 -07.5357 26231.7
 26 05 2013  05 41  -21.0501 26004.8 -03440.2 -07.5360 26231.4
 26 05 2013  05 42  -21.0479 26004.7 -03440.3 -07.5362 26231.3
 26 05 2013  05 43  -21.0466 26004.6 -03440.6 -07.5368 26231.2
 26 05 2013  05 44  -21.0467 26004.3 -03440.8 -07.5374 26231.0
 26 05 2013  05 45  -21.0482 26003.7 -03440.9 -07.5377 26230.3
 26 05 2013  05 46  -21.0512 26002.9 -03440.9 -07.5380 26229.6
 26 05 2013  05 47  -21.0546 26002.5 -03441.0 -07.5383 26229.2
 26 05 2013  05 48  -21.0573 26002.2 -03441.1 -07.5386 26228.9
 26 05 2013  05 49  -21.0588 26001.8 -03440.9 -07.5384 26228.5
 26 05 2013  05 50  -21.0591 26001.5 -03440.8 -07.5382 26228.2
 26 05 2013  05 51  -21.0589 26001.3 -03440.7 -07.5380 26227.9
 26 05 2013  05 52  -21.0580 26001.3 -03440.7 -07.5380 26227.9
 26 05 2013  05 53  -21.0564 26001.2 -03440.7 -07.5381 26227.9
 26 05 2013  05 54  -21.0546 26001.3 -03440.9 -07.5384 26228.0
 26 05 2013  05 55  -21.0529 26001.7 -03441.1 -07.5389 26228.4
 26 05 2013  05 56  -21.0516 26002.0 -03441.5 -07.5396 26228.8
 26 05 2013  05 57  -21.0507 26002.2 -03441.8 -07.5401 26229.0
 26 05 2013  05 58  -21.0497 26002.2 -03441.9 -07.5404 26229.0
 26 05 2013  05 59  -21.0486 26002.1 -03442.0 -07.5406 26229.0
 26 05 2013  06 00  -21.0477 26002.2 -03442.2 -07.5410 26229.0
 26 05 2013  06 01  -21.0463 26002.2 -03442.3 -07.5412 26229.1
 26 05 2013  06 02  -21.0446 26002.4 -03442.5 -07.5416 26229.3
 26 05 2013  06 03  -21.0437 26002.5 -03442.7 -07.5421 26229.5
 26 05 2013  06 04  -21.0435 26002.8 -03443.1 -07.5428 26229.8
 26 05 2013  06 05  -21.0440 26003.4 -03443.6 -07.5437 26230.4
 26 05 2013  06 06  -21.0445 26003.9 -03444.1 -07.5446 26231.0
 26 05 2013  06 07  -21.0444 26004.6 -03444.5 -07.5452 26231.8
 26 05 2013  06 08  -21.0448 26005.1 -03444.8 -07.5459 26232.3
 26 05 2013  06 09  -21.0456 26005.5 -03445.2 -07.5465 26232.8
 26 05 2013  06 10  -21.0467 26005.8 -03445.4 -07.5468 26233.1
 26 05 2013  06 11  -21.0477 26006.0 -03445.4 -07.5469 26233.3
 26 05 2013  06 12  -21.0480 26005.9 -03445.3 -07.5467 26233.1
 26 05 2013  06 13  -21.0464 26005.7 -03445.0 -07.5461 26232.9
 26 05 2013  06 14  -21.0450 26005.4 -03444.7 -07.5456 26232.5
 26 05 2013  06 15  -21.0442 26005.4 -03444.7 -07.5455 26232.6
 26 05 2013  06 16  -21.0433 26005.6 -03444.8 -07.5457 26232.8
 26 05 2013  06 17  -21.0418 26005.8 -03445.0 -07.5459 26233.0
 26 05 2013  06 18  -21.0399 26006.0 -03445.1 -07.5461 26233.2
 26 05 2013  06 19  -21.0383 26005.9 -03445.1 -07.5462 26233.1
 26 05 2013  06 20  -21.0364 26005.9 -03445.2 -07.5464 26233.1
 26 05 2013  06 21  -21.0347 26005.7 -03445.2 -07.5465 26232.9
 26 05 2013  06 22  -21.0336 26005.2 -03445.0 -07.5463 26232.4
 26 05 2013  06 23  -21.0336 26005.1 -03445.2 -07.5466 26232.3
 26 05 2013  06 24  -21.0343 26004.9 -03445.3 -07.5470 26232.2
 26 05 2013  06 25  -21.0348 26004.6 -03445.3 -07.5471 26231.8
 26 05 2013  06 26  -21.0350 26004.8 -03445.5 -07.5475 26232.1
 26 05 2013  06 27  -21.0348 26005.7 -03446.1 -07.5484 26233.1
 26 05 2013  06 28  -21.0341 26006.6 -03446.6 -07.5493 26234.0
 26 05 2013  06 29  -21.0328 26007.4 -03447.0 -07.5500 26234.8
 26 05 2013  06 30  -21.0312 26008.3 -03447.5 -07.5508 26235.8
 26 05 2013  06 31  -21.0296 26009.2 -03448.0 -07.5515 26236.7
 26 05 2013  06 32  -21.0284 26009.5 -03448.2 -07.5520 26237.1
 26 05 2013  06 33  -21.0275 26009.2 -03448.2 -07.5519 26236.8
 26 05 2013  06 34  -21.0267 26009.1 -03448.1 -07.5518 26236.6
 26 05 2013  06 35  -21.0262 26009.3 -03448.2 -07.5520 26236.9
 26 05 2013  06 36  -21.0256 26010.3 -03448.8 -07.5529 26237.9
 26 05 2013  06 37  -21.0251 26010.8 -03449.1 -07.5536 26238.5
 26 05 2013  06 38  -21.0249 26010.9 -03449.3 -07.5539 26238.6
 26 05 2013  06 39  -21.0256 26011.0 -03449.4 -07.5541 26238.8
 26 05 2013  06 40  -21.0272 26011.2 -03449.5 -07.5543 26238.9
 26 05 2013  06 41  -21.0285 26010.8 -03449.3 -07.5540 26238.5
 26 05 2013  06 42  -21.0294 26010.3 -03449.1 -07.5536 26238.0
 26 05 2013  06 43  -21.0292 26010.3 -03449.0 -07.5534 26237.9
 26 05 2013  06 44  -21.0282 26010.6 -03449.1 -07.5535 26238.3
 26 05 2013  06 45  -21.0266 26011.4 -03449.4 -07.5539 26239.1
 26 05 2013  06 46  -21.0249 26012.0 -03449.7 -07.5544 26239.7
 26 05 2013  06 47  -21.0235 26012.2 -03449.8 -07.5546 26240.0
 26 05 2013  06 48  -21.0230 26012.8 -03450.1 -07.5551 26240.6
 26 05 2013  06 49  -21.0227 26012.9 -03450.3 -07.5554 26240.7
 26 05 2013  06 50  -21.0229 26012.9 -03450.3 -07.5554 26240.7
 26 05 2013  06 51  -21.0244 26012.9 -03450.3 -07.5556 26240.7
 26 05 2013  06 52  -21.0255 26013.2 -03450.5 -07.5559 26241.0
 26 05 2013  06 53  -21.0265 26014.1 -03450.9 -07.5565 26242.0
 26 05 2013  06 54  -21.0272 26014.6 -03451.2 -07.5568 26242.5
 26 05 2013  06 55  -21.0275 26015.2 -03451.4 -07.5572 26243.2
 26 05 2013  06 56  -21.0278 26015.7 -03451.6 -07.5575 26243.7
 26 05 2013  06 57  -21.0290 26015.7 -03451.6 -07.5575 26243.7
 26 05 2013  06 58  -21.0304 26015.5 -03451.4 -07.5572 26243.5
 26 05 2013  06 59  -21.0312 26015.1 -03451.0 -07.5564 26243.0
 26 05 2013  07 00  -21.0313 26014.6 -03450.6 -07.5557 26242.5
 26 05 2013  07 01  -21.0302 26014.5 -03450.4 -07.5553 26242.3
 26 05 2013  07 02  -21.0295 26015.0 -03450.6 -07.5556 26242.9
 26 05 2013  07 03  -21.0285 26015.4 -03450.8 -07.5559 26243.3
 26 05 2013  07 04  -21.0283 26015.6 -03451.0 -07.5563 26243.5
 26 05 2013  07 05  -21.0279 26015.1 -03450.8 -07.5560 26242.9
 26 05 2013  07 06  -21.0267 26014.6 -03450.5 -07.5554 26242.5
 26 05 2013  07 07  -21.0251 26014.9 -03450.6 -07.5555 26242.7
 26 05 2013  07 08  -21.0239 26014.6 -03450.6 -07.5557 26242.5
 26 05 2013  07 09  -21.0230 26013.9 -03450.5 -07.5556 26241.8
 26 05 2013  07 10  -21.0225 26013.4 -03450.3 -07.5554 26241.2
 26 05 2013  07 11  -21.0227 26013.4 -03450.4 -07.5556 26241.3
 26 05 2013  07 12  -21.0238 26013.1 -03450.4 -07.5555 26241.0
 26 05 2013  07 13  -21.0251 26012.8 -03450.3 -07.5554 26240.6
 26 05 2013  07 14  -21.0265 26012.6 -03450.2 -07.5553 26240.4
 26 05 2013  07 15  -21.0273 26012.7 -03450.2 -07.5554 26240.6
 26 05 2013  07 16  -21.0287 26012.9 -03450.3 -07.5555 26240.7
 26 05 2013  07 17  -21.0303 26013.0 -03450.3 -07.5555 26240.9
 26 05 2013  07 18  -21.0304 26013.0 -03450.2 -07.5551 26240.8
 26 05 2013  07 19  -21.0301 26012.8 -03450.0 -07.5548 26240.6
 26 05 2013  07 20  -21.0301 26012.8 -03449.8 -07.5545 26240.6
 26 05 2013  07 21  -21.0302 26012.9 -03449.8 -07.5544 26240.7
 26 05 2013  07 22  -21.0307 26012.8 -03449.7 -07.5543 26240.6
 26 05 2013  07 23  -21.0309 26012.7 -03449.6 -07.5541 26240.4
 26 05 2013  07 24  -21.0310 26013.0 -03449.7 -07.5542 26240.7
 26 05 2013  07 25  -21.0308 26013.3 -03449.8 -07.5544 26241.0
 26 05 2013  07 26  -21.0306 26013.4 -03449.8 -07.5544 26241.1
 26 05 2013  07 27  -21.0309 26013.4 -03449.8 -07.5542 26241.2
 26 05 2013  07 28  -21.0319 26013.2 -03449.6 -07.5538 26240.9
 26 05 2013  07 29  -21.0323 26012.6 -03449.1 -07.5529 26240.3
 26 05 2013  07 30  -21.0323 26012.4 -03448.8 -07.5523 26240.0
 26 05 2013  07 31  -21.0325 26012.3 -03448.7 -07.5521 26239.9
 26 05 2013  07 32  -21.0329 26012.2 -03448.6 -07.5520 26239.8
 26 05 2013  07 33  -21.0333 26012.1 -03448.5 -07.5518 26239.6
 26 05 2013  07 34  -21.0329 26012.1 -03448.5 -07.5518 26239.7
 26 05 2013  07 35  -21.0322 26012.3 -03448.6 -07.5520 26239.9
 26 05 2013  07 36  -21.0317 26012.4 -03448.6 -07.5520 26240.0
 26 05 2013  07 37  -21.0314 26012.3 -03448.6 -07.5519 26239.9
 26 05 2013  07 38  -21.0314 26012.0 -03448.4 -07.5516 26239.6
 26 05 2013  07 39  -21.0313 26012.0 -03448.3 -07.5515 26239.6
 26 05 2013  07 40  -21.0306 26012.0 -03448.4 -07.5515 26239.6
 26 05 2013  07 41  -21.0301 26012.0 -03448.4 -07.5517 26239.6
 26 05 2013  07 42  -21.0296 26011.7 -03448.3 -07.5515 26239.2
 26 05 2013  07 43  -21.0290 26011.4 -03448.2 -07.5513 26238.9
 26 05 2013  07 44  -21.0288 26011.7 -03448.3 -07.5516 26239.2
 26 05 2013  07 45  -21.0285 26011.9 -03448.5 -07.5520 26239.5
 26 05 2013  07 46  -21.0280 26011.9 -03448.6 -07.5521 26239.5
 26 05 2013  07 47  -21.0272 26011.9 -03448.6 -07.5521 26239.5
 26 05 2013  07 48  -21.0264 26012.0 -03448.7 -07.5524 26239.6
 26 05 2013  07 49  -21.0262 26011.9 -03448.8 -07.5525 26239.5
 26 05 2013  07 50  -21.0259 26011.8 -03448.8 -07.5524 26239.4
 26 05 2013  07 51  -21.0256 26011.8 -03448.8 -07.5526 26239.4
 26 05 2013  07 52  -21.0256 26012.0 -03448.9 -07.5527 26239.7
 26 05 2013  07 53  -21.0254 26012.2 -03449.0 -07.5529 26239.9
 26 05 2013  07 54  -21.0254 26012.4 -03449.1 -07.5531 26240.1
 26 05 2013  07 55  -21.0255 26012.4 -03449.1 -07.5531 26240.1
 26 05 2013  07 56  -21.0255 26012.3 -03449.1 -07.5530 26240.0
 26 05 2013  07 57  -21.0250 26012.5 -03449.1 -07.5529 26240.1
 26 05 2013  07 58  -21.0241 26012.9 -03449.3 -07.5533 26240.6
 26 05 2013  07 59  -21.0238 26013.5 -03449.7 -07.5540 26241.3
 26 05 2013  08 00  -21.0237 26013.9 -03450.0 -07.5546 26241.6
 26 05 2013  08 01  -21.0235 26014.1 -03450.2 -07.5549 26241.9
 26 05 2013  08 02  -21.0234 26013.8 -03450.1 -07.5548 26241.6
 26 05 2013  08 03  -21.0235 26013.6 -03449.8 -07.5543 26241.3
 26 05 2013  08 04  -21.0239 26013.4 -03449.6 -07.5539 26241.2
 26 05 2013  08 05  -21.0240 26013.3 -03449.4 -07.5534 26241.1
 26 05 2013  08 06  -21.0240 26013.6 -03449.5 -07.5535 26241.3
 26 05 2013  08 07  -21.0251 26013.6 -03449.6 -07.5538 26241.4
 26 05 2013  08 08  -21.0264 26013.5 -03449.7 -07.5540 26241.2
 26 05 2013  08 09  -21.0272 26013.3 -03449.5 -07.5537 26241.0
 26 05 2013  08 10  -21.0275 26012.9 -03449.2 -07.5531 26240.6
 26 05 2013  08 11  -21.0272 26012.8 -03449.0 -07.5526 26240.4
 26 05 2013  08 12  -21.0271 26012.7 -03448.8 -07.5523 26240.3
 26 05 2013  08 13  -21.0265 26012.5 -03448.6 -07.5519 26240.1
 26 05 2013  08 14  -21.0258 26012.6 -03448.5 -07.5517 26240.2
 26 05 2013  08 15  -21.0253 26012.8 -03448.6 -07.5518 26240.4
 26 05 2013  08 16  -21.0252 26013.0 -03448.7 -07.5519 26240.6
 26 05 2013  08 17  -21.0249 26013.2 -03448.8 -07.5522 26240.8
 26 05 2013  08 18  -21.0253 26013.6 -03449.1 -07.5528 26241.3
 26 05 2013  08 19  -21.0256 26014.1 -03449.4 -07.5532 26241.8
 26 05 2013  08 20  -21.0258 26014.3 -03449.4 -07.5531 26242.0
 26 05 2013  08 21  -21.0256 26014.2 -03449.2 -07.5527 26241.9
 26 05 2013  08 22  -21.0258 26014.4 -03449.2 -07.5526 26242.1
 26 05 2013  08 23  -21.0260 26014.1 -03448.9 -07.5522 26241.8
 26 05 2013  08 24  -21.0263 26013.8 -03448.6 -07.5517 26241.3
 26 05 2013  08 25  -21.0264 26013.5 -03448.4 -07.5511 26241.1
 26 05 2013  08 26  -21.0261 26013.1 -03448.1 -07.5506 26240.7
 26 05 2013  08 27  -21.0255 26013.1 -03447.9 -07.5503 26240.6
 26 05 2013  08 28  -21.0253 26013.1 -03448.1 -07.5506 26240.6
 26 05 2013  08 29  -21.0247 26013.0 -03448.1 -07.5506 26240.6
 26 05 2013  08 30  -21.0242 26013.3 -03448.3 -07.5509 26240.9
 26 05 2013  08 31  -21.0240 26013.6 -03448.4 -07.5512 26241.1
 26 05 2013  08 32  -21.0235 26013.6 -03448.4 -07.5511 26241.1
 26 05 2013  08 33  -21.0228 26013.9 -03448.3 -07.5509 26241.4
 26 05 2013  08 34  -21.0222 26013.5 -03447.9 -07.5501 26241.0
 26 05 2013  08 35  -21.0217 26013.5 -03447.6 -07.5496 26241.0
 26 05 2013  08 36  -21.0214 26013.5 -03447.5 -07.5493 26241.0
 26 05 2013  08 37  -21.0210 26013.4 -03447.4 -07.5491 26240.9
 26 05 2013  08 38  -21.0207 26013.4 -03447.4 -07.5490 26240.8
 26 05 2013  08 39  -21.0204 26013.1 -03447.1 -07.5485 26240.5
 26 05 2013  08 40  -21.0196 26013.0 -03446.9 -07.5481 26240.4
 26 05 2013  08 41  -21.0195 26013.2 -03447.1 -07.5484 26240.6
 26 05 2013  08 42  -21.0199 26013.3 -03447.2 -07.5486 26240.7
 26 05 2013  08 43  -21.0200 26013.3 -03447.3 -07.5489 26240.7
 26 05 2013  08 44  -21.0188 26013.0 -03446.9 -07.5482 26240.4
 26 05 2013  08 45  -21.0177 26012.8 -03446.5 -07.5474 26240.1
 26 05 2013  08 46  -21.0169 26012.8 -03446.5 -07.5472 26240.2
 26 05 2013  08 47  -21.0164 26012.5 -03446.4 -07.5471 26239.8
 26 05 2013  08 48  -21.0164 26012.2 -03446.4 -07.5472 26239.5
 26 05 2013  08 49  -21.0158 26012.4 -03446.6 -07.5476 26239.7
 26 05 2013  08 50  -21.0149 26012.6 -03446.8 -07.5481 26239.9
 26 05 2013  08 51  -21.0142 26012.5 -03446.9 -07.5483 26239.9
 26 05 2013  08 52  -21.0139 26012.5 -03447.0 -07.5484 26239.9
 26 05 2013  08 53  -21.0131 26012.8 -03447.2 -07.5488 26240.2
 26 05 2013  08 54  -21.0131 26013.0 -03447.5 -07.5494 26240.5
 26 05 2013  08 55  -21.0133 26013.4 -03448.0 -07.5503 26240.9
 26 05 2013  08 56  -21.0130 26013.5 -03448.2 -07.5508 26241.0
 26 05 2013  08 57  -21.0129 26013.9 -03448.4 -07.5512 26241.4
 26 05 2013  08 58  -21.0133 26013.8 -03448.6 -07.5516 26241.4
 26 05 2013  08 59  -21.0140 26013.8 -03448.7 -07.5518 26241.4
 26 05 2013  09 00  -21.0127 26013.5 -03448.6 -07.5517 26241.1
 26 05 2013  09 01  -21.0121 26013.0 -03448.1 -07.5508 26240.5
 26 05 2013  09 02  -21.0122 26012.8 -03448.2 -07.5509 26240.4
 26 05 2013  09 03  -21.0125 26012.6 -03448.2 -07.5511 26240.1
 26 05 2013  09 04  -21.0126 26012.6 -03448.5 -07.5516 26240.2
 26 05 2013  09 05  -21.0118 26013.0 -03448.8 -07.5522 26240.6
 26 05 2013  09 06  -21.0119 26013.1 -03449.0 -07.5526 26240.7
 26 05 2013  09 07  -21.0108 26013.0 -03449.0 -07.5526 26240.6
 26 05 2013  09 08  -21.0093 26012.8 -03448.8 -07.5522 26240.4
 26 05 2013  09 09  -21.0103 26012.8 -03448.9 -07.5526 26240.5
 26 05 2013  09 10  -21.0114 26012.9 -03449.2 -07.5532 26240.6
 26 05 2013  09 11  -21.0122 26012.6 -03449.3 -07.5535 26240.3
 26 05 2013  09 12  -21.0132 26012.7 -03449.6 -07.5539 26240.5
 26 05 2013  09 13  -21.0131 26012.9 -03449.8 -07.5543 26240.6
 26 05 2013  09 14  -21.0130 26013.1 -03449.9 -07.5547 26240.9
 26 05 2013  09 15  -21.0125 26013.2 -03450.0 -07.5548 26241.0
 26 05 2013  09 16  -21.0124 26013.2 -03450.1 -07.5549 26241.0
 26 05 2013  09 17  -21.0113 26012.6 -03449.8 -07.5545 26240.4
 26 05 2013  09 18  -21.0109 26012.9 -03449.9 -07.5547 26240.7
 26 05 2013  09 19  -21.0100 26012.8 -03449.8 -07.5544 26240.6
 26 05 2013  09 20  -21.0098 26013.0 -03449.9 -07.5546 26240.7
 26 05 2013  09 21  -21.0100 26013.1 -03450.0 -07.5549 26240.9
 26 05 2013  09 22  -21.0111 26013.1 -03450.3 -07.5555 26240.9
 26 05 2013  09 23  -21.0117 26013.0 -03450.5 -07.5559 26240.8
 26 05 2013  09 24  -21.0116 26013.1 -03450.6 -07.5560 26240.9
 26 05 2013  09 25  -21.0110 26013.4 -03450.8 -07.5564 26241.3
 26 05 2013  09 26  -21.0099 26013.3 -03450.8 -07.5564 26241.2
 26 05 2013  09 27  -21.0097 26013.6 -03450.9 -07.5566 26241.5
 26 05 2013  09 28  -21.0079 26013.7 -03450.9 -07.5566 26241.6
 26 05 2013  09 29  -21.0079 26013.6 -03450.9 -07.5566 26241.5
 26 05 2013  09 30  -21.0086 26013.8 -03451.2 -07.5571 26241.7
 26 05 2013  09 31  -21.0084 26013.7 -03451.3 -07.5574 26241.6
 26 05 2013  09 32  -21.0073 26013.5 -03451.1 -07.5571 26241.4
 26 05 2013  09 33  -21.0075 26013.3 -03451.0 -07.5570 26241.2
 26 05 2013  09 34  -21.0072 26013.0 -03451.0 -07.5570 26240.9
 26 05 2013  09 35  -21.0084 26012.8 -03451.0 -07.5571 26240.7
 26 05 2013  09 36  -21.0093 26013.2 -03451.5 -07.5580 26241.2
 26 05 2013  09 37  -21.0086 26013.2 -03451.6 -07.5582 26241.2
 26 05 2013  09 38  -21.0076 26013.5 -03451.7 -07.5584 26241.6
 26 05 2013  09 39  -21.0065 26013.7 -03451.8 -07.5585 26241.7
 26 05 2013  09 40  -21.0071 26014.0 -03452.0 -07.5589 26242.0
 26 05 2013  09 41  -21.0079 26014.3 -03452.3 -07.5594 26242.4
 26 05 2013  09 42  -21.0084 26014.4 -03452.3 -07.5595 26242.4
 26 05 2013  09 43  -21.0087 26014.5 -03452.5 -07.5597 26242.6
 26 05 2013  09 44  -21.0084 26014.5 -03452.5 -07.5598 26242.6
 26 05 2013  09 45  -21.0084 26014.4 -03452.5 -07.5598 26242.5
 26 05 2013  09 46  -21.0093 26014.7 -03452.7 -07.5601 26242.8
 26 05 2013  09 47  -21.0096 26015.0 -03452.9 -07.5605 26243.2
 26 05 2013  09 48  -21.0103 26015.0 -03453.0 -07.5606 26243.2
 26 05 2013  09 49  -21.0110 26015.5 -03453.2 -07.5611 26243.7
 26 05 2013  09 50  -21.0109 26015.3 -03453.1 -07.5609 26243.5
 26 05 2013  09 51  -21.0113 26015.3 -03453.0 -07.5606 26243.5
 26 05 2013  09 52  -21.0124 26015.5 -03453.1 -07.5608 26243.7
 26 05 2013  09 53  -21.0129 26015.7 -03453.2 -07.5609 26243.9
 26 05 2013  09 54  -21.0132 26016.1 -03453.3 -07.5611 26244.3
 26 05 2013  09 55  -21.0126 26016.3 -03453.4 -07.5613 26244.5
 26 05 2013  09 56  -21.0122 26016.2 -03453.4 -07.5611 26244.4
 26 05 2013  09 57  -21.0134 26016.3 -03453.5 -07.5614 26244.5
 26 05 2013  09 58  -21.0140 26016.3 -03453.5 -07.5615 26244.5
 26 05 2013  09 59  -21.0144 26016.4 -03453.6 -07.5616 26244.6
 26 05 2013  10 00  -21.0149 26016.0 -03453.5 -07.5616 26244.2
 26 05 2013  10 01  -21.0155 26016.3 -03453.7 -07.5619 26244.5
 26 05 2013  10 02  -21.0147 26017.1 -03454.1 -07.5625 26245.3
 26 05 2013  10 03  -21.0140 26017.5 -03454.2 -07.5626 26245.8
 26 05 2013  10 04  -21.0139 26017.8 -03454.2 -07.5626 26246.1
 26 05 2013  10 05  -21.0150 26018.1 -03454.4 -07.5629 26246.4
 26 05 2013  10 06  -21.0167 26018.0 -03454.4 -07.5629 26246.3
 26 05 2013  10 07  -21.0185 26018.3 -03454.5 -07.5631 26246.6
 26 05 2013  10 08  -21.0189 26018.4 -03454.6 -07.5631 26246.8
 26 05 2013  10 09  -21.0194 26019.0 -03454.8 -07.5634 26247.4
 26 05 2013  10 10  -21.0195 26019.3 -03454.9 -07.5635 26247.6
 26 05 2013  10 11  -21.0200 26019.2 -03454.7 -07.5632 26247.6
 26 05 2013  10 12  -21.0205 26020.0 -03454.8 -07.5633 26248.4
 26 05 2013  10 13  -21.0213 26020.2 -03454.8 -07.5632 26248.6
 26 05 2013  10 14  -21.0226 26020.5 -03454.9 -07.5633 26248.9
 26 05 2013  10 15  -21.0236 26020.5 -03454.8 -07.5630 26248.8
 26 05 2013  10 16  -21.0254 26020.8 -03454.8 -07.5630 26249.1
 26 05 2013  10 17  -21.0250 26021.3 -03454.9 -07.5630 26249.6
 26 05 2013  10 18  -21.0246 26021.0 -03454.6 -07.5624 26249.4
 26 05 2013  10 19  -21.0263 26021.1 -03454.5 -07.5623 26249.4
 26 05 2013  10 20  -21.0273 26021.1 -03454.5 -07.5622 26249.4
 26 05 2013  10 21  -21.0281 26021.8 -03454.8 -07.5627 26250.2
 26 05 2013  10 22  -21.0279 26022.0 -03454.7 -07.5624 26250.3
 26 05 2013  10 23  -21.0288 26022.2 -03454.7 -07.5623 26250.5
 26 05 2013  10 24  -21.0300 26022.8 -03454.8 -07.5624 26251.1
 26 05 2013  10 25  -21.0311 26023.0 -03454.8 -07.5623 26251.3
 26 05 2013  10 26  -21.0307 26023.5 -03454.8 -07.5622 26251.9
 26 05 2013  10 27  -21.0326 26023.3 -03454.6 -07.5618 26251.6
 26 05 2013  10 28  -21.0335 26023.0 -03454.4 -07.5615 26251.3
 26 05 2013  10 29  -21.0340 26023.5 -03454.5 -07.5615 26251.8
 26 05 2013  10 30  -21.0345 26024.0 -03454.6 -07.5617 26252.3
 26 05 2013  10 31  -21.0347 26024.8 -03454.8 -07.5618 26253.1
 26 05 2013  10 32  -21.0344 26025.3 -03454.7 -07.5615 26253.6
 26 05 2013  10 33  -21.0343 26025.7 -03454.6 -07.5612 26254.0
 26 05 2013  10 34  -21.0368 26025.1 -03454.3 -07.5606 26253.3
 26 05 2013  10 35  -21.0383 26024.7 -03454.1 -07.5602 26252.9
 26 05 2013  10 36  -21.0393 26025.3 -03454.2 -07.5603 26253.6
 26 05 2013  10 37  -21.0392 26026.2 -03454.4 -07.5605 26254.4
 26 05 2013  10 38  -21.0406 26025.6 -03454.1 -07.5600 26253.8
 26 05 2013  10 39  -21.0403 26025.9 -03454.0 -07.5597 26254.1
 26 05 2013  10 40  -21.0417 26026.4 -03454.0 -07.5597 26254.6
 26 05 2013  10 41  -21.0418 26026.8 -03454.0 -07.5596 26254.9
 26 05 2013  10 42  -21.0433 26026.5 -03453.7 -07.5590 26254.7
 26 05 2013  10 43  -21.0458 26025.9 -03453.4 -07.5585 26254.0
 26 05 2013  10 44  -21.0464 26026.2 -03453.4 -07.5583 26254.3
 26 05 2013  10 45  -21.0461 26027.1 -03453.6 -07.5585 26255.2
 26 05 2013  10 46  -21.0463 26027.8 -03453.7 -07.5585 26256.0
 26 05 2013  10 47  -21.0474 26027.4 -03453.4 -07.5579 26255.5
 26 05 2013  10 48  -21.0488 26027.8 -03453.3 -07.5578 26255.8
 26 05 2013  10 49  -21.0499 26027.5 -03453.1 -07.5573 26255.6
 26 05 2013  10 50  -21.0512 26027.3 -03452.7 -07.5566 26255.3
 26 05 2013  10 51  -21.0512 26027.9 -03452.8 -07.5565 26255.9
 26 05 2013  10 52  -21.0516 26028.5 -03452.8 -07.5565 26256.5
 26 05 2013  10 53  -21.0542 26028.4 -03452.7 -07.5562 26256.4
 26 05 2013  10 54  -21.0548 26029.2 -03452.8 -07.5563 26257.2
 26 05 2013  10 55  -21.0557 26029.8 -03452.8 -07.5561 26257.8
 26 05 2013  10 56  -21.0560 26030.3 -03452.7 -07.5556 26258.3
 26 05 2013  10 57  -21.0567 26030.4 -03452.4 -07.5551 26258.3
 26 05 2013  10 58  -21.0553 26030.5 -03452.2 -07.5546 26258.4
 26 05 2013  10 59  -21.0560 26030.6 -03452.0 -07.5541 26258.4
 26 05 2013  11 00  -21.0574 26030.5 -03451.9 -07.5538 26258.4
 26 05 2013  11 01  -21.0598 26030.4 -03451.7 -07.5535 26258.3
 26 05 2013  11 02  -21.0600 26030.6 -03451.6 -07.5532 26258.4
 26 05 2013  11 03  -21.0600 26031.7 -03451.7 -07.5532 26259.5
 26 05 2013  11 04  -21.0584 26032.9 -03451.9 -07.5533 26260.8
 26 05 2013  11 05  -21.0593 26032.6 -03451.5 -07.5525 26260.5
 26 05 2013  11 06  -21.0607 26032.9 -03451.4 -07.5522 26260.7
 26 05 2013  11 07  -21.0620 26032.8 -03451.2 -07.5517 26260.6
 26 05 2013  11 08  -21.0622 26032.7 -03450.9 -07.5510 26260.5
 26 05 2013  11 09  -21.0630 26032.6 -03450.6 -07.5505 26260.3
 26 05 2013  11 10  -21.0642 26032.4 -03450.4 -07.5501 26260.1
 26 05 2013  11 11  -21.0654 26033.5 -03450.7 -07.5504 26261.2
 26 05 2013  11 12  -21.0658 26033.9 -03450.6 -07.5501 26261.6
 26 05 2013  11 13  -21.0659 26034.1 -03450.4 -07.5495 26261.8
 26 05 2013  11 14  -21.0664 26034.7 -03450.3 -07.5492 26262.3
 26 05 2013  11 15  -21.0682 26034.6 -03450.0 -07.5487 26262.2
 26 05 2013  11 16  -21.0679 26034.7 -03449.9 -07.5484 26262.3
 26 05 2013  11 17  -21.0685 26034.5 -03449.6 -07.5477 26262.0
 26 05 2013  11 18  -21.0686 26035.6 -03449.8 -07.5479 26263.2
 26 05 2013  11 19  -21.0677 26036.7 -03449.9 -07.5478 26264.2
 26 05 2013  11 20  -21.0681 26036.3 -03449.5 -07.5470 26263.8
 26 05 2013  11 21  -21.0691 26036.1 -03449.2 -07.5464 26263.6
 26 05 2013  11 22  -21.0698 26036.5 -03449.1 -07.5462 26264.0
 26 05 2013  11 23  -21.0704 26037.0 -03449.1 -07.5460 26264.4
 26 05 2013  11 24  -21.0708 26037.7 -03449.2 -07.5459 26265.2
 26 05 2013  11 25  -21.0711 26038.2 -03449.1 -07.5455 26265.7
 26 05 2013  11 26  -21.0710 26038.6 -03448.9 -07.5451 26266.0
 26 05 2013  11 27  -21.0710 26038.3 -03448.5 -07.5444 26265.7
 26 05 2013  11 28  -21.0717 26038.5 -03448.4 -07.5441 26265.8
 26 05 2013  11 29  -21.0715 26039.0 -03448.3 -07.5437 26266.3
 26 05 2013  11 30  -21.0713 26039.0 -03448.2 -07.5434 26266.3
 26 05 2013  11 31  -21.0711 26039.5 -03448.1 -07.5432 26266.8
 26 05 2013  11 32  -21.0714 26039.6 -03448.0 -07.5428 26266.9
 26 05 2013  11 33  -21.0725 26039.7 -03447.9 -07.5426 26267.0
 26 05 2013  11 34  -21.0730 26039.8 -03447.8 -07.5424 26267.0
 26 05 2013  11 35  -21.0731 26040.3 -03447.8 -07.5423 26267.6
 26 05 2013  11 36  -21.0725 26041.3 -03448.0 -07.5423 26268.5
 26 05 2013  11 37  -21.0714 26042.2 -03448.1 -07.5423 26269.5
 26 05 2013  11 38  -21.0710 26042.6 -03448.0 -07.5419 26269.9
 26 05 2013  11 39  -21.0713 26042.5 -03447.6 -07.5412 26269.7
 26 05 2013  11 40  -21.0704 26042.7 -03447.5 -07.5408 26269.9
 26 05 2013  11 41  -21.0696 26043.2 -03447.5 -07.5406 26270.4
 26 05 2013  11 42  -21.0700 26042.6 -03447.1 -07.5400 26269.7
 26 05 2013  11 43  -21.0703 26042.6 -03447.0 -07.5399 26269.7
 26 05 2013  11 44  -21.0709 26043.0 -03447.2 -07.5402 26270.2
 26 05 2013  11 45  -21.0708 26043.5 -03447.4 -07.5404 26270.7
 26 05 2013  11 46  -21.0703 26044.0 -03447.5 -07.5406 26271.2
 26 05 2013  11 47  -21.0704 26045.5 -03447.9 -07.5409 26272.7
 26 05 2013  11 48  -21.0696 26046.2 -03447.9 -07.5407 26273.4
 26 05 2013  11 49  -21.0689 26045.9 -03447.5 -07.5399 26273.0
 26 05 2013  11 50  -21.0695 26045.1 -03447.1 -07.5393 26272.2
 26 05 2013  11 51  -21.0709 26044.5 -03446.8 -07.5389 26271.6
 26 05 2013  11 52  -21.0715 26045.1 -03447.1 -07.5393 26272.2
 26 05 2013  11 53  -21.0715 26046.1 -03447.4 -07.5397 26273.3
 26 05 2013  11 54  -21.0717 26047.2 -03447.7 -07.5400 26274.4
 26 05 2013  11 55  -21.0718 26048.4 -03448.0 -07.5403 26275.6
 26 05 2013  11 56  -21.0720 26048.7 -03447.7 -07.5397 26275.9
 26 05 2013  11 57  -21.0713 26048.8 -03447.5 -07.5392 26275.9
 26 05 2013  11 58  -21.0711 26049.2 -03447.5 -07.5390 26276.3
 26 05 2013  11 59  -21.0714 26049.3 -03447.4 -07.5388 26276.4
 26 05 2013  12 00  -21.0721 26049.0 -03447.2 -07.5384 26276.1
 26 05 2013  12 01  -21.0722 26049.9 -03447.5 -07.5389 26277.0
 26 05 2013  12 02  -21.0722 26050.7 -03447.6 -07.5389 26277.9
 26 05 2013  12 03  -21.0720 26051.1 -03447.6 -07.5387 26278.3
 26 05 2013  12 04  -21.0726 26050.8 -03447.4 -07.5383 26277.9
 26 05 2013  12 05  -21.0735 26050.9 -03447.4 -07.5383 26278.0
 26 05 2013  12 06  -21.0739 26051.6 -03447.5 -07.5384 26278.7
 26 05 2013  12 07  -21.0736 26052.1 -03447.7 -07.5385 26279.3
 26 05 2013  12 08  -21.0734 26053.0 -03447.9 -07.5388 26280.2
 26 05 2013  12 09  -21.0735 26053.9 -03448.1 -07.5390 26281.1
 26 05 2013  12 10  -21.0729 26054.6 -03448.2 -07.5389 26281.8
 26 05 2013  12 11  -21.0720 26054.8 -03448.0 -07.5385 26282.0
 26 05 2013  12 12  -21.0712 26055.0 -03447.9 -07.5382 26282.1
 26 05 2013  12 13  -21.0714 26054.6 -03447.6 -07.5377 26281.7
 26 05 2013  12 14  -21.0716 26054.3 -03447.5 -07.5375 26281.4
 26 05 2013  12 15  -21.0715 26055.0 -03447.8 -07.5381 26282.1
 26 05 2013  12 16  -21.0723 26055.8 -03448.1 -07.5384 26283.0
 26 05 2013  12 17  -21.0723 26056.6 -03448.2 -07.5385 26283.8
 26 05 2013  12 18  -21.0725 26057.0 -03448.3 -07.5386 26284.2
 26 05 2013  12 19  -21.0730 26056.7 -03448.1 -07.5381 26283.8
 26 05 2013  12 20  -21.0736 26056.5 -03448.0 -07.5379 26283.6
 26 05 2013  12 21  -21.0743 26057.1 -03448.2 -07.5383 26284.3
 26 05 2013  12 22  -21.0754 26057.5 -03448.3 -07.5384 26284.7
 26 05 2013  12 23  -21.0757 26058.4 -03448.5 -07.5386 26285.6
 26 05 2013  12 24  -21.0757 26059.0 -03448.7 -07.5387 26286.3
 26 05 2013  12 25  -21.0765 26058.8 -03448.5 -07.5384 26286.0
 26 05 2013  12 26  -21.0772 26058.9 -03448.5 -07.5383 26286.1
 26 05 2013  12 27  -21.0776 26059.3 -03448.5 -07.5384 26286.5
 26 05 2013  12 28  -21.0774 26059.9 -03448.7 -07.5385 26287.1
 26 05 2013  12 29  -21.0770 26060.3 -03448.7 -07.5384 26287.5
 26 05 2013  12 30  -21.0766 26060.4 -03448.7 -07.5383 26287.6
 26 05 2013  12 31  -21.0771 26060.1 -03448.5 -07.5381 26287.3
 26 05 2013  12 32  -21.0775 26059.7 -03448.3 -07.5377 26286.9
 26 05 2013  12 33  -21.0778 26059.5 -03448.2 -07.5375 26286.7
 26 05 2013  12 34  -21.0778 26059.4 -03448.1 -07.5374 26286.6
 26 05 2013  12 35  -21.0781 26059.1 -03448.0 -07.5373 26286.2
 26 05 2013  12 36  -21.0790 26058.9 -03448.1 -07.5375 26286.0
 26 05 2013  12 37  -21.0801 26059.2 -03448.2 -07.5377 26286.4
 26 05 2013  12 38  -21.0811 26059.7 -03448.5 -07.5381 26286.9
 26 05 2013  12 39  -21.0818 26060.0 -03448.6 -07.5383 26287.2
 26 05 2013  12 40  -21.0827 26060.0 -03448.5 -07.5380 26287.2
 26 05 2013  12 41  -21.0833 26059.7 -03448.2 -07.5375 26286.8
 26 05 2013  12 42  -21.0840 26059.8 -03448.2 -07.5376 26287.0
 26 05 2013  12 43  -21.0842 26059.4 -03448.0 -07.5372 26286.5
 26 05 2013  12 44  -21.0851 26059.0 -03447.9 -07.5370 26286.1
 26 05 2013  12 45  -21.0853 26059.2 -03448.0 -07.5372 26286.3
 26 05 2013  12 46  -21.0858 26059.1 -03447.9 -07.5371 26286.2
 26 05 2013  12 47  -21.0860 26058.5 -03447.7 -07.5367 26285.6
 26 05 2013  12 48  -21.0871 26058.2 -03447.6 -07.5367 26285.3
 26 05 2013  12 49  -21.0883 26058.4 -03447.7 -07.5369 26285.5
 26 05 2013  12 50  -21.0888 26058.9 -03447.9 -07.5372 26286.0
 26 05 2013  12 51  -21.0896 26059.5 -03448.2 -07.5376 26286.6
 26 05 2013  12 52  -21.0907 26059.9 -03448.3 -07.5377 26287.0
 26 05 2013  12 53  -21.0914 26059.4 -03448.0 -07.5372 26286.5
 26 05 2013  12 54  -21.0918 26059.6 -03448.0 -07.5371 26286.7
 26 05 2013  12 55  -21.0925 26059.9 -03448.1 -07.5372 26287.1
 26 05 2013  12 56  -21.0920 26060.3 -03448.1 -07.5371 26287.4
 26 05 2013  12 57  -21.0916 26061.0 -03448.3 -07.5374 26288.1
 26 05 2013  12 58  -21.0913 26061.6 -03448.5 -07.5375 26288.7
 26 05 2013  12 59  -21.0916 26061.5 -03448.4 -07.5374 26288.7
 26 05 2013  13 00  -21.0925 26060.9 -03448.1 -07.5370 26288.0
 26 05 2013  13 01  -21.0926 26060.3 -03447.9 -07.5367 26287.4
 26 05 2013  13 02  -21.0933 26059.9 -03447.8 -07.5366 26287.0
 26 05 2013  13 03  -21.0943 26060.0 -03448.0 -07.5370 26287.1
 26 05 2013  13 04  -21.0952 26060.3 -03448.4 -07.5377 26287.5
 26 05 2013  13 05  -21.0968 26060.7 -03448.8 -07.5385 26287.9
 26 05 2013  13 06  -21.0978 26061.3 -03449.0 -07.5389 26288.5
 26 05 2013  13 07  -21.0982 26062.0 -03449.2 -07.5391 26289.3
 26 05 2013  13 08  -21.0984 26062.5 -03449.3 -07.5391 26289.8
 26 05 2013  13 09  -21.0979 26062.8 -03449.2 -07.5389 26290.0
 26 05 2013  13 10  -21.0980 26062.6 -03449.1 -07.5388 26289.8
 26 05 2013  13 11  -21.0984 26062.5 -03449.1 -07.5387 26289.8
 26 05 2013  13 12  -21.0984 26063.6 -03449.5 -07.5391 26290.9
 26 05 2013  13 13  -21.0981 26063.8 -03449.4 -07.5390 26291.1
 26 05 2013  13 14  -21.0982 26063.7 -03449.4 -07.5389 26291.0
 26 05 2013  13 15  -21.0988 26063.6 -03449.4 -07.5390 26290.9
 26 05 2013  13 16  -21.0990 26063.7 -03449.5 -07.5391 26291.0
 26 05 2013  13 17  -21.0991 26063.9 -03449.6 -07.5392 26291.2
 26 05 2013  13 18  -21.0984 26064.8 -03449.8 -07.5395 26292.1
 26 05 2013  13 19  -21.0989 26064.9 -03449.7 -07.5393 26292.2
 26 05 2013  13 20  -21.0993 26064.6 -03449.5 -07.5389 26291.9
 26 05 2013  13 21  -21.0991 26064.4 -03449.3 -07.5386 26291.7
 26 05 2013  13 22  -21.0997 26063.3 -03449.0 -07.5382 26290.6
 26 05 2013  13 23  -21.0999 26062.7 -03448.8 -07.5380 26289.9
 26 05 2013  13 24  -21.1005 26062.4 -03448.9 -07.5382 26289.7
 26 05 2013  13 25  -21.1004 26062.8 -03449.1 -07.5386 26290.0
 26 05 2013  13 26  -21.1003 26063.5 -03449.4 -07.5390 26290.8
 26 05 2013  13 27  -21.0998 26063.7 -03449.3 -07.5389 26290.9
 26 05 2013  13 28  -21.0993 26064.3 -03449.5 -07.5391 26291.6
 26 05 2013  13 29  -21.0996 26063.5 -03449.3 -07.5387 26290.8
 26 05 2013  13 30  -21.0999 26063.0 -03449.2 -07.5387 26290.3
 26 05 2013  13 31  -21.1010 26063.3 -03449.4 -07.5391 26290.6
 26 05 2013  13 32  -21.1007 26064.1 -03449.7 -07.5395 26291.4
 26 05 2013  13 33  -21.1006 26063.9 -03449.5 -07.5391 26291.2
 26 05 2013  13 34  -21.1015 26063.8 -03449.5 -07.5391 26291.1
 26 05 2013  13 35  -21.1021 26064.8 -03449.9 -07.5398 26292.2
 26 05 2013  13 36  -21.1022 26065.1 -03449.9 -07.5397 26292.4
 26 05 2013  13 37  -21.1017 26066.0 -03450.1 -07.5399 26293.4
 26 05 2013  13 38  -21.1021 26066.3 -03450.1 -07.5399 26293.6
 26 05 2013  13 39  -21.1019 26066.4 -03450.1 -07.5398 26293.8
 26 05 2013  13 40  -21.1022 26066.5 -03450.2 -07.5400 26293.8
 26 05 2013  13 41  -21.1023 26066.3 -03450.2 -07.5400 26293.7
 26 05 2013  13 42  -21.1021 26066.7 -03450.5 -07.5404 26294.1
 26 05 2013  13 43  -21.1025 26066.7 -03450.5 -07.5405 26294.1
 26 05 2013  13 44  -21.1029 26067.2 -03450.8 -07.5410 26294.6
 26 05 2013  13 45  -21.1034 26067.0 -03450.9 -07.5412 26294.4
 26 05 2013  13 46  -21.1037 26066.5 -03450.7 -07.5411 26293.9
 26 05 2013  13 47  -21.1037 26066.1 -03450.7 -07.5411 26293.5
 26 05 2013  13 48  -21.1038 26065.8 -03450.7 -07.5413 26293.3
 26 05 2013  13 49  -21.1038 26066.1 -03451.0 -07.5418 26293.5
 26 05 2013  13 50  -21.1043 26066.3 -03451.3 -07.5425 26293.8
 26 05 2013  13 51  -21.1047 26066.5 -03451.6 -07.5430 26294.0
 26 05 2013  13 52  -21.1055 26066.9 -03451.9 -07.5435 26294.5
 26 05 2013  13 53  -21.1064 26067.5 -03452.1 -07.5438 26295.1
 26 05 2013  13 54  -21.1054 26068.1 -03452.2 -07.5438 26295.7
 26 05 2013  13 55  -21.1064 26068.0 -03452.2 -07.5438 26295.6
 26 05 2013  13 56  -21.1063 26068.1 -03452.2 -07.5438 26295.7
 26 05 2013  13 57  -21.1064 26069.0 -03452.6 -07.5445 26296.6
 26 05 2013  13 58  -21.1061 26069.1 -03452.7 -07.5446 26296.8
 26 05 2013  13 59  -21.1057 26068.6 -03452.5 -07.5442 26296.2
 26 05 2013  14 00  -21.1064 26068.5 -03452.7 -07.5447 26296.1
 26 05 2013  14 01  -21.1073 26068.8 -03453.1 -07.5454 26296.5
 26 05 2013  14 02  -21.1089 26069.1 -03453.4 -07.5460 26296.8
 26 05 2013  14 03  -21.1106 26069.4 -03453.6 -07.5463 26297.2
 26 05 2013  14 04  -21.1116 26070.1 -03453.7 -07.5464 26297.9
 26 05 2013  14 05  -21.1098 26069.8 -03453.1 -07.5453 26297.5
 26 05 2013  14 06  -21.1075 26069.4 -03452.6 -07.5443 26297.0
 26 05 2013  14 07  -21.1062 26068.3 -03452.1 -07.5436 26295.8
 26 05 2013  14 08  -21.1062 26066.9 -03451.7 -07.5431 26294.4
 26 05 2013  14 09  -21.1072 26067.0 -03452.0 -07.5437 26294.5
 26 05 2013  14 10  -21.1080 26067.3 -03452.3 -07.5443 26294.9
 26 05 2013  14 11  -21.1082 26067.5 -03452.3 -07.5443 26295.1
 26 05 2013  14 12  -21.1088 26067.4 -03452.3 -07.5441 26295.0
 26 05 2013  14 13  -21.1098 26067.7 -03452.3 -07.5442 26295.3
 26 05 2013  14 14  -21.1101 26067.5 -03452.2 -07.5439 26295.1
 26 05 2013  14 15  -21.1108 26067.4 -03452.2 -07.5439 26295.0
 26 05 2013  14 16  -21.1116 26066.7 -03451.9 -07.5435 26294.3
 26 05 2013  14 17  -21.1117 26066.5 -03451.9 -07.5436 26294.0
 26 05 2013  14 18  -21.1127 26065.8 -03451.7 -07.5434 26293.3
 26 05 2013  14 19  -21.1134 26065.6 -03451.8 -07.5437 26293.1
 26 05 2013  14 20  -21.1136 26065.0 -03451.7 -07.5436 26292.6
 26 05 2013  14 21  -21.1134 26064.0 -03451.3 -07.5429 26291.5
 26 05 2013  14 22  -21.1138 26064.0 -03451.4 -07.5433 26291.5
 26 05 2013  14 23  -21.1144 26065.0 -03452.0 -07.5442 26292.6
 26 05 2013  14 24  -21.1155 26065.9 -03452.3 -07.5447 26293.6
 26 05 2013  14 25  -21.1159 26066.7 -03452.6 -07.5450 26294.3
 26 05 2013  14 26  -21.1158 26066.8 -03452.4 -07.5445 26294.4
 26 05 2013  14 27  -21.1162 26067.6 -03452.6 -07.5447 26295.3
 26 05 2013  14 28  -21.1166 26067.4 -03452.4 -07.5443 26295.0
 26 05 2013  14 29  -21.1178 26067.3 -03452.4 -07.5444 26294.9
 26 05 2013  14 30  -21.1191 26066.5 -03452.1 -07.5440 26294.1
 26 05 2013  14 31  -21.1191 26065.8 -03451.9 -07.5437 26293.4
 26 05 2013  14 32  -21.1192 26065.5 -03451.9 -07.5438 26293.1
 26 05 2013  14 33  -21.1198 26065.6 -03452.1 -07.5442 26293.2
 26 05 2013  14 34  -21.1204 26065.8 -03452.3 -07.5445 26293.5
 26 05 2013  14 35  -21.1204 26065.8 -03452.3 -07.5445 26293.4
 26 05 2013  14 36  -21.1198 26065.6 -03452.1 -07.5443 26293.2
 26 05 2013  14 37  -21.1200 26065.6 -03452.2 -07.5445 26293.2
 26 05 2013  14 38  -21.1201 26064.8 -03452.0 -07.5443 26292.4
 26 05 2013  14 39  -21.1206 26064.1 -03452.1 -07.5446 26291.8
 26 05 2013  14 40  -21.1203 26063.1 -03451.8 -07.5443 26290.7
 26 05 2013  14 41  -21.1196 26062.8 -03451.9 -07.5447 26290.5
 26 05 2013  14 42  -21.1197 26062.9 -03452.3 -07.5455 26290.6
 26 05 2013  14 43  -21.1207 26063.5 -03452.9 -07.5466 26291.3
 26 05 2013  14 44  -21.1210 26063.8 -03453.1 -07.5470 26291.6
 26 05 2013  14 45  -21.1207 26063.6 -03453.1 -07.5471 26291.4
 26 05 2013  14 46  -21.1211 26063.7 -03453.3 -07.5474 26291.5
 26 05 2013  14 47  -21.1219 26064.6 -03453.7 -07.5480 26292.4
 26 05 2013  14 48  -21.1221 26065.7 -03454.1 -07.5485 26293.6
 26 05 2013  14 49  -21.1223 26065.8 -03453.9 -07.5481 26293.7
 26 05 2013  14 50  -21.1223 26065.7 -03453.7 -07.5477 26293.5
 26 05 2013  14 51  -21.1224 26065.5 -03453.5 -07.5473 26293.3
 26 05 2013  14 52  -21.1230 26066.2 -03453.8 -07.5477 26294.0
 26 05 2013  14 53  -21.1228 26066.2 -03453.6 -07.5473 26294.0
 26 05 2013  14 54  -21.1228 26066.7 -03453.6 -07.5473 26294.5
 26 05 2013  14 55  -21.1232 26066.7 -03453.5 -07.5469 26294.5
 26 05 2013  14 56  -21.1226 26066.1 -03452.9 -07.5459 26293.8
 26 05 2013  14 57  -21.1229 26065.8 -03452.6 -07.5454 26293.4
 26 05 2013  14 58  -21.1224 26065.0 -03452.3 -07.5449 26292.6
 26 05 2013  14 59  -21.1217 26063.5 -03451.7 -07.5439 26291.1
 26 05 2013  15 00  -21.1216 26063.1 -03451.4 -07.5436 26290.6
 26 05 2013  15 01  -21.1217 26063.7 -03451.7 -07.5439 26291.3
 26 05 2013  15 02  -21.1221 26064.5 -03451.8 -07.5440 26292.1
 26 05 2013  15 03  -21.1219 26065.4 -03451.8 -07.5437 26292.9
 26 05 2013  15 04  -21.1211 26066.5 -03451.7 -07.5432 26294.1
 26 05 2013  15 05  -21.1207 26067.1 -03451.4 -07.5423 26294.6
 26 05 2013  15 06  -21.1203 26067.4 -03451.0 -07.5413 26294.9
 26 05 2013  15 07  -21.1206 26067.6 -03450.6 -07.5405 26294.9
 26 05 2013  15 08  -21.1213 26068.0 -03450.5 -07.5401 26295.4
 26 05 2013  15 09  -21.1224 26068.8 -03450.6 -07.5401 26296.2
 26 05 2013  15 10  -21.1235 26069.0 -03450.4 -07.5396 26296.4
 26 05 2013  15 11  -21.1241 26069.1 -03450.1 -07.5389 26296.4
 26 05 2013  15 12  -21.1247 26069.3 -03449.9 -07.5385 26296.6
 26 05 2013  15 13  -21.1251 26069.5 -03449.7 -07.5381 26296.8
 26 05 2013  15 14  -21.1254 26069.7 -03449.6 -07.5377 26296.9
 26 05 2013  15 15  -21.1258 26069.2 -03449.2 -07.5369 26296.4
 26 05 2013  15 16  -21.1260 26068.8 -03448.8 -07.5362 26296.0
 26 05 2013  15 17  -21.1256 26068.5 -03448.5 -07.5357 26295.7
 26 05 2013  15 18  -21.1257 26068.6 -03448.4 -07.5355 26295.7
 26 05 2013  15 19  -21.1264 26069.1 -03448.4 -07.5354 26296.2
 26 05 2013  15 20  -21.1265 26069.1 -03448.2 -07.5348 26296.2
 26 05 2013  15 21  -21.1266 26069.3 -03448.0 -07.5343 26296.3
 26 05 2013  15 22  -21.1266 26069.7 -03447.8 -07.5338 26296.7
 26 05 2013  15 23  -21.1257 26069.9 -03447.4 -07.5329 26296.9
 26 05 2013  15 24  -21.1244 26070.2 -03447.1 -07.5321 26297.1
 26 05 2013  15 25  -21.1232 26070.5 -03446.8 -07.5315 26297.4
 26 05 2013  15 26  -21.1222 26070.8 -03446.6 -07.5309 26297.6
 26 05 2013  15 27  -21.1226 26070.5 -03446.3 -07.5302 26297.3
 26 05 2013  15 28  -21.1228 26068.4 -03445.2 -07.5286 26295.1
 26 05 2013  15 29  -21.1228 26067.1 -03444.6 -07.5276 26293.8
 26 05 2013  15 30  -21.1227 26067.3 -03444.7 -07.5277 26293.9
 26 05 2013  15 31  -21.1225 26067.0 -03444.6 -07.5276 26293.6
 26 05 2013  15 32  -21.1224 26066.7 -03444.4 -07.5272 26293.3
 26 05 2013  15 33  -21.1227 26066.5 -03444.2 -07.5269 26293.1
 26 05 2013  15 34  -21.1230 26066.4 -03443.9 -07.5264 26293.0
 26 05 2013  15 35  -21.1227 26066.6 -03443.7 -07.5259 26293.1
 26 05 2013  15 36  -21.1225 26067.2 -03443.8 -07.5258 26293.7
 26 05 2013  15 37  -21.1220 26067.7 -03443.6 -07.5253 26294.2
 26 05 2013  15 38  -21.1218 26068.0 -03443.4 -07.5247 26294.4
 26 05 2013  15 39  -21.1209 26067.8 -03443.0 -07.5239 26294.2
 26 05 2013  15 40  -21.1205 26068.3 -03442.9 -07.5235 26294.7
 26 05 2013  15 41  -21.1196 26069.0 -03442.8 -07.5233 26295.4
 26 05 2013  15 42  -21.1188 26070.0 -03442.8 -07.5230 26296.3
 26 05 2013  15 43  -21.1177 26070.6 -03442.6 -07.5224 26296.9
 26 05 2013  15 44  -21.1175 26072.1 -03442.7 -07.5222 26298.4
 26 05 2013  15 45  -21.1182 26074.0 -03443.0 -07.5222 26300.4
 26 05 2013  15 46  -21.1175 26074.4 -03442.4 -07.5209 26300.7
 26 05 2013  15 47  -21.1165 26075.2 -03442.0 -07.5198 26301.4
 26 05 2013  15 48  -21.1159 26076.5 -03442.0 -07.5194 26302.7
 26 05 2013  15 49  -21.1147 26076.7 -03441.5 -07.5183 26302.8
 26 05 2013  15 50  -21.1142 26076.9 -03441.1 -07.5173 26303.0
 26 05 2013  15 51  -21.1141 26077.1 -03440.7 -07.5164 26303.1
 26 05 2013  15 52  -21.1137 26077.2 -03440.3 -07.5155 26303.2
 26 05 2013  15 53  -21.1132 26077.4 -03440.0 -07.5147 26303.3
 26 05 2013  15 54  -21.1120 26076.8 -03439.4 -07.5136 26302.6
 26 05 2013  15 55  -21.1112 26075.8 -03438.7 -07.5124 26301.5
 26 05 2013  15 56  -21.1090 26074.3 -03437.9 -07.5111 26299.9
 26 05 2013  15 57  -21.1073 26073.4 -03437.6 -07.5106 26299.1
 26 05 2013  15 58  -21.1069 26072.5 -03437.3 -07.5104 26298.2
 26 05 2013  15 59  -21.1062 26071.7 -03437.1 -07.5100 26297.2
 26 05 2013  16 00  -21.1057 26071.7 -03437.2 -07.5103 26297.3
 26 05 2013  16 01  -21.1050 26071.6 -03437.2 -07.5104 26297.2
 26 05 2013  16 02  -21.1036 26071.0 -03436.9 -07.5100 26296.6
 26 05 2013  16 03  -21.1017 26070.1 -03436.5 -07.5094 26295.6
 26 05 2013  16 04  -21.1004 26069.2 -03436.3 -07.5091 26294.7
 26 05 2013  16 05  -21.0997 26068.1 -03436.1 -07.5090 26293.6
 26 05 2013  16 06  -21.0987 26067.8 -03436.2 -07.5092 26293.3
 26 05 2013  16 07  -21.0974 26067.2 -03436.1 -07.5093 26292.7
 26 05 2013  16 08  -21.0965 26066.5 -03436.1 -07.5095 26292.0
 26 05 2013  16 09  -21.0956 26065.8 -03436.0 -07.5095 26291.3
 26 05 2013  16 10  -21.0948 26065.0 -03436.0 -07.5095 26290.5
 26 05 2013  16 11  -21.0946 26065.0 -03436.2 -07.5100 26290.5
 26 05 2013  16 12  -21.0948 26065.3 -03436.5 -07.5106 26290.8
 26 05 2013  16 13  -21.0948 26065.1 -03436.4 -07.5105 26290.7
 26 05 2013  16 14  -21.0947 26064.9 -03436.4 -07.5105 26290.4
 26 05 2013  16 15  -21.0943 26064.6 -03436.3 -07.5105 26290.2
 26 05 2013  16 16  -21.0934 26063.6 -03436.0 -07.5100 26289.1
 26 05 2013  16 17  -21.0923 26062.5 -03435.8 -07.5098 26288.0
 26 05 2013  16 18  -21.0922 26061.8 -03435.8 -07.5102 26287.3
 26 05 2013  16 19  -21.0916 26060.8 -03435.7 -07.5102 26286.3
 26 05 2013  16 20  -21.0911 26059.8 -03435.7 -07.5104 26285.3
 26 05 2013  16 21  -21.0911 26059.2 -03435.8 -07.5110 26284.7
 26 05 2013  16 22  -21.0906 26058.0 -03435.8 -07.5112 26283.5
 26 05 2013  16 23  -21.0902 26056.9 -03435.8 -07.5116 26282.5
 26 05 2013  16 24  -21.0902 26056.1 -03436.0 -07.5122 26281.6
 26 05 2013  16 25  -21.0900 26055.9 -03436.5 -07.5133 26281.6
 26 05 2013  16 26  -21.0899 26055.4 -03436.7 -07.5139 26281.1
 26 05 2013  16 27  -21.0906 26055.5 -03437.2 -07.5149 26281.2
 26 05 2013  16 28  -21.0916 26055.9 -03437.6 -07.5156 26281.7
 26 05 2013  16 29  -21.0929 26056.8 -03438.1 -07.5166 26282.6
 26 05 2013  16 30  -21.0934 26057.5 -03438.3 -07.5169 26283.3
 26 05 2013  16 31  -21.0936 26057.7 -03438.3 -07.5167 26283.5
 26 05 2013  16 32  -21.0938 26058.1 -03438.4 -07.5168 26284.0
 26 05 2013  16 33  -21.0934 26057.8 -03438.1 -07.5162 26283.6
 26 05 2013  16 34  -21.0921 26056.8 -03437.6 -07.5154 26282.6
 26 05 2013  16 35  -21.0920 26056.0 -03437.3 -07.5151 26281.8
 26 05 2013  16 36  -21.0912 26055.3 -03437.1 -07.5148 26281.0
 26 05 2013  16 37  -21.0908 26055.0 -03437.1 -07.5148 26280.7
 26 05 2013  16 38  -21.0907 26055.5 -03437.3 -07.5152 26281.2
 26 05 2013  16 39  -21.0912 26055.5 -03437.4 -07.5154 26281.3
 26 05 2013  16 40  -21.0918 26055.0 -03437.2 -07.5150 26280.7
 26 05 2013  16 41  -21.0922 26054.8 -03437.1 -07.5150 26280.5
 26 05 2013  16 42  -21.0915 26054.2 -03436.9 -07.5147 26279.9
 26 05 2013  16 43  -21.0910 26053.6 -03436.7 -07.5143 26279.3
 26 05 2013  16 44  -21.0903 26053.0 -03436.4 -07.5140 26278.7
 26 05 2013  16 45  -21.0896 26052.4 -03436.3 -07.5139 26278.0
 26 05 2013  16 46  -21.0897 26051.8 -03436.3 -07.5140 26277.5
 26 05 2013  16 47  -21.0892 26051.3 -03436.2 -07.5140 26277.0
 26 05 2013  16 48  -21.0887 26050.7 -03436.2 -07.5143 26276.4
 26 05 2013  16 49  -21.0885 26050.1 -03436.2 -07.5144 26275.7
 26 05 2013  16 50  -21.0887 26049.7 -03436.3 -07.5148 26275.4
 26 05 2013  16 51  -21.0883 26050.0 -03436.7 -07.5154 26275.7
 26 05 2013  16 52  -21.0866 26050.4 -03436.8 -07.5156 26276.2
 26 05 2013  16 53  -21.0856 26048.1 -03436.0 -07.5145 26273.8
 26 05 2013  16 54  -21.0851 26048.0 -03436.2 -07.5150 26273.6
 26 05 2013  16 55  -21.0855 26048.2 -03436.7 -07.5159 26273.9
 26 05 2013  16 56  -21.0858 26048.0 -03436.8 -07.5162 26273.8
 26 05 2013  16 57  -21.0851 26047.4 -03436.6 -07.5161 26273.1
 26 05 2013  16 58  -21.0845 26046.0 -03436.3 -07.5158 26271.7
 26 05 2013  16 59  -21.0839 26045.5 -03436.4 -07.5161 26271.2
 26 05 2013  17 00  -21.0841 26045.3 -03436.7 -07.5168 26271.1
 26 05 2013  17 01  -21.0845 26044.9 -03436.9 -07.5173 26270.7
 26 05 2013  17 02  -21.0848 26044.1 -03436.8 -07.5174 26269.9
 26 05 2013  17 03  -21.0861 26044.1 -03437.1 -07.5180 26269.9
 26 05 2013  17 04  -21.0863 26044.2 -03437.2 -07.5183 26270.1
 26 05 2013  17 05  -21.0873 26044.0 -03437.2 -07.5182 26269.8
 26 05 2013  17 06  -21.0881 26044.3 -03437.3 -07.5183 26270.1
 26 05 2013  17 07  -21.0884 26044.3 -03437.2 -07.5182 26270.2
 26 05 2013  17 08  -21.0885 26043.8 -03437.0 -07.5179 26269.7
 26 05 2013  17 09  -21.0885 26043.1 -03436.8 -07.5177 26268.9
 26 05 2013  17 10  -21.0884 26042.5 -03436.7 -07.5176 26268.3
 26 05 2013  17 11  -21.0885 26042.0 -03436.7 -07.5177 26267.8
 26 05 2013  17 12  -21.0887 26041.3 -03436.5 -07.5176 26267.1
 26 05 2013  17 13  -21.0885 26040.7 -03436.4 -07.5175 26266.5
 26 05 2013  17 14  -21.0884 26040.6 -03436.5 -07.5177 26266.4
 26 05 2013  17 15  -21.0886 26040.6 -03436.5 -07.5177 26266.4
 26 05 2013  17 16  -21.0885 26040.8 -03436.7 -07.5180 26266.6
 26 05 2013  17 17  -21.0883 26041.1 -03436.9 -07.5184 26266.9
 26 05 2013  17 18  -21.0887 26041.3 -03437.1 -07.5188 26267.2
 26 05 2013  17 19  -21.0894 26041.7 -03437.3 -07.5191 26267.6
 26 05 2013  17 20  -21.0893 26041.3 -03437.1 -07.5187 26267.1
 26 05 2013  17 21  -21.0887 26041.1 -03437.0 -07.5187 26266.9
 26 05 2013  17 22  -21.0883 26040.7 -03437.0 -07.5187 26266.6
 26 05 2013  17 23  -21.0886 26040.4 -03436.9 -07.5187 26266.2
 26 05 2013  17 24  -21.0877 26039.4 -03436.6 -07.5183 26265.2
 26 05 2013  17 25  -21.0866 26038.7 -03436.5 -07.5182 26264.5
 26 05 2013  17 26  -21.0859 26038.0 -03436.4 -07.5183 26263.8
 26 05 2013  17 27  -21.0855 26037.1 -03436.3 -07.5182 26262.9
 26 05 2013  17 28  -21.0856 26036.9 -03436.4 -07.5186 26262.7
 26 05 2013  17 29  -21.0850 26035.6 -03436.1 -07.5183 26261.4
 26 05 2013  17 30  -21.0838 26034.8 -03436.0 -07.5182 26260.5
 26 05 2013  17 31  -21.0836 26034.9 -03436.3 -07.5189 26260.7
 26 05 2013  17 32  -21.0843 26035.3 -03436.7 -07.5196 26261.1
 26 05 2013  17 33  -21.0853 26035.4 -03436.9 -07.5199 26261.3
 26 05 2013  17 34  -21.0852 26035.6 -03437.0 -07.5201 26261.4
 26 05 2013  17 35  -21.0850 26034.9 -03436.8 -07.5200 26260.8
 26 05 2013  17 36  -21.0849 26033.6 -03436.4 -07.5194 26259.4
 26 05 2013  17 37  -21.0850 26033.6 -03436.5 -07.5197 26259.4
 26 05 2013  17 38  -21.0852 26033.3 -03436.6 -07.5199 26259.1
 26 05 2013  17 39  -21.0850 26032.2 -03436.3 -07.5198 26258.1
 26 05 2013  17 40  -21.0859 26032.7 -03436.7 -07.5205 26258.5
 26 05 2013  17 41  -21.0860 26032.8 -03437.0 -07.5209 26258.7
 26 05 2013  17 42  -21.0869 26033.0 -03437.1 -07.5211 26258.9
 26 05 2013  17 43  -21.0885 26033.7 -03437.4 -07.5216 26259.7
 26 05 2013  17 44  -21.0886 26033.8 -03437.2 -07.5212 26259.7
 26 05 2013  17 45  -21.0889 26033.4 -03436.9 -07.5207 26259.3
 26 05 2013  17 46  -21.0890 26033.6 -03437.0 -07.5207 26259.5
 26 05 2013  17 47  -21.0899 26034.1 -03437.1 -07.5209 26260.0
 26 05 2013  17 48  -21.0899 26034.1 -03437.0 -07.5207 26260.0
 26 05 2013  17 49  -21.0889 26034.1 -03436.9 -07.5204 26260.0
 26 05 2013  17 50  -21.0887 26034.8 -03437.1 -07.5206 26260.7
 26 05 2013  17 51  -21.0894 26035.8 -03437.4 -07.5211 26261.8
 26 05 2013  17 52  -21.0899 26037.1 -03437.9 -07.5216 26263.1
 26 05 2013  17 53  -21.0891 26037.5 -03437.7 -07.5213 26263.5
 26 05 2013  17 54  -21.0882 26037.7 -03437.7 -07.5211 26263.7
 26 05 2013  17 55  -21.0864 26037.6 -03437.6 -07.5208 26263.6
 26 05 2013  17 56  -21.0859 26038.0 -03437.8 -07.5213 26264.0
 26 05 2013  17 57  -21.0858 26037.8 -03437.9 -07.5214 26263.8
 26 05 2013  17 58  -21.0853 26036.8 -03437.5 -07.5210 26262.8
 26 05 2013  17 59  -21.0849 26035.9 -03437.3 -07.5208 26261.8
 26 05 2013  18 00  -21.0842 26034.9 -03437.1 -07.5205 26260.8
 26 05 2013  18 01  -21.0844 26034.5 -03437.1 -07.5207 26260.4
 26 05 2013  18 02  -21.0842 26034.1 -03437.2 -07.5210 26260.1
 26 05 2013  18 03  -21.0835 26033.6 -03437.2 -07.5212 26259.6
 26 05 2013  18 04  -21.0819 26032.9 -03437.2 -07.5213 26258.8
 26 05 2013  18 05  -21.0801 26032.0 -03437.2 -07.5216 26258.0
 26 05 2013  18 06  -21.0797 26031.8 -03437.5 -07.5224 26257.8
 26 05 2013  18 07  -21.0791 26030.8 -03437.5 -07.5227 26256.8
 26 05 2013  18 08  -21.0784 26029.2 -03437.2 -07.5224 26255.1
 26 05 2013  18 09  -21.0787 26028.3 -03437.1 -07.5225 26254.2
 26 05 2013  18 10  -21.0793 26028.6 -03437.5 -07.5233 26254.6
 26 05 2013  18 11  -21.0791 26029.0 -03437.9 -07.5241 26255.0
 26 05 2013  18 12  -21.0793 26029.3 -03438.3 -07.5249 26255.4
 26 05 2013  18 13  -21.0798 26030.0 -03438.9 -07.5258 26256.2
 26 05 2013  18 14  -21.0804 26030.2 -03439.2 -07.5265 26256.4
 26 05 2013  18 15  -21.0810 26030.1 -03439.4 -07.5269 26256.4
 26 05 2013  18 16  -21.0817 26029.9 -03439.5 -07.5272 26256.1
 26 05 2013  18 17  -21.0822 26029.7 -03439.5 -07.5273 26256.0
 26 05 2013  18 18  -21.0830 26029.3 -03439.5 -07.5274 26255.6
 26 05 2013  18 19  -21.0827 26028.7 -03439.3 -07.5271 26254.9
 26 05 2013  18 20  -21.0829 26028.3 -03439.3 -07.5273 26254.5
 26 05 2013  18 21  -21.0831 26028.1 -03439.5 -07.5277 26254.4
 26 05 2013  18 22  -21.0833 26028.0 -03439.6 -07.5281 26254.3
 26 05 2013  18 23  -21.0834 26027.9 -03439.8 -07.5284 26254.2
 26 05 2013  18 24  -21.0833 26027.7 -03439.8 -07.5286 26254.0
 26 05 2013  18 25  -21.0835 26027.5 -03439.9 -07.5287 26253.8
 26 05 2013  18 26  -21.0838 26027.3 -03440.0 -07.5291 26253.6
 26 05 2013  18 27  -21.0841 26026.8 -03439.9 -07.5291 26253.1
 26 05 2013  18 28  -21.0840 26026.1 -03439.9 -07.5291 26252.5
 26 05 2013  18 29  -21.0838 26025.4 -03439.8 -07.5291 26251.8
 26 05 2013  18 30  -21.0838 26025.3 -03440.0 -07.5297 26251.6
 26 05 2013  18 31  -21.0842 26025.3 -03440.3 -07.5303 26251.7
 26 05 2013  18 32  -21.0838 26024.7 -03440.3 -07.5304 26251.1
 26 05 2013  18 33  -21.0838 26024.2 -03440.3 -07.5306 26250.6
 26 05 2013  18 34  -21.0837 26023.5 -03440.3 -07.5308 26250.0
 26 05 2013  18 35  -21.0827 26022.7 -03440.2 -07.5308 26249.1
 26 05 2013  18 36  -21.0826 26022.2 -03440.4 -07.5314 26248.6
 26 05 2013  18 37  -21.0828 26021.9 -03440.7 -07.5321 26248.4
 26 05 2013  18 38  -21.0821 26021.3 -03440.7 -07.5324 26247.8
 26 05 2013  18 39  -21.0817 26020.5 -03440.8 -07.5327 26247.0
 26 05 2013  18 40  -21.0811 26019.8 -03441.0 -07.5333 26246.3
 26 05 2013  18 41  -21.0807 26019.3 -03441.2 -07.5339 26245.9
 26 05 2013  18 42  -21.0806 26018.8 -03441.4 -07.5344 26245.4
 26 05 2013  18 43  -21.0802 26018.2 -03441.5 -07.5350 26244.8
 26 05 2013  18 44  -21.0799 26017.4 -03441.7 -07.5356 26244.1
 26 05 2013  18 45  -21.0796 26017.0 -03442.0 -07.5364 26243.7
 26 05 2013  18 46  -21.0795 26016.8 -03442.4 -07.5372 26243.6
 26 05 2013  18 47  -21.0794 26016.4 -03442.6 -07.5377 26243.2
 26 05 2013  18 48  -21.0794 26016.2 -03442.8 -07.5384 26243.0
 26 05 2013  18 49  -21.0793 26016.1 -03443.3 -07.5393 26243.0
 26 05 2013  18 50  -21.0789 26015.9 -03443.5 -07.5399 26242.8
 26 05 2013  18 51  -21.0788 26015.5 -03443.7 -07.5406 26242.4
 26 05 2013  18 52  -21.0793 26015.2 -03444.0 -07.5412 26242.2
 26 05 2013  18 53  -21.0793 26014.9 -03444.1 -07.5415 26241.9
 26 05 2013  18 54  -21.0796 26014.8 -03444.4 -07.5421 26241.8
 26 05 2013  18 55  -21.0797 26014.8 -03444.6 -07.5425 26241.8
 26 05 2013  18 56  -21.0801 26014.7 -03444.7 -07.5428 26241.7
 26 05 2013  18 57  -21.0801 26014.5 -03444.8 -07.5430 26241.6
 26 05 2013  18 58  -21.0799 26014.2 -03444.8 -07.5432 26241.3
 26 05 2013  18 59  -21.0795 26013.6 -03444.7 -07.5433 26240.7
 26 05 2013  19 00  -21.0789 26012.7 -03444.6 -07.5432 26239.8
 26 05 2013  19 01  -21.0783 26012.0 -03444.5 -07.5433 26239.0
 26 05 2013  19 02  -21.0775 26011.2 -03444.5 -07.5434 26238.2
 26 05 2013  19 03  -21.0765 26010.5 -03444.6 -07.5437 26237.6
 26 05 2013  19 04  -21.0758 26010.0 -03444.8 -07.5443 26237.1
 26 05 2013  19 05  -21.0747 26009.1 -03444.7 -07.5445 26236.2
 26 05 2013  19 06  -21.0744 26008.4 -03444.8 -07.5449 26235.5
 26 05 2013  19 07  -21.0738 26007.7 -03444.9 -07.5453 26234.9
 26 05 2013  19 08  -21.0730 26007.2 -03445.0 -07.5457 26234.4
 26 05 2013  19 09  -21.0722 26006.8 -03445.2 -07.5461 26234.0
 26 05 2013  19 10  -21.0714 26006.3 -03445.3 -07.5466 26233.5
 26 05 2013  19 11  -21.0717 26006.3 -03445.8 -07.5475 26233.5
 26 05 2013  19 12  -21.0721 26006.3 -03446.1 -07.5483 26233.7
 26 05 2013  19 13  -21.0718 26006.1 -03446.2 -07.5486 26233.4
 26 05 2013  19 14  -21.0716 26005.9 -03446.3 -07.5488 26233.3
 26 05 2013  19 15  -21.0722 26005.9 -03446.5 -07.5494 26233.3
 26 05 2013  19 16  -21.0728 26006.0 -03446.7 -07.5498 26233.4
 26 05 2013  19 17  -21.0731 26005.4 -03446.5 -07.5494 26232.8
 26 05 2013  19 18  -21.0738 26005.6 -03446.6 -07.5496 26233.0
 26 05 2013  19 19  -21.0743 26006.2 -03446.9 -07.5501 26233.6
 26 05 2013  19 20  -21.0740 26006.3 -03447.0 -07.5503 26233.8
 26 05 2013  19 21  -21.0739 26006.3 -03447.0 -07.5502 26233.8
 26 05 2013  19 22  -21.0737 26006.6 -03447.1 -07.5503 26234.0
 26 05 2013  19 23  -21.0735 26006.6 -03447.1 -07.5503 26234.1
 26 05 2013  19 24  -21.0737 26006.5 -03447.0 -07.5501 26233.9
 26 05 2013  19 25  -21.0738 26006.1 -03446.7 -07.5497 26233.5
 26 05 2013  19 26  -21.0736 26005.6 -03446.5 -07.5494 26233.0
 26 05 2013  19 27  -21.0732 26005.0 -03446.3 -07.5490 26232.4
 26 05 2013  19 28  -21.0731 26004.8 -03446.2 -07.5489 26232.2
 26 05 2013  19 29  -21.0727 26005.0 -03446.3 -07.5491 26232.4
 26 05 2013  19 30  -21.0723 26004.9 -03446.3 -07.5491 26232.3
 26 05 2013  19 31  -21.0722 26004.7 -03446.2 -07.5490 26232.0
 26 05 2013  19 32  -21.0718 26004.5 -03446.2 -07.5490 26231.8
 26 05 2013  19 33  -21.0719 26004.3 -03446.2 -07.5490 26231.7
 26 05 2013  19 34  -21.0715 26004.1 -03446.2 -07.5491 26231.5
 26 05 2013  19 35  -21.0707 26003.7 -03446.0 -07.5488 26231.0
 26 05 2013  19 36  -21.0704 26003.2 -03445.9 -07.5487 26230.6
 26 05 2013  19 37  -21.0702 26002.9 -03445.8 -07.5487 26230.3
 26 05 2013  19 38  -21.0700 26002.7 -03445.9 -07.5489 26230.0
 26 05 2013  19 39  -21.0700 26002.8 -03446.0 -07.5491 26230.1
 26 05 2013  19 40  -21.0699 26002.7 -03446.0 -07.5491 26230.0
 26 05 2013  19 41  -21.0703 26002.8 -03446.1 -07.5494 26230.1
 26 05 2013  19 42  -21.0703 26002.7 -03446.1 -07.5494 26230.0
 26 05 2013  19 43  -21.0705 26002.7 -03446.2 -07.5494 26230.0
 26 05 2013  19 44  -21.0707 26002.6 -03446.2 -07.5495 26230.0
 26 05 2013  19 45  -21.0713 26002.8 -03446.3 -07.5498 26230.1
 26 05 2013  19 46  -21.0717 26002.7 -03446.4 -07.5499 26230.1
 26 05 2013  19 47  -21.0724 26002.8 -03446.5 -07.5501 26230.2
 26 05 2013  19 48  -21.0728 26002.8 -03446.5 -07.5501 26230.2
 26 05 2013  19 49  -21.0730 26002.6 -03446.4 -07.5500 26230.0
 26 05 2013  19 50  -21.0727 26002.2 -03446.3 -07.5498 26229.6
 26 05 2013  19 51  -21.0725 26001.8 -03446.1 -07.5497 26229.2
 26 05 2013  19 52  -21.0726 26001.1 -03445.9 -07.5493 26228.5
 26 05 2013  19 53  -21.0728 26000.6 -03445.6 -07.5489 26227.9
 26 05 2013  19 54  -21.0725 26000.0 -03445.4 -07.5486 26227.3
 26 05 2013  19 55  -21.0718 25999.5 -03445.2 -07.5483 26226.7
 26 05 2013  19 56  -21.0715 25999.5 -03445.3 -07.5485 26226.7
 26 05 2013  19 57  -21.0721 25999.9 -03445.7 -07.5492 26227.2
 26 05 2013  19 58  -21.0727 26000.4 -03446.1 -07.5500 26227.8
 26 05 2013  19 59  -21.0729 26000.9 -03446.4 -07.5505 26228.3
 26 05 2013  20 00  -21.0731 26001.2 -03446.6 -07.5508 26228.7
 26 05 2013  20 01  -21.0730 26001.2 -03446.5 -07.5507 26228.6
 26 05 2013  20 02  -21.0722 26000.1 -03446.1 -07.5500 26227.5
 26 05 2013  20 03  -21.0713 25999.3 -03445.6 -07.5492 26226.7
 26 05 2013  20 04  -21.0712 25999.0 -03445.5 -07.5490 26226.4
 26 05 2013  20 05  -21.0714 25998.7 -03445.3 -07.5488 26226.0
 26 05 2013  20 06  -21.0712 25998.2 -03445.1 -07.5484 26225.5
 26 05 2013  20 07  -21.0707 25997.8 -03444.8 -07.5480 26225.1
 26 05 2013  20 08  -21.0703 25997.5 -03444.6 -07.5476 26224.7
 26 05 2013  20 09  -21.0696 25997.2 -03444.5 -07.5474 26224.4
 26 05 2013  20 10  -21.0690 25996.9 -03444.4 -07.5473 26224.1
 26 05 2013  20 11  -21.0689 25997.3 -03444.7 -07.5478 26224.5
 26 05 2013  20 12  -21.0690 25997.9 -03445.1 -07.5485 26225.2
 26 05 2013  20 13  -21.0692 25998.6 -03445.4 -07.5490 26225.9
 26 05 2013  20 14  -21.0697 25999.4 -03445.8 -07.5497 26226.8
 26 05 2013  20 15  -21.0703 26000.5 -03446.3 -07.5504 26227.9
 26 05 2013  20 16  -21.0711 26001.6 -03446.8 -07.5512 26229.1
 26 05 2013  20 17  -21.0716 26002.4 -03447.1 -07.5516 26229.9
 26 05 2013  20 18  -21.0722 26003.1 -03447.3 -07.5517 26230.6
 26 05 2013  20 19  -21.0721 26003.9 -03447.5 -07.5519 26231.4
 26 05 2013  20 20  -21.0725 26004.9 -03447.8 -07.5523 26232.5
 26 05 2013  20 21  -21.0731 26005.9 -03448.1 -07.5527 26233.5
 26 05 2013  20 22  -21.0736 26006.7 -03448.3 -07.5528 26234.3
 26 05 2013  20 23  -21.0740 26007.8 -03448.5 -07.5530 26235.4
 26 05 2013  20 24  -21.0742 26008.5 -03448.5 -07.5528 26236.1
 26 05 2013  20 25  -21.0741 26009.0 -03448.3 -07.5523 26236.6
 26 05 2013  20 26  -21.0733 26009.0 -03447.8 -07.5513 26236.5
 26 05 2013  20 27  -21.0723 26008.6 -03447.3 -07.5501 26236.1
 26 05 2013  20 28  -21.0711 26008.1 -03446.7 -07.5491 26235.5
 26 05 2013  20 29  -21.0699 26008.9 -03446.9 -07.5492 26236.3
 26 05 2013  20 30  -21.0689 26009.1 -03446.9 -07.5492 26236.5
 26 05 2013  20 31  -21.0683 26008.7 -03446.7 -07.5490 26236.1
 26 05 2013  20 32  -21.0677 26008.5 -03446.6 -07.5488 26235.8
 26 05 2013  20 33  -21.0669 26007.9 -03446.4 -07.5485 26235.3
 26 05 2013  20 34  -21.0663 26007.6 -03446.3 -07.5483 26234.9
 26 05 2013  20 35  -21.0654 26007.4 -03446.2 -07.5482 26234.7
 26 05 2013  20 36  -21.0650 26007.2 -03446.2 -07.5481 26234.6
 26 05 2013  20 37  -21.0644 26006.9 -03446.0 -07.5478 26234.2
 26 05 2013  20 38  -21.0637 26006.5 -03445.8 -07.5476 26233.7
 26 05 2013  20 39  -21.0627 26006.3 -03445.8 -07.5477 26233.6
 26 05 2013  20 40  -21.0621 26006.4 -03446.0 -07.5479 26233.7
 26 05 2013  20 41  -21.0611 26006.4 -03446.0 -07.5481 26233.7
 26 05 2013  20 42  -21.0606 26006.4 -03446.2 -07.5484 26233.8
 26 05 2013  20 43  -21.0604 26006.6 -03446.3 -07.5487 26233.9
 26 05 2013  20 44  -21.0606 26007.0 -03446.6 -07.5492 26234.4
 26 05 2013  20 45  -21.0612 26007.3 -03446.7 -07.5494 26234.7
 26 05 2013  20 46  -21.0616 26007.3 -03446.8 -07.5494 26234.7
 26 05 2013  20 47  -21.0617 26007.4 -03446.7 -07.5492 26234.8
 26 05 2013  20 48  -21.0615 26007.6 -03446.6 -07.5490 26234.9
 26 05 2013  20 49  -21.0611 26007.9 -03446.6 -07.5490 26235.3
 26 05 2013  20 50  -21.0607 26008.1 -03446.7 -07.5490 26235.5
 26 05 2013  20 51  -21.0598 26008.3 -03446.6 -07.5487 26235.6
 26 05 2013  20 52  -21.0591 26008.3 -03446.4 -07.5485 26235.7
 26 05 2013  20 53  -21.0585 26008.4 -03446.4 -07.5483 26235.7
 26 05 2013  20 54  -21.0583 26008.4 -03446.4 -07.5484 26235.7
 26 05 2013  20 55  -21.0583 26008.5 -03446.5 -07.5485 26235.8
 26 05 2013  20 56  -21.0581 26009.0 -03446.7 -07.5489 26236.4
 26 05 2013  20 57  -21.0578 26009.8 -03447.1 -07.5494 26237.2
 26 05 2013  20 58  -21.0575 26010.0 -03447.2 -07.5495 26237.4
 26 05 2013  20 59  -21.0573 26010.1 -03447.2 -07.5495 26237.6
 26 05 2013  21 00  -21.0573 26010.2 -03447.2 -07.5495 26237.7
 26 05 2013  21 01  -21.0575 26010.4 -03447.2 -07.5495 26237.9
 26 05 2013  21 02  -21.0578 26010.6 -03447.2 -07.5494 26238.0
 26 05 2013  21 03  -21.0579 26010.8 -03447.2 -07.5494 26238.2
 26 05 2013  21 04  -21.0579 26011.0 -03447.2 -07.5493 26238.4
 26 05 2013  21 05  -21.0577 26011.0 -03447.1 -07.5491 26238.5
 26 05 2013  21 06  -21.0572 26011.2 -03447.1 -07.5490 26238.6
 26 05 2013  21 07  -21.0569 26011.3 -03447.0 -07.5488 26238.7
 26 05 2013  21 08  -21.0564 26011.4 -03447.0 -07.5487 26238.8
 26 05 2013  21 09  -21.0559 26011.5 -03446.9 -07.5486 26238.9
 26 05 2013  21 10  -21.0556 26011.5 -03446.8 -07.5484 26238.9
 26 05 2013  21 11  -21.0553 26011.8 -03446.9 -07.5484 26239.1
 26 05 2013  21 12  -21.0553 26011.9 -03446.9 -07.5484 26239.3
 26 05 2013  21 13  -21.0553 26012.0 -03446.9 -07.5484 26239.4
 26 05 2013  21 14  -21.0553 26011.9 -03446.8 -07.5482 26239.2
 26 05 2013  21 15  -21.0551 26011.9 -03446.7 -07.5480 26239.2
 26 05 2013  21 16  -21.0549 26011.9 -03446.7 -07.5479 26239.3
 26 05 2013  21 17  -21.0545 26012.0 -03446.6 -07.5477 26239.3
 26 05 2013  21 18  -21.0544 26012.0 -03446.6 -07.5476 26239.3
 26 05 2013  21 19  -21.0543 26012.0 -03446.5 -07.5476 26239.3
 26 05 2013  21 20  -21.0542 26012.1 -03446.6 -07.5476 26239.5
 26 05 2013  21 21  -21.0542 26012.2 -03446.6 -07.5476 26239.5
 26 05 2013  21 22  -21.0543 26012.2 -03446.5 -07.5475 26239.5
 26 05 2013  21 23  -21.0543 26012.3 -03446.5 -07.5475 26239.6
 26 05 2013  21 24  -21.0541 26012.2 -03446.5 -07.5474 26239.6
 26 05 2013  21 25  -21.0540 26012.2 -03446.4 -07.5472 26239.6
 26 05 2013  21 26  -21.0539 26012.4 -03446.4 -07.5473 26239.8
 26 05 2013  21 27  -21.0540 26012.6 -03446.4 -07.5472 26239.9
 26 05 2013  21 28  -21.0541 26012.7 -03446.5 -07.5473 26240.0
 26 05 2013  21 29  -21.0542 26012.8 -03446.5 -07.5472 26240.2
 26 05 2013  21 30  -21.0544 26013.0 -03446.5 -07.5472 26240.3
 26 05 2013  21 31  -21.0544 26012.9 -03446.4 -07.5471 26240.2
 26 05 2013  21 32  -21.0547 26013.0 -03446.4 -07.5470 26240.3
 26 05 2013  21 33  -21.0548 26013.1 -03446.4 -07.5470 26240.4
 26 05 2013  21 34  -21.0548 26013.1 -03446.3 -07.5468 26240.4
 26 05 2013  21 35  -21.0551 26013.1 -03446.3 -07.5467 26240.4
 26 05 2013  21 36  -21.0555 26013.1 -03446.2 -07.5466 26240.4
 26 05 2013  21 37  -21.0557 26013.3 -03446.3 -07.5467 26240.6
 26 05 2013  21 38  -21.0561 26013.1 -03446.2 -07.5465 26240.4
 26 05 2013  21 39  -21.0566 26013.2 -03446.1 -07.5464 26240.5
 26 05 2013  21 40  -21.0571 26013.3 -03446.1 -07.5463 26240.6
 26 05 2013  21 41  -21.0577 26013.3 -03446.1 -07.5462 26240.6
 26 05 2013  21 42  -21.0582 26013.4 -03446.1 -07.5462 26240.7
 26 05 2013  21 43  -21.0584 26013.3 -03445.9 -07.5459 26240.5
 26 05 2013  21 44  -21.0586 26013.3 -03445.8 -07.5456 26240.5
 26 05 2013  21 45  -21.0589 26013.1 -03445.6 -07.5453 26240.3
 26 05 2013  21 46  -21.0591 26013.1 -03445.5 -07.5451 26240.3
 26 05 2013  21 47  -21.0590 26013.0 -03445.4 -07.5449 26240.2
 26 05 2013  21 48  -21.0589 26012.9 -03445.3 -07.5446 26240.0
 26 05 2013  21 49  -21.0589 26012.7 -03445.1 -07.5443 26239.9
 26 05 2013  21 50  -21.0589 26012.6 -03445.0 -07.5442 26239.7
 26 05 2013  21 51  -21.0589 26012.4 -03444.9 -07.5439 26239.6
 26 05 2013  21 52  -21.0589 26012.2 -03444.8 -07.5437 26239.3
 26 05 2013  21 53  -21.0588 26012.1 -03444.6 -07.5434 26239.2
 26 05 2013  21 54  -21.0588 26011.9 -03444.5 -07.5433 26239.0
 26 05 2013  21 55  -21.0590 26011.7 -03444.4 -07.5431 26238.8
 26 05 2013  21 56  -21.0591 26011.7 -03444.3 -07.5429 26238.7
 26 05 2013  21 57  -21.0590 26011.6 -03444.3 -07.5428 26238.6
 26 05 2013  21 58  -21.0589 26011.5 -03444.2 -07.5427 26238.5
 26 05 2013  21 59  -21.0587 26011.3 -03444.1 -07.5425 26238.3
 26 05 2013  22 00  -21.0586 26011.0 -03443.9 -07.5422 26238.0
 26 05 2013  22 01  -21.0587 26010.9 -03443.9 -07.5422 26237.9
 26 05 2013  22 02  -21.0587 26010.8 -03443.9 -07.5422 26237.8
 26 05 2013  22 03  -21.0591 26010.6 -03443.8 -07.5421 26237.6
 26 05 2013  22 04  -21.0595 26010.4 -03443.7 -07.5420 26237.4
 26 05 2013  22 05  -21.0599 26010.4 -03443.7 -07.5420 26237.4
 26 05 2013  22 06  -21.0599 26010.2 -03443.6 -07.5418 26237.2
 26 05 2013  22 07  -21.0603 26010.0 -03443.5 -07.5416 26237.0
 26 05 2013  22 08  -21.0608 26009.9 -03443.5 -07.5416 26236.8
 26 05 2013  22 09  -21.0614 26009.8 -03443.5 -07.5415 26236.8
 26 05 2013  22 10  -21.0616 26009.8 -03443.4 -07.5415 26236.7
 26 05 2013  22 11  -21.0616 26009.7 -03443.4 -07.5414 26236.7
 26 05 2013  22 12  -21.0617 26009.7 -03443.3 -07.5413 26236.6
 26 05 2013  22 13  -21.0617 26009.6 -03443.3 -07.5412 26236.5
 26 05 2013  22 14  -21.0616 26009.4 -03443.2 -07.5410 26236.3
 26 05 2013  22 15  -21.0615 26009.3 -03443.1 -07.5410 26236.2
 26 05 2013  22 16  -21.0616 26009.2 -03443.1 -07.5409 26236.1
 26 05 2013  22 17  -21.0616 26009.3 -03443.1 -07.5409 26236.2
 26 05 2013  22 18  -21.0614 26009.2 -03443.1 -07.5409 26236.2
 26 05 2013  22 19  -21.0613 26009.1 -03443.0 -07.5408 26236.0
 26 05 2013  22 20  -21.0613 26009.1 -03443.0 -07.5407 26236.0
 26 05 2013  22 21  -21.0612 26009.0 -03443.0 -07.5407 26235.9
 26 05 2013  22 22  -21.0612 26009.0 -03443.0 -07.5407 26235.9
 26 05 2013  22 23  -21.0612 26008.9 -03443.0 -07.5408 26235.8
 26 05 2013  22 24  -21.0613 26008.9 -03443.0 -07.5407 26235.8
 26 05 2013  22 25  -21.0613 26009.0 -03443.0 -07.5408 26235.9
 26 05 2013  22 26  -21.0612 26009.0 -03443.0 -07.5408 26235.9
 26 05 2013  22 27  -21.0612 26008.9 -03442.9 -07.5407 26235.8
 26 05 2013  22 28  -21.0614 26009.0 -03443.0 -07.5407 26235.8
 26 05 2013  22 29  -21.0617 26009.0 -03443.0 -07.5409 26235.9
 26 05 2013  22 30  -21.0621 26009.0 -03443.1 -07.5409 26235.9
 26 05 2013  22 31  -21.0627 26009.1 -03443.1 -07.5410 26236.0
 26 05 2013  22 32  -21.0629 26009.2 -03443.1 -07.5410 26236.1
 26 05 2013  22 33  -21.0630 26009.3 -03443.2 -07.5411 26236.2
 26 05 2013  22 34  -21.0633 26009.3 -03443.2 -07.5411 26236.2
 26 05 2013  22 35  -21.0634 26009.5 -03443.2 -07.5410 26236.4
 26 05 2013  22 36  -21.0634 26009.6 -03443.2 -07.5410 26236.5
 26 05 2013  22 37  -21.0635 26009.6 -03443.2 -07.5410 26236.5
 26 05 2013  22 38  -21.0638 26009.7 -03443.2 -07.5410 26236.6
 26 05 2013  22 39  -21.0639 26009.7 -03443.2 -07.5410 26236.6
 26 05 2013  22 40  -21.0643 26009.8 -03443.2 -07.5410 26236.7
 26 05 2013  22 41  -21.0645 26009.8 -03443.2 -07.5410 26236.8
 26 05 2013  22 42  -21.0646 26010.0 -03443.2 -07.5410 26236.9
 26 05 2013  22 43  -21.0645 26010.1 -03443.2 -07.5410 26237.0
 26 05 2013  22 44  -21.0644 26010.3 -03443.3 -07.5410 26237.2
 26 05 2013  22 45  -21.0645 26010.4 -03443.3 -07.5410 26237.3
 26 05 2013  22 46  -21.0645 26010.6 -03443.3 -07.5411 26237.5
 26 05 2013  22 47  -21.0646 26010.8 -03443.4 -07.5412 26237.8
 26 05 2013  22 48  -21.0648 26011.0 -03443.5 -07.5414 26238.0
 26 05 2013  22 49  -21.0648 26011.2 -03443.5 -07.5414 26238.1
 26 05 2013  22 50  -21.0648 26011.5 -03443.6 -07.5414 26238.4
 26 05 2013  22 51  -21.0648 26011.6 -03443.6 -07.5414 26238.6
 26 05 2013  22 52  -21.0646 26011.7 -03443.6 -07.5413 26238.6
 26 05 2013  22 53  -21.0644 26011.9 -03443.7 -07.5414 26238.9
 26 05 2013  22 54  -21.0640 26012.2 -03443.7 -07.5414 26239.1
 26 05 2013  22 55  -21.0640 26012.5 -03443.8 -07.5416 26239.5
 26 05 2013  22 56  -21.0640 26012.9 -03444.0 -07.5418 26239.9
 26 05 2013  22 57  -21.0641 26013.1 -03444.1 -07.5420 26240.1
 26 05 2013  22 58  -21.0642 26013.4 -03444.2 -07.5421 26240.4
 26 05 2013  22 59  -21.0643 26013.5 -03444.2 -07.5421 26240.5
 26 05 2013  23 00  -21.0641 26013.7 -03444.2 -07.5421 26240.7
 26 05 2013  23 01  -21.0640 26013.7 -03444.2 -07.5420 26240.7
 26 05 2013  23 02  -21.0641 26013.7 -03444.1 -07.5418 26240.7
 26 05 2013  23 03  -21.0641 26013.7 -03444.0 -07.5417 26240.7
 26 05 2013  23 04  -21.0643 26013.8 -03444.0 -07.5417 26240.8
 26 05 2013  23 05  -21.0644 26013.5 -03443.8 -07.5413 26240.5
 26 05 2013  23 06  -21.0644 26013.5 -03443.7 -07.5411 26240.4
 26 05 2013  23 07  -21.0643 26013.4 -03443.7 -07.5410 26240.4
 26 05 2013  23 08  -21.0641 26013.3 -03443.6 -07.5409 26240.2
 26 05 2013  23 09  -21.0639 26013.2 -03443.5 -07.5407 26240.1
 26 05 2013  23 10  -21.0638 26013.1 -03443.5 -07.5406 26240.0
 26 05 2013  23 11  -21.0635 26013.1 -03443.4 -07.5405 26240.0
 26 05 2013  23 12  -21.0633 26013.0 -03443.3 -07.5404 26239.9
 26 05 2013  23 13  -21.0631 26012.9 -03443.3 -07.5404 26239.8
 26 05 2013  23 14  -21.0630 26013.0 -03443.3 -07.5404 26239.9
 26 05 2013  23 15  -21.0629 26012.9 -03443.3 -07.5404 26239.8
 26 05 2013  23 16  -21.0630 26013.0 -03443.4 -07.5405 26239.9
 26 05 2013  23 17  -21.0633 26013.2 -03443.5 -07.5407 26240.1
 26 05 2013  23 18  -21.0636 26013.4 -03443.6 -07.5409 26240.4
 26 05 2013  23 19  -21.0638 26013.6 -03443.7 -07.5409 26240.5
 26 05 2013  23 20  -21.0640 26014.0 -03443.8 -07.5412 26241.0
 26 05 2013  23 21  -21.0640 26014.7 -03444.1 -07.5416 26241.7
 26 05 2013  23 22  -21.0640 26015.8 -03444.7 -07.5425 26242.9
 26 05 2013  23 23  -21.0638 26016.9 -03445.1 -07.5431 26244.0
 26 05 2013  23 24  -21.0639 26017.5 -03445.4 -07.5435 26244.6
 26 05 2013  23 25  -21.0641 26017.9 -03445.5 -07.5436 26245.0
 26 05 2013  23 26  -21.0641 26018.3 -03445.6 -07.5437 26245.4
 26 05 2013  23 27  -21.0641 26018.4 -03445.5 -07.5436 26245.6
 26 05 2013  23 28  -21.0638 26018.5 -03445.4 -07.5433 26245.6
 26 05 2013  23 29  -21.0635 26018.5 -03445.3 -07.5430 26245.6
 26 05 2013  23 30  -21.0632 26018.5 -03445.2 -07.5428 26245.6
 26 05 2013  23 31  -21.0632 26018.3 -03445.0 -07.5425 26245.4
 26 05 2013  23 32  -21.0633 26018.3 -03444.9 -07.5423 26245.4
 26 05 2013  23 33  -21.0639 26018.3 -03444.9 -07.5422 26245.3
 26 05 2013  23 34  -21.0646 26018.4 -03444.9 -07.5422 26245.4
 26 05 2013  23 35  -21.0655 26018.4 -03444.9 -07.5421 26245.5
 26 05 2013  23 36  -21.0664 26018.3 -03444.8 -07.5420 26245.3
 26 05 2013  23 37  -21.0667 26018.2 -03444.7 -07.5417 26245.3
 26 05 2013  23 38  -21.0669 26018.0 -03444.4 -07.5413 26245.0
 26 05 2013  23 39  -21.0666 26017.9 -03444.3 -07.5410 26244.9
 26 05 2013  23 40  -21.0666 26017.7 -03444.1 -07.5408 26244.7
 26 05 2013  23 41  -21.0665 26017.6 -03444.1 -07.5406 26244.5
 26 05 2013  23 42  -21.0661 26017.4 -03443.9 -07.5404 26244.4
 26 05 2013  23 43  -21.0657 26017.2 -03443.8 -07.5403 26244.2
 26 05 2013  23 44  -21.0653 26017.0 -03443.7 -07.5401 26244.0
 26 05 2013  23 45  -21.0651 26016.8 -03443.6 -07.5399 26243.8
 26 05 2013  23 46  -21.0650 26016.7 -03443.6 -07.5399 26243.7
 26 05 2013  23 47  -21.0647 26016.6 -03443.6 -07.5398 26243.5
 26 05 2013  23 48  -21.0643 26016.4 -03443.5 -07.5398 26243.3
 26 05 2013  23 49  -21.0641 26016.3 -03443.5 -07.5398 26243.2
 26 05 2013  23 50  -21.0638 26016.1 -03443.5 -07.5398 26243.0
 26 05 2013  23 51  -21.0638 26016.0 -03443.5 -07.5398 26242.9
 26 05 2013  23 52  -21.0639 26015.8 -03443.5 -07.5398 26242.7
 26 05 2013  23 53  -21.0643 26015.8 -03443.4 -07.5398 26242.6
 26 05 2013  23 54  -21.0645 26015.7 -03443.4 -07.5399 26242.6
 26 05 2013  23 55  -21.0647 26016.2 -03443.7 -07.5403 26243.1
 26 05 2013  23 56  -21.0649 26016.1 -03443.8 -07.5405 26243.1
 26 05 2013  23 57  -21.0649 26016.5 -03444.0 -07.5407 26243.5
 26 05 2013  23 58  -21.0647 26016.9 -03444.2 -07.5410 26243.9
