SAO LUIS EMBRACE-03 <235> 1 Min. Reported data

 DD MM YYYY  HH MM   D(Deg)  H(nT)   Z(nT)   I(Deg)   F(nT)

 23 08 2013  00 00  -21.0337 25987.2 -03470.6 -07.6069 26217.9
 23 08 2013  00 01  -21.0334 25986.8 -03470.7 -07.6071 26217.6
 23 08 2013  00 02  -21.0326 25987.0 -03470.7 -07.6072 26217.7
 23 08 2013  00 03  -21.0322 25987.4 -03471.1 -07.6078 26218.2
 23 08 2013  00 04  -21.0320 25988.1 -03471.6 -07.6087 26219.0
 23 08 2013  00 05  -21.0316 25989.3 -03472.3 -07.6099 26220.3
 23 08 2013  00 06  -21.0312 25990.0 -03472.8 -07.6109 26221.0
 23 08 2013  00 07  -21.0305 25990.9 -03473.3 -07.6116 26221.9
 23 08 2013  00 08  -21.0299 25991.3 -03473.5 -07.6120 26222.3
 23 08 2013  00 09  -21.0293 25991.3 -03473.5 -07.6120 26222.4
 23 08 2013  00 10  -21.0288 25991.1 -03473.5 -07.6119 26222.2
 23 08 2013  00 11  -21.0281 25990.8 -03473.3 -07.6116 26221.9
 23 08 2013  00 12  -21.0278 25991.4 -03473.6 -07.6120 26222.5
 23 08 2013  00 13  -21.0276 25992.4 -03474.1 -07.6129 26223.5
 23 08 2013  00 14  -21.0276 25993.6 -03474.7 -07.6140 26224.8
 23 08 2013  00 15  -21.0276 25994.8 -03475.4 -07.6150 26226.1
 23 08 2013  00 16  -21.0282 25995.3 -03475.7 -07.6155 26226.6
 23 08 2013  00 17  -21.0292 25995.3 -03475.7 -07.6155 26226.6
 23 08 2013  00 18  -21.0299 25995.6 -03475.8 -07.6156 26227.0
 23 08 2013  00 19  -21.0299 25996.3 -03475.9 -07.6158 26227.6
 23 08 2013  00 20  -21.0292 25997.6 -03476.5 -07.6165 26229.0
 23 08 2013  00 21  -21.0289 25998.7 -03476.9 -07.6172 26230.2
 23 08 2013  00 22  -21.0290 26000.4 -03477.6 -07.6182 26231.9
 23 08 2013  00 23  -21.0293 26001.9 -03478.3 -07.6192 26233.5
 23 08 2013  00 24  -21.0300 26003.1 -03478.8 -07.6199 26234.8
 23 08 2013  00 25  -21.0311 26003.8 -03479.0 -07.6202 26235.5
 23 08 2013  00 26  -21.0327 26003.6 -03478.7 -07.6197 26235.3
 23 08 2013  00 27  -21.0336 26003.0 -03478.1 -07.6186 26234.6
 23 08 2013  00 28  -21.0339 26003.0 -03477.8 -07.6178 26234.6
 23 08 2013  00 29  -21.0341 26003.8 -03478.0 -07.6179 26235.4
 23 08 2013  00 30  -21.0345 26004.5 -03478.1 -07.6181 26236.1
 23 08 2013  00 31  -21.0350 26004.5 -03478.0 -07.6178 26236.1
 23 08 2013  00 32  -21.0353 26004.4 -03477.7 -07.6172 26235.9
 23 08 2013  00 33  -21.0354 26004.3 -03477.4 -07.6167 26235.7
 23 08 2013  00 34  -21.0352 26004.0 -03477.1 -07.6160 26235.4
 23 08 2013  00 35  -21.0349 26003.5 -03476.7 -07.6153 26234.9
 23 08 2013  00 36  -21.0346 26003.1 -03476.3 -07.6146 26234.4
 23 08 2013  00 37  -21.0345 26002.5 -03476.0 -07.6140 26233.8
 23 08 2013  00 38  -21.0345 26002.0 -03475.7 -07.6135 26233.3
 23 08 2013  00 39  -21.0345 26001.4 -03475.3 -07.6129 26232.6
 23 08 2013  00 40  -21.0344 26000.9 -03475.0 -07.6124 26232.1
 23 08 2013  00 41  -21.0342 26000.3 -03474.7 -07.6119 26231.4
 23 08 2013  00 42  -21.0340 25999.8 -03474.4 -07.6115 26230.9
 23 08 2013  00 43  -21.0339 25999.1 -03474.2 -07.6111 26230.2
 23 08 2013  00 44  -21.0336 25998.5 -03473.9 -07.6107 26229.5
 23 08 2013  00 45  -21.0335 25998.1 -03473.7 -07.6105 26229.2
 23 08 2013  00 46  -21.0337 25997.7 -03473.7 -07.6104 26228.8
 23 08 2013  00 47  -21.0341 25997.3 -03473.6 -07.6104 26228.3
 23 08 2013  00 48  -21.0345 25996.8 -03473.4 -07.6102 26227.8
 23 08 2013  00 49  -21.0349 25996.4 -03473.3 -07.6101 26227.4
 23 08 2013  00 50  -21.0354 25996.1 -03473.3 -07.6101 26227.1
 23 08 2013  00 51  -21.0356 25996.0 -03473.3 -07.6102 26227.0
 23 08 2013  00 52  -21.0364 25995.7 -03473.3 -07.6102 26226.7
 23 08 2013  00 53  -21.0366 25995.8 -03473.4 -07.6104 26226.8
 23 08 2013  00 54  -21.0370 25996.1 -03473.6 -07.6108 26227.2
 23 08 2013  00 55  -21.0374 25996.3 -03473.8 -07.6112 26227.3
 23 08 2013  00 56  -21.0376 25996.6 -03474.0 -07.6115 26227.7
 23 08 2013  00 57  -21.0379 25996.8 -03474.2 -07.6118 26227.9
 23 08 2013  00 58  -21.0386 25997.0 -03474.3 -07.6121 26228.1
 23 08 2013  00 59  -21.0389 25996.8 -03474.2 -07.6119 26227.9
 23 08 2013  01 00  -21.0384 25996.9 -03474.2 -07.6118 26228.0
 23 08 2013  01 01  -21.0381 25997.4 -03474.4 -07.6121 26228.6
 23 08 2013  01 02  -21.0381 25997.8 -03474.6 -07.6125 26228.9
 23 08 2013  01 03  -21.0376 25998.5 -03474.9 -07.6130 26229.7
 23 08 2013  01 04  -21.0371 25999.2 -03475.3 -07.6135 26230.5
 23 08 2013  01 05  -21.0364 25999.9 -03475.6 -07.6140 26231.2
 23 08 2013  01 06  -21.0360 26000.3 -03475.8 -07.6143 26231.6
 23 08 2013  01 07  -21.0358 26000.5 -03475.9 -07.6145 26231.9
 23 08 2013  01 08  -21.0355 26001.0 -03476.1 -07.6147 26232.3
 23 08 2013  01 09  -21.0354 26001.3 -03476.2 -07.6149 26232.6
 23 08 2013  01 10  -21.0354 26001.6 -03476.3 -07.6151 26233.0
 23 08 2013  01 11  -21.0350 26002.0 -03476.4 -07.6152 26233.4
 23 08 2013  01 12  -21.0347 26002.2 -03476.5 -07.6153 26233.6
 23 08 2013  01 13  -21.0341 26002.7 -03476.6 -07.6154 26234.0
 23 08 2013  01 14  -21.0336 26003.0 -03476.7 -07.6155 26234.4
 23 08 2013  01 15  -21.0338 26003.2 -03476.8 -07.6157 26234.6
 23 08 2013  01 16  -21.0337 26003.7 -03477.0 -07.6159 26235.1
 23 08 2013  01 17  -21.0333 26004.6 -03477.4 -07.6165 26236.1
 23 08 2013  01 18  -21.0328 26005.3 -03477.7 -07.6170 26236.9
 23 08 2013  01 19  -21.0325 26006.0 -03477.9 -07.6173 26237.5
 23 08 2013  01 20  -21.0322 26006.8 -03478.2 -07.6177 26238.3
 23 08 2013  01 21  -21.0318 26007.6 -03478.5 -07.6181 26239.2
 23 08 2013  01 22  -21.0315 26008.4 -03478.8 -07.6185 26240.0
 23 08 2013  01 23  -21.0314 26008.9 -03479.0 -07.6187 26240.6
 23 08 2013  01 24  -21.0316 26009.7 -03479.2 -07.6190 26241.4
 23 08 2013  01 25  -21.0320 26010.3 -03479.4 -07.6193 26242.0
 23 08 2013  01 26  -21.0321 26011.0 -03479.6 -07.6194 26242.7
 23 08 2013  01 27  -21.0321 26011.5 -03479.7 -07.6195 26243.2
 23 08 2013  01 28  -21.0324 26011.7 -03479.7 -07.6194 26243.4
 23 08 2013  01 29  -21.0329 26012.0 -03479.6 -07.6191 26243.7
 23 08 2013  01 30  -21.0334 26012.4 -03479.6 -07.6191 26244.1
 23 08 2013  01 31  -21.0333 26012.7 -03479.6 -07.6189 26244.4
 23 08 2013  01 32  -21.0334 26012.7 -03479.4 -07.6184 26244.3
 23 08 2013  01 33  -21.0341 26012.7 -03479.2 -07.6181 26244.4
 23 08 2013  01 34  -21.0350 26013.1 -03479.2 -07.6181 26244.7
 23 08 2013  01 35  -21.0354 26013.8 -03479.4 -07.6182 26245.4
 23 08 2013  01 36  -21.0356 26014.7 -03479.7 -07.6185 26246.4
 23 08 2013  01 37  -21.0358 26015.3 -03479.8 -07.6186 26247.0
 23 08 2013  01 38  -21.0362 26016.0 -03479.9 -07.6187 26247.7
 23 08 2013  01 39  -21.0366 26016.2 -03479.8 -07.6184 26247.9
 23 08 2013  01 40  -21.0368 26016.0 -03479.5 -07.6179 26247.6
 23 08 2013  01 41  -21.0367 26015.7 -03479.1 -07.6170 26247.3
 23 08 2013  01 42  -21.0366 26015.5 -03478.7 -07.6163 26247.0
 23 08 2013  01 43  -21.0364 26015.0 -03478.4 -07.6156 26246.5
 23 08 2013  01 44  -21.0363 26014.4 -03477.9 -07.6148 26245.9
 23 08 2013  01 45  -21.0364 26013.8 -03477.5 -07.6141 26245.2
 23 08 2013  01 46  -21.0366 26013.2 -03477.1 -07.6135 26244.6
 23 08 2013  01 47  -21.0369 26012.6 -03476.8 -07.6128 26243.9
 23 08 2013  01 48  -21.0376 26011.9 -03476.4 -07.6122 26243.1
 23 08 2013  01 49  -21.0384 26011.1 -03476.0 -07.6116 26242.3
 23 08 2013  01 50  -21.0391 26010.3 -03475.6 -07.6110 26241.5
 23 08 2013  01 51  -21.0396 26009.7 -03475.3 -07.6104 26240.8
 23 08 2013  01 52  -21.0401 26009.0 -03474.9 -07.6099 26240.1
 23 08 2013  01 53  -21.0402 26008.1 -03474.5 -07.6092 26239.2
 23 08 2013  01 54  -21.0404 26007.4 -03474.2 -07.6087 26238.4
 23 08 2013  01 55  -21.0409 26006.3 -03473.7 -07.6080 26237.3
 23 08 2013  01 56  -21.0413 26005.2 -03473.2 -07.6073 26236.1
 23 08 2013  01 57  -21.0415 26004.4 -03472.8 -07.6067 26235.2
 23 08 2013  01 58  -21.0415 26003.5 -03472.5 -07.6063 26234.3
 23 08 2013  01 59  -21.0412 26002.7 -03472.2 -07.6058 26233.5
 23 08 2013  02 00  -21.0408 26001.7 -03471.9 -07.6054 26232.5
 23 08 2013  02 01  -21.0408 26001.3 -03471.8 -07.6053 26232.1
 23 08 2013  02 02  -21.0411 26000.8 -03471.7 -07.6054 26231.6
 23 08 2013  02 03  -21.0413 26000.1 -03471.5 -07.6052 26230.8
 23 08 2013  02 04  -21.0416 25999.3 -03471.3 -07.6049 26230.0
 23 08 2013  02 05  -21.0420 25998.6 -03471.2 -07.6047 26229.3
 23 08 2013  02 06  -21.0433 25997.9 -03471.0 -07.6046 26228.6
 23 08 2013  02 07  -21.0441 25997.1 -03470.8 -07.6044 26227.8
 23 08 2013  02 08  -21.0444 25996.2 -03470.5 -07.6040 26226.9
 23 08 2013  02 09  -21.0444 25995.5 -03470.2 -07.6037 26226.1
 23 08 2013  02 10  -21.0445 25994.9 -03470.1 -07.6035 26225.5
 23 08 2013  02 11  -21.0445 25994.3 -03470.0 -07.6034 26224.8
 23 08 2013  02 12  -21.0447 25993.9 -03469.9 -07.6034 26224.4
 23 08 2013  02 13  -21.0447 25993.5 -03469.9 -07.6036 26224.0
 23 08 2013  02 14  -21.0444 25993.1 -03469.9 -07.6037 26223.7
 23 08 2013  02 15  -21.0443 25992.8 -03470.0 -07.6039 26223.4
 23 08 2013  02 16  -21.0441 25993.0 -03470.3 -07.6044 26223.6
 23 08 2013  02 17  -21.0440 25993.3 -03470.6 -07.6051 26224.0
 23 08 2013  02 18  -21.0441 25993.4 -03470.9 -07.6057 26224.1
 23 08 2013  02 19  -21.0443 25993.0 -03470.9 -07.6058 26223.8
 23 08 2013  02 20  -21.0446 25992.6 -03470.8 -07.6057 26223.3
 23 08 2013  02 21  -21.0449 25992.2 -03470.8 -07.6057 26222.9
 23 08 2013  02 22  -21.0452 25992.5 -03471.0 -07.6062 26223.3
 23 08 2013  02 23  -21.0456 25992.9 -03471.3 -07.6068 26223.6
 23 08 2013  02 24  -21.0459 25993.0 -03471.5 -07.6071 26223.8
 23 08 2013  02 25  -21.0462 25993.3 -03471.7 -07.6074 26224.1
 23 08 2013  02 26  -21.0458 25993.6 -03471.9 -07.6078 26224.5
 23 08 2013  02 27  -21.0452 25993.5 -03471.9 -07.6078 26224.4
 23 08 2013  02 28  -21.0451 25993.0 -03471.6 -07.6074 26223.8
 23 08 2013  02 29  -21.0454 25993.0 -03471.7 -07.6076 26223.8
 23 08 2013  02 30  -21.0456 25993.2 -03471.9 -07.6079 26224.0
 23 08 2013  02 31  -21.0455 25993.3 -03472.0 -07.6081 26224.2
 23 08 2013  02 32  -21.0456 25993.5 -03472.1 -07.6083 26224.3
 23 08 2013  02 33  -21.0453 25993.6 -03472.2 -07.6084 26224.5
 23 08 2013  02 34  -21.0450 25993.9 -03472.3 -07.6087 26224.8
 23 08 2013  02 35  -21.0445 25994.1 -03472.5 -07.6089 26225.1
 23 08 2013  02 36  -21.0441 25994.2 -03472.5 -07.6090 26225.1
 23 08 2013  02 37  -21.0440 25994.3 -03472.6 -07.6091 26225.3
 23 08 2013  02 38  -21.0436 25994.7 -03472.7 -07.6093 26225.6
 23 08 2013  02 39  -21.0437 25995.3 -03473.1 -07.6098 26226.3
 23 08 2013  02 40  -21.0443 25995.7 -03473.4 -07.6104 26226.8
 23 08 2013  02 41  -21.0446 25996.3 -03473.6 -07.6108 26227.3
 23 08 2013  02 42  -21.0448 25996.7 -03473.8 -07.6111 26227.8
 23 08 2013  02 43  -21.0454 25997.0 -03474.0 -07.6113 26228.1
 23 08 2013  02 44  -21.0455 25997.3 -03474.0 -07.6113 26228.3
 23 08 2013  02 45  -21.0453 25997.6 -03474.1 -07.6113 26228.7
 23 08 2013  02 46  -21.0446 25998.5 -03474.4 -07.6118 26229.6
 23 08 2013  02 47  -21.0441 25999.3 -03474.7 -07.6122 26230.4
 23 08 2013  02 48  -21.0434 25999.9 -03474.9 -07.6126 26231.1
 23 08 2013  02 49  -21.0427 26000.5 -03475.2 -07.6129 26231.7
 23 08 2013  02 50  -21.0425 26000.8 -03475.3 -07.6131 26232.1
 23 08 2013  02 51  -21.0426 26001.1 -03475.4 -07.6132 26232.3
 23 08 2013  02 52  -21.0427 26000.9 -03475.3 -07.6130 26232.1
 23 08 2013  02 53  -21.0427 26000.7 -03475.1 -07.6126 26231.9
 23 08 2013  02 54  -21.0428 26000.6 -03475.0 -07.6124 26231.8
 23 08 2013  02 55  -21.0429 26000.7 -03475.0 -07.6124 26231.9
 23 08 2013  02 56  -21.0430 26001.0 -03475.1 -07.6126 26232.2
 23 08 2013  02 57  -21.0430 26001.4 -03475.3 -07.6128 26232.7
 23 08 2013  02 58  -21.0432 26002.0 -03475.5 -07.6132 26233.2
 23 08 2013  02 59  -21.0437 26002.3 -03475.6 -07.6133 26233.5
 23 08 2013  03 00  -21.0439 26002.4 -03475.6 -07.6133 26233.7
 23 08 2013  03 01  -21.0440 26002.6 -03475.6 -07.6133 26233.8
 23 08 2013  03 02  -21.0441 26002.7 -03475.6 -07.6132 26234.0
 23 08 2013  03 03  -21.0442 26002.9 -03475.6 -07.6132 26234.2
 23 08 2013  03 04  -21.0446 26003.0 -03475.6 -07.6131 26234.2
 23 08 2013  03 05  -21.0450 26002.9 -03475.5 -07.6129 26234.1
 23 08 2013  03 06  -21.0453 26002.8 -03475.4 -07.6127 26234.0
 23 08 2013  03 07  -21.0455 26002.9 -03475.4 -07.6126 26234.1
 23 08 2013  03 08  -21.0456 26003.1 -03475.4 -07.6127 26234.3
 23 08 2013  03 09  -21.0454 26003.2 -03475.4 -07.6126 26234.4
 23 08 2013  03 10  -21.0449 26003.1 -03475.3 -07.6124 26234.3
 23 08 2013  03 11  -21.0440 26003.3 -03475.3 -07.6123 26234.5
 23 08 2013  03 12  -21.0430 26003.4 -03475.3 -07.6123 26234.6
 23 08 2013  03 13  -21.0423 26003.5 -03475.3 -07.6123 26234.7
 23 08 2013  03 14  -21.0419 26003.6 -03475.4 -07.6124 26234.8
 23 08 2013  03 15  -21.0415 26003.7 -03475.5 -07.6126 26234.9
 23 08 2013  03 16  -21.0411 26003.7 -03475.5 -07.6126 26234.9
 23 08 2013  03 17  -21.0411 26003.9 -03475.6 -07.6129 26235.2
 23 08 2013  03 18  -21.0414 26004.2 -03475.8 -07.6132 26235.4
 23 08 2013  03 19  -21.0417 26004.1 -03475.8 -07.6133 26235.4
 23 08 2013  03 20  -21.0416 26004.3 -03475.9 -07.6133 26235.6
 23 08 2013  03 21  -21.0418 26004.9 -03476.1 -07.6137 26236.2
 23 08 2013  03 22  -21.0416 26005.4 -03476.4 -07.6141 26236.7
 23 08 2013  03 23  -21.0419 26005.9 -03476.6 -07.6145 26237.3
 23 08 2013  03 24  -21.0434 26006.4 -03476.9 -07.6149 26237.8
 23 08 2013  03 25  -21.0445 26006.7 -03477.0 -07.6150 26238.1
 23 08 2013  03 26  -21.0451 26007.0 -03477.0 -07.6151 26238.4
 23 08 2013  03 27  -21.0457 26007.2 -03477.0 -07.6149 26238.6
 23 08 2013  03 28  -21.0458 26007.4 -03477.0 -07.6148 26238.8
 23 08 2013  03 29  -21.0460 26007.9 -03477.1 -07.6149 26239.3
 23 08 2013  03 30  -21.0462 26008.1 -03477.1 -07.6149 26239.5
 23 08 2013  03 31  -21.0462 26007.9 -03476.9 -07.6145 26239.2
 23 08 2013  03 32  -21.0458 26007.7 -03476.7 -07.6140 26239.1
 23 08 2013  03 33  -21.0454 26007.6 -03476.5 -07.6137 26239.0
 23 08 2013  03 34  -21.0450 26007.3 -03476.2 -07.6132 26238.6
 23 08 2013  03 35  -21.0442 26006.8 -03475.9 -07.6127 26238.1
 23 08 2013  03 36  -21.0432 26006.5 -03475.7 -07.6123 26237.7
 23 08 2013  03 37  -21.0425 26006.0 -03475.5 -07.6120 26237.2
 23 08 2013  03 38  -21.0422 26005.9 -03475.5 -07.6121 26237.1
 23 08 2013  03 39  -21.0421 26005.8 -03475.6 -07.6123 26237.0
 23 08 2013  03 40  -21.0422 26005.4 -03475.5 -07.6122 26236.6
 23 08 2013  03 41  -21.0421 26005.1 -03475.4 -07.6120 26236.3
 23 08 2013  03 42  -21.0416 26004.9 -03475.3 -07.6120 26236.1
 23 08 2013  03 43  -21.0410 26004.8 -03475.3 -07.6120 26236.0
 23 08 2013  03 44  -21.0400 26004.4 -03475.2 -07.6119 26235.6
 23 08 2013  03 45  -21.0388 26004.6 -03475.3 -07.6120 26235.8
 23 08 2013  03 46  -21.0376 26005.1 -03475.6 -07.6126 26236.3
 23 08 2013  03 47  -21.0371 26005.5 -03476.0 -07.6133 26236.8
 23 08 2013  03 48  -21.0367 26005.7 -03476.2 -07.6137 26237.0
 23 08 2013  03 49  -21.0366 26006.1 -03476.5 -07.6142 26237.4
 23 08 2013  03 50  -21.0365 26006.4 -03476.7 -07.6146 26237.8
 23 08 2013  03 51  -21.0367 26006.8 -03477.0 -07.6151 26238.2
 23 08 2013  03 52  -21.0370 26007.0 -03477.1 -07.6153 26238.4
 23 08 2013  03 53  -21.0372 26007.1 -03477.2 -07.6154 26238.5
 23 08 2013  03 54  -21.0373 26007.1 -03477.2 -07.6154 26238.5
 23 08 2013  03 55  -21.0374 26007.2 -03477.3 -07.6155 26238.7
 23 08 2013  03 56  -21.0374 26007.5 -03477.4 -07.6156 26238.9
 23 08 2013  03 57  -21.0372 26007.7 -03477.5 -07.6158 26239.2
 23 08 2013  03 58  -21.0368 26008.0 -03477.6 -07.6159 26239.5
 23 08 2013  03 59  -21.0363 26008.4 -03477.7 -07.6161 26239.9
 23 08 2013  04 00  -21.0360 26008.6 -03477.8 -07.6162 26240.1
 23 08 2013  04 01  -21.0356 26008.9 -03477.9 -07.6163 26240.4
 23 08 2013  04 02  -21.0352 26009.1 -03477.9 -07.6164 26240.6
 23 08 2013  04 03  -21.0352 26009.1 -03478.0 -07.6164 26240.7
 23 08 2013  04 04  -21.0352 26009.0 -03477.9 -07.6163 26240.5
 23 08 2013  04 05  -21.0352 26008.9 -03477.8 -07.6161 26240.4
 23 08 2013  04 06  -21.0351 26008.9 -03477.8 -07.6161 26240.4
 23 08 2013  04 07  -21.0349 26008.7 -03477.7 -07.6159 26240.1
 23 08 2013  04 08  -21.0342 26008.9 -03477.7 -07.6160 26240.3
 23 08 2013  04 09  -21.0335 26009.0 -03477.9 -07.6162 26240.5
 23 08 2013  04 10  -21.0331 26009.1 -03477.9 -07.6164 26240.6
 23 08 2013  04 11  -21.0327 26009.3 -03478.0 -07.6166 26240.8
 23 08 2013  04 12  -21.0328 26009.6 -03478.2 -07.6169 26241.1
 23 08 2013  04 13  -21.0334 26010.2 -03478.6 -07.6176 26241.8
 23 08 2013  04 14  -21.0340 26011.2 -03479.2 -07.6184 26242.8
 23 08 2013  04 15  -21.0343 26011.6 -03479.4 -07.6188 26243.3
 23 08 2013  04 16  -21.0341 26011.7 -03479.3 -07.6186 26243.3
 23 08 2013  04 17  -21.0339 26011.6 -03479.2 -07.6183 26243.2
 23 08 2013  04 18  -21.0336 26011.4 -03479.0 -07.6180 26243.0
 23 08 2013  04 19  -21.0335 26011.2 -03478.8 -07.6177 26242.8
 23 08 2013  04 20  -21.0337 26011.3 -03478.8 -07.6177 26242.9
 23 08 2013  04 21  -21.0338 26011.3 -03478.9 -07.6177 26242.9
 23 08 2013  04 22  -21.0336 26011.4 -03478.8 -07.6177 26243.0
 23 08 2013  04 23  -21.0333 26011.3 -03478.8 -07.6176 26242.8
 23 08 2013  04 24  -21.0330 26010.6 -03478.4 -07.6170 26242.2
 23 08 2013  04 25  -21.0326 26010.1 -03478.2 -07.6166 26241.7
 23 08 2013  04 26  -21.0319 26010.3 -03478.2 -07.6166 26241.8
 23 08 2013  04 27  -21.0310 26011.1 -03478.6 -07.6172 26242.6
 23 08 2013  04 28  -21.0301 26011.4 -03478.8 -07.6176 26243.0
 23 08 2013  04 29  -21.0294 26011.9 -03479.1 -07.6180 26243.6
 23 08 2013  04 30  -21.0294 26012.5 -03479.4 -07.6187 26244.2
 23 08 2013  04 31  -21.0296 26012.8 -03479.7 -07.6191 26244.5
 23 08 2013  04 32  -21.0300 26013.0 -03479.8 -07.6193 26244.7
 23 08 2013  04 33  -21.0304 26013.2 -03479.9 -07.6194 26244.9
 23 08 2013  04 34  -21.0305 26013.2 -03479.9 -07.6194 26244.9
 23 08 2013  04 35  -21.0306 26013.0 -03479.7 -07.6192 26244.7
 23 08 2013  04 36  -21.0308 26013.0 -03479.6 -07.6190 26244.7
 23 08 2013  04 37  -21.0313 26013.0 -03479.7 -07.6190 26244.7
 23 08 2013  04 38  -21.0317 26013.0 -03479.6 -07.6188 26244.7
 23 08 2013  04 39  -21.0322 26012.8 -03479.5 -07.6186 26244.5
 23 08 2013  04 40  -21.0325 26012.3 -03479.2 -07.6182 26243.9
 23 08 2013  04 41  -21.0325 26011.9 -03478.9 -07.6177 26243.5
 23 08 2013  04 42  -21.0326 26011.5 -03478.7 -07.6174 26243.1
 23 08 2013  04 43  -21.0330 26011.1 -03478.5 -07.6169 26242.6
 23 08 2013  04 44  -21.0334 26010.7 -03478.3 -07.6168 26242.3
 23 08 2013  04 45  -21.0337 26010.3 -03478.1 -07.6164 26241.8
 23 08 2013  04 46  -21.0337 26009.8 -03477.9 -07.6162 26241.3
 23 08 2013  04 47  -21.0335 26009.7 -03477.8 -07.6160 26241.2
 23 08 2013  04 48  -21.0338 26009.8 -03477.9 -07.6162 26241.3
 23 08 2013  04 49  -21.0344 26009.9 -03478.0 -07.6164 26241.4
 23 08 2013  04 50  -21.0343 26009.9 -03478.1 -07.6165 26241.4
 23 08 2013  04 51  -21.0340 26010.0 -03478.1 -07.6165 26241.5
 23 08 2013  04 52  -21.0339 26010.0 -03478.2 -07.6166 26241.6
 23 08 2013  04 53  -21.0336 26009.8 -03478.1 -07.6165 26241.3
 23 08 2013  04 54  -21.0336 26009.6 -03478.0 -07.6164 26241.1
 23 08 2013  04 55  -21.0337 26009.5 -03478.0 -07.6164 26241.0
 23 08 2013  04 56  -21.0341 26009.2 -03477.9 -07.6163 26240.7
 23 08 2013  04 57  -21.0345 26009.1 -03477.9 -07.6163 26240.6
 23 08 2013  04 58  -21.0351 26009.0 -03477.9 -07.6164 26240.5
 23 08 2013  04 59  -21.0355 26008.9 -03477.9 -07.6164 26240.4
 23 08 2013  05 00  -21.0358 26009.0 -03478.0 -07.6165 26240.5
 23 08 2013  05 01  -21.0361 26009.1 -03478.0 -07.6166 26240.6
 23 08 2013  05 02  -21.0365 26009.0 -03478.0 -07.6167 26240.5
 23 08 2013  05 03  -21.0366 26008.7 -03477.9 -07.6164 26240.2
 23 08 2013  05 04  -21.0369 26008.4 -03477.7 -07.6162 26239.8
 23 08 2013  05 05  -21.0368 26007.9 -03477.5 -07.6158 26239.3
 23 08 2013  05 06  -21.0362 26007.7 -03477.4 -07.6156 26239.1
 23 08 2013  05 07  -21.0358 26007.7 -03477.4 -07.6157 26239.2
 23 08 2013  05 08  -21.0354 26007.6 -03477.4 -07.6157 26239.0
 23 08 2013  05 09  -21.0351 26007.4 -03477.4 -07.6158 26238.9
 23 08 2013  05 10  -21.0347 26007.3 -03477.4 -07.6158 26238.8
 23 08 2013  05 11  -21.0342 26007.4 -03477.5 -07.6160 26238.9
 23 08 2013  05 12  -21.0338 26007.5 -03477.7 -07.6163 26239.0
 23 08 2013  05 13  -21.0335 26007.5 -03477.8 -07.6165 26239.0
 23 08 2013  05 14  -21.0331 26007.5 -03477.8 -07.6166 26239.0
 23 08 2013  05 15  -21.0328 26007.4 -03477.8 -07.6166 26238.9
 23 08 2013  05 16  -21.0328 26007.2 -03477.8 -07.6167 26238.7
 23 08 2013  05 17  -21.0327 26006.9 -03477.8 -07.6167 26238.4
 23 08 2013  05 18  -21.0324 26006.8 -03477.7 -07.6166 26238.2
 23 08 2013  05 19  -21.0321 26006.7 -03477.7 -07.6166 26238.2
 23 08 2013  05 20  -21.0318 26006.7 -03477.8 -07.6167 26238.2
 23 08 2013  05 21  -21.0316 26006.7 -03477.8 -07.6169 26238.2
 23 08 2013  05 22  -21.0316 26006.8 -03478.0 -07.6172 26238.3
 23 08 2013  05 23  -21.0319 26006.8 -03478.1 -07.6174 26238.4
 23 08 2013  05 24  -21.0321 26006.8 -03478.1 -07.6175 26238.3
 23 08 2013  05 25  -21.0319 26006.5 -03478.1 -07.6174 26238.1
 23 08 2013  05 26  -21.0315 26006.2 -03477.9 -07.6171 26237.7
 23 08 2013  05 27  -21.0313 26006.0 -03477.8 -07.6170 26237.5
 23 08 2013  05 28  -21.0312 26005.9 -03477.7 -07.6169 26237.4
 23 08 2013  05 29  -21.0309 26005.7 -03477.7 -07.6168 26237.2
 23 08 2013  05 30  -21.0306 26005.5 -03477.6 -07.6167 26237.0
 23 08 2013  05 31  -21.0303 26005.4 -03477.5 -07.6166 26236.9
 23 08 2013  05 32  -21.0299 26005.3 -03477.6 -07.6167 26236.8
 23 08 2013  05 33  -21.0295 26005.2 -03477.5 -07.6167 26236.6
 23 08 2013  05 34  -21.0291 26004.9 -03477.5 -07.6167 26236.4
 23 08 2013  05 35  -21.0287 26004.8 -03477.5 -07.6167 26236.3
 23 08 2013  05 36  -21.0284 26004.7 -03477.5 -07.6167 26236.1
 23 08 2013  05 37  -21.0283 26004.5 -03477.5 -07.6168 26236.0
 23 08 2013  05 38  -21.0284 26004.4 -03477.5 -07.6168 26235.9
 23 08 2013  05 39  -21.0285 26004.4 -03477.5 -07.6169 26235.9
 23 08 2013  05 40  -21.0288 26004.6 -03477.7 -07.6172 26236.1
 23 08 2013  05 41  -21.0291 26004.8 -03477.9 -07.6175 26236.3
 23 08 2013  05 42  -21.0290 26005.0 -03478.0 -07.6177 26236.6
 23 08 2013  05 43  -21.0288 26005.5 -03478.2 -07.6179 26237.0
 23 08 2013  05 44  -21.0286 26005.6 -03478.3 -07.6182 26237.2
 23 08 2013  05 45  -21.0281 26005.9 -03478.4 -07.6183 26237.5
 23 08 2013  05 46  -21.0280 26006.1 -03478.5 -07.6186 26237.7
 23 08 2013  05 47  -21.0281 26006.3 -03478.7 -07.6188 26238.0
 23 08 2013  05 48  -21.0280 26006.4 -03478.7 -07.6188 26238.0
 23 08 2013  05 49  -21.0281 26006.6 -03478.8 -07.6190 26238.2
 23 08 2013  05 50  -21.0281 26006.8 -03478.9 -07.6191 26238.5
 23 08 2013  05 51  -21.0279 26007.0 -03478.9 -07.6191 26238.6
 23 08 2013  05 52  -21.0276 26007.3 -03479.0 -07.6193 26238.9
 23 08 2013  05 53  -21.0274 26007.6 -03479.2 -07.6196 26239.3
 23 08 2013  05 54  -21.0273 26007.9 -03479.3 -07.6198 26239.6
 23 08 2013  05 55  -21.0274 26008.1 -03479.4 -07.6199 26239.8
 23 08 2013  05 56  -21.0274 26008.1 -03479.4 -07.6198 26239.8
 23 08 2013  05 57  -21.0275 26008.1 -03479.3 -07.6196 26239.8
 23 08 2013  05 58  -21.0275 26008.2 -03479.3 -07.6196 26239.9
 23 08 2013  05 59  -21.0278 26008.2 -03479.3 -07.6196 26239.9
 23 08 2013  06 00  -21.0281 26008.2 -03479.3 -07.6196 26239.8
 23 08 2013  06 01  -21.0277 26008.0 -03479.1 -07.6192 26239.6
 23 08 2013  06 02  -21.0269 26008.1 -03479.0 -07.6190 26239.8
 23 08 2013  06 03  -21.0260 26008.4 -03479.1 -07.6192 26240.0
 23 08 2013  06 04  -21.0253 26008.6 -03479.2 -07.6193 26240.3
 23 08 2013  06 05  -21.0252 26008.7 -03479.3 -07.6195 26240.4
 23 08 2013  06 06  -21.0253 26008.9 -03479.5 -07.6198 26240.6
 23 08 2013  06 07  -21.0255 26009.0 -03479.6 -07.6200 26240.8
 23 08 2013  06 08  -21.0256 26009.1 -03479.6 -07.6199 26240.8
 23 08 2013  06 09  -21.0256 26009.0 -03479.6 -07.6199 26240.8
 23 08 2013  06 10  -21.0256 26008.9 -03479.5 -07.6198 26240.6
 23 08 2013  06 11  -21.0261 26008.8 -03479.5 -07.6198 26240.5
 23 08 2013  06 12  -21.0265 26008.8 -03479.5 -07.6198 26240.5
 23 08 2013  06 13  -21.0266 26008.7 -03479.5 -07.6198 26240.5
 23 08 2013  06 14  -21.0269 26008.9 -03479.5 -07.6198 26240.6
 23 08 2013  06 15  -21.0274 26008.9 -03479.6 -07.6200 26240.7
 23 08 2013  06 16  -21.0276 26009.0 -03479.6 -07.6200 26240.7
 23 08 2013  06 17  -21.0277 26009.0 -03479.6 -07.6200 26240.8
 23 08 2013  06 18  -21.0276 26009.0 -03479.5 -07.6199 26240.7
 23 08 2013  06 19  -21.0272 26009.2 -03479.5 -07.6199 26240.9
 23 08 2013  06 20  -21.0271 26009.4 -03479.6 -07.6200 26241.1
 23 08 2013  06 21  -21.0270 26009.5 -03479.7 -07.6201 26241.2
 23 08 2013  06 22  -21.0269 26009.5 -03479.7 -07.6201 26241.2
 23 08 2013  06 23  -21.0270 26009.4 -03479.7 -07.6201 26241.2
 23 08 2013  06 24  -21.0269 26009.4 -03479.7 -07.6200 26241.1
 23 08 2013  06 25  -21.0267 26009.2 -03479.6 -07.6199 26240.9
 23 08 2013  06 26  -21.0262 26009.0 -03479.4 -07.6196 26240.7
 23 08 2013  06 27  -21.0256 26008.8 -03479.3 -07.6194 26240.5
 23 08 2013  06 28  -21.0252 26008.9 -03479.3 -07.6194 26240.5
 23 08 2013  06 29  -21.0249 26008.8 -03479.3 -07.6195 26240.5
 23 08 2013  06 30  -21.0245 26008.8 -03479.4 -07.6196 26240.5
 23 08 2013  06 31  -21.0242 26008.9 -03479.4 -07.6197 26240.6
 23 08 2013  06 32  -21.0240 26009.0 -03479.5 -07.6198 26240.7
 23 08 2013  06 33  -21.0238 26009.1 -03479.5 -07.6199 26240.8
 23 08 2013  06 34  -21.0236 26009.1 -03479.6 -07.6199 26240.8
 23 08 2013  06 35  -21.0235 26009.2 -03479.6 -07.6200 26240.9
 23 08 2013  06 36  -21.0232 26009.2 -03479.7 -07.6201 26240.9
 23 08 2013  06 37  -21.0228 26009.2 -03479.6 -07.6200 26240.9
 23 08 2013  06 38  -21.0223 26009.3 -03479.6 -07.6200 26241.0
 23 08 2013  06 39  -21.0219 26009.4 -03479.8 -07.6203 26241.2
 23 08 2013  06 40  -21.0215 26009.4 -03479.8 -07.6203 26241.2
 23 08 2013  06 41  -21.0213 26009.5 -03479.8 -07.6204 26241.3
 23 08 2013  06 42  -21.0214 26009.6 -03479.9 -07.6206 26241.4
 23 08 2013  06 43  -21.0217 26009.7 -03480.1 -07.6208 26241.5
 23 08 2013  06 44  -21.0220 26009.9 -03480.1 -07.6209 26241.7
 23 08 2013  06 45  -21.0219 26009.9 -03480.1 -07.6209 26241.7
 23 08 2013  06 46  -21.0218 26010.0 -03480.2 -07.6209 26241.8
 23 08 2013  06 47  -21.0219 26010.3 -03480.3 -07.6211 26242.1
 23 08 2013  06 48  -21.0221 26010.5 -03480.4 -07.6212 26242.3
 23 08 2013  06 49  -21.0219 26010.6 -03480.4 -07.6212 26242.4
 23 08 2013  06 50  -21.0216 26010.6 -03480.3 -07.6211 26242.4
 23 08 2013  06 51  -21.0212 26010.6 -03480.3 -07.6211 26242.4
 23 08 2013  06 52  -21.0209 26010.8 -03480.3 -07.6211 26242.6
 23 08 2013  06 53  -21.0205 26010.8 -03480.3 -07.6211 26242.6
 23 08 2013  06 54  -21.0204 26010.8 -03480.3 -07.6210 26242.6
 23 08 2013  06 55  -21.0207 26011.0 -03480.4 -07.6212 26242.8
 23 08 2013  06 56  -21.0212 26011.2 -03480.5 -07.6214 26243.0
 23 08 2013  06 57  -21.0214 26011.3 -03480.6 -07.6216 26243.2
 23 08 2013  06 58  -21.0216 26011.5 -03480.7 -07.6217 26243.3
 23 08 2013  06 59  -21.0218 26011.5 -03480.7 -07.6217 26243.3
 23 08 2013  07 00  -21.0218 26011.4 -03480.6 -07.6215 26243.2
 23 08 2013  07 01  -21.0218 26011.3 -03480.5 -07.6213 26243.1
 23 08 2013  07 02  -21.0218 26011.2 -03480.5 -07.6213 26243.0
 23 08 2013  07 03  -21.0215 26011.1 -03480.4 -07.6211 26242.9
 23 08 2013  07 04  -21.0213 26011.0 -03480.3 -07.6209 26242.8
 23 08 2013  07 05  -21.0211 26010.9 -03480.3 -07.6209 26242.7
 23 08 2013  07 06  -21.0210 26010.9 -03480.3 -07.6210 26242.7
 23 08 2013  07 07  -21.0208 26010.9 -03480.3 -07.6210 26242.7
 23 08 2013  07 08  -21.0205 26010.9 -03480.3 -07.6210 26242.7
 23 08 2013  07 09  -21.0201 26010.9 -03480.3 -07.6210 26242.7
 23 08 2013  07 10  -21.0199 26010.8 -03480.3 -07.6209 26242.6
 23 08 2013  07 11  -21.0197 26010.6 -03480.2 -07.6208 26242.4
 23 08 2013  07 12  -21.0196 26010.6 -03480.2 -07.6209 26242.4
 23 08 2013  07 13  -21.0197 26010.6 -03480.3 -07.6211 26242.4
 23 08 2013  07 14  -21.0200 26010.8 -03480.4 -07.6213 26242.6
 23 08 2013  07 15  -21.0209 26010.9 -03480.5 -07.6214 26242.7
 23 08 2013  07 16  -21.0213 26010.9 -03480.6 -07.6215 26242.8
 23 08 2013  07 17  -21.0211 26010.7 -03480.4 -07.6213 26242.5
 23 08 2013  07 18  -21.0204 26010.5 -03480.2 -07.6209 26242.3
 23 08 2013  07 19  -21.0199 26010.3 -03480.1 -07.6207 26242.1
 23 08 2013  07 20  -21.0197 26010.5 -03480.2 -07.6208 26242.3
 23 08 2013  07 21  -21.0196 26010.7 -03480.2 -07.6209 26242.5
 23 08 2013  07 22  -21.0193 26010.8 -03480.4 -07.6211 26242.6
 23 08 2013  07 23  -21.0193 26010.9 -03480.4 -07.6212 26242.7
 23 08 2013  07 24  -21.0195 26011.1 -03480.5 -07.6214 26242.9
 23 08 2013  07 25  -21.0197 26011.3 -03480.6 -07.6216 26243.1
 23 08 2013  07 26  -21.0199 26011.4 -03480.7 -07.6217 26243.2
 23 08 2013  07 27  -21.0191 26011.0 -03480.5 -07.6213 26242.8
 23 08 2013  07 28  -21.0173 26010.5 -03480.1 -07.6206 26242.2
 23 08 2013  07 29  -21.0159 26010.0 -03479.8 -07.6201 26241.7
 23 08 2013  07 30  -21.0163 26009.9 -03479.8 -07.6203 26241.7
 23 08 2013  07 31  -21.0175 26010.1 -03480.1 -07.6208 26241.9
 23 08 2013  07 32  -21.0188 26010.5 -03480.4 -07.6213 26242.3
 23 08 2013  07 33  -21.0193 26010.5 -03480.5 -07.6215 26242.4
 23 08 2013  07 34  -21.0194 26010.2 -03480.3 -07.6212 26242.0
 23 08 2013  07 35  -21.0194 26009.6 -03480.0 -07.6207 26241.3
 23 08 2013  07 36  -21.0194 26009.2 -03479.8 -07.6204 26241.0
 23 08 2013  07 37  -21.0198 26009.4 -03479.9 -07.6205 26241.2
 23 08 2013  07 38  -21.0196 26009.7 -03480.0 -07.6208 26241.5
 23 08 2013  07 39  -21.0192 26009.7 -03480.0 -07.6206 26241.5
 23 08 2013  07 40  -21.0191 26009.8 -03480.0 -07.6207 26241.5
 23 08 2013  07 41  -21.0187 26009.6 -03479.9 -07.6204 26241.4
 23 08 2013  07 42  -21.0182 26009.5 -03479.8 -07.6203 26241.2
 23 08 2013  07 43  -21.0179 26009.4 -03479.8 -07.6204 26241.2
 23 08 2013  07 44  -21.0177 26009.5 -03479.9 -07.6205 26241.3
 23 08 2013  07 45  -21.0180 26009.5 -03479.9 -07.6206 26241.3
 23 08 2013  07 46  -21.0181 26009.5 -03480.0 -07.6207 26241.2
 23 08 2013  07 47  -21.0183 26009.4 -03479.9 -07.6206 26241.2
 23 08 2013  07 48  -21.0187 26009.4 -03479.9 -07.6206 26241.2
 23 08 2013  07 49  -21.0193 26009.5 -03480.0 -07.6207 26241.2
 23 08 2013  07 50  -21.0199 26009.4 -03480.0 -07.6207 26241.2
 23 08 2013  07 51  -21.0202 26009.3 -03479.9 -07.6206 26241.1
 23 08 2013  07 52  -21.0204 26009.3 -03479.8 -07.6204 26241.0
 23 08 2013  07 53  -21.0206 26009.2 -03479.7 -07.6203 26240.9
 23 08 2013  07 54  -21.0211 26009.1 -03479.7 -07.6202 26240.9
 23 08 2013  07 55  -21.0212 26009.0 -03479.6 -07.6200 26240.8
 23 08 2013  07 56  -21.0214 26009.0 -03479.5 -07.6198 26240.7
 23 08 2013  07 57  -21.0213 26009.0 -03479.5 -07.6197 26240.8
 23 08 2013  07 58  -21.0213 26009.0 -03479.4 -07.6196 26240.7
 23 08 2013  07 59  -21.0213 26008.9 -03479.3 -07.6194 26240.6
 23 08 2013  08 00  -21.0209 26008.9 -03479.2 -07.6193 26240.5
 23 08 2013  08 01  -21.0204 26008.6 -03479.0 -07.6189 26240.3
 23 08 2013  08 02  -21.0198 26008.9 -03479.2 -07.6191 26240.6
 23 08 2013  08 03  -21.0189 26008.9 -03479.2 -07.6191 26240.5
 23 08 2013  08 04  -21.0179 26008.7 -03479.1 -07.6190 26240.3
 23 08 2013  08 05  -21.0170 26008.4 -03479.0 -07.6189 26240.1
 23 08 2013  08 06  -21.0169 26008.5 -03479.1 -07.6190 26240.2
 23 08 2013  08 07  -21.0174 26008.9 -03479.4 -07.6195 26240.6
 23 08 2013  08 08  -21.0165 26008.6 -03479.2 -07.6192 26240.2
 23 08 2013  08 09  -21.0142 26008.0 -03478.7 -07.6184 26239.6
 23 08 2013  08 10  -21.0129 26007.7 -03478.5 -07.6181 26239.3
 23 08 2013  08 11  -21.0133 26007.7 -03478.7 -07.6186 26239.3
 23 08 2013  08 12  -21.0150 26008.0 -03479.2 -07.6195 26239.7
 23 08 2013  08 13  -21.0165 26008.9 -03479.8 -07.6206 26240.7
 23 08 2013  08 14  -21.0175 26009.7 -03480.3 -07.6214 26241.5
 23 08 2013  08 15  -21.0170 26009.8 -03480.3 -07.6214 26241.6
 23 08 2013  08 16  -21.0168 26009.5 -03480.1 -07.6209 26241.3
 23 08 2013  08 17  -21.0177 26009.5 -03480.0 -07.6207 26241.3
 23 08 2013  08 18  -21.0186 26009.9 -03480.1 -07.6208 26241.7
 23 08 2013  08 19  -21.0192 26010.1 -03480.0 -07.6206 26241.9
 23 08 2013  08 20  -21.0195 26010.4 -03480.1 -07.6207 26242.1
 23 08 2013  08 21  -21.0199 26010.7 -03480.2 -07.6208 26242.5
 23 08 2013  08 22  -21.0201 26011.0 -03480.2 -07.6207 26242.8
 23 08 2013  08 23  -21.0201 26011.2 -03480.1 -07.6205 26242.9
 23 08 2013  08 24  -21.0201 26011.4 -03480.1 -07.6204 26243.1
 23 08 2013  08 25  -21.0198 26011.6 -03480.1 -07.6202 26243.4
 23 08 2013  08 26  -21.0193 26011.7 -03480.0 -07.6200 26243.5
 23 08 2013  08 27  -21.0189 26011.5 -03479.7 -07.6196 26243.2
 23 08 2013  08 28  -21.0192 26011.4 -03479.6 -07.6193 26243.1
 23 08 2013  08 29  -21.0196 26011.2 -03479.4 -07.6190 26242.9
 23 08 2013  08 30  -21.0203 26011.2 -03479.3 -07.6187 26242.8
 23 08 2013  08 31  -21.0208 26011.2 -03479.1 -07.6184 26242.8
 23 08 2013  08 32  -21.0211 26011.3 -03479.0 -07.6180 26242.9
 23 08 2013  08 33  -21.0213 26011.2 -03478.8 -07.6176 26242.8
 23 08 2013  08 34  -21.0214 26011.1 -03478.6 -07.6173 26242.7
 23 08 2013  08 35  -21.0216 26011.5 -03478.7 -07.6174 26243.1
 23 08 2013  08 36  -21.0218 26011.8 -03478.8 -07.6174 26243.4
 23 08 2013  08 37  -21.0213 26012.1 -03478.8 -07.6173 26243.7
 23 08 2013  08 38  -21.0200 26012.1 -03478.5 -07.6168 26243.7
 23 08 2013  08 39  -21.0189 26012.1 -03478.3 -07.6163 26243.6
 23 08 2013  08 40  -21.0183 26012.0 -03478.2 -07.6162 26243.5
 23 08 2013  08 41  -21.0180 26012.4 -03478.5 -07.6166 26244.0
 23 08 2013  08 42  -21.0170 26012.2 -03478.4 -07.6166 26243.8
 23 08 2013  08 43  -21.0161 26011.8 -03478.2 -07.6162 26243.3
 23 08 2013  08 44  -21.0160 26011.8 -03478.3 -07.6164 26243.3
 23 08 2013  08 45  -21.0155 26011.5 -03478.4 -07.6167 26243.1
 23 08 2013  08 46  -21.0147 26011.5 -03478.4 -07.6168 26243.1
 23 08 2013  08 47  -21.0144 26011.9 -03478.6 -07.6170 26243.4
 23 08 2013  08 48  -21.0141 26012.1 -03478.7 -07.6171 26243.7
 23 08 2013  08 49  -21.0143 26012.0 -03478.7 -07.6172 26243.6
 23 08 2013  08 50  -21.0142 26011.8 -03478.6 -07.6171 26243.4
 23 08 2013  08 51  -21.0133 26011.6 -03478.5 -07.6168 26243.1
 23 08 2013  08 52  -21.0131 26011.8 -03478.6 -07.6171 26243.4
 23 08 2013  08 53  -21.0130 26012.0 -03478.8 -07.6175 26243.6
 23 08 2013  08 54  -21.0124 26012.0 -03478.9 -07.6176 26243.6
 23 08 2013  08 55  -21.0114 26011.8 -03478.8 -07.6175 26243.4
 23 08 2013  08 56  -21.0115 26011.6 -03478.9 -07.6177 26243.2
 23 08 2013  08 57  -21.0112 26011.4 -03478.9 -07.6177 26243.0
 23 08 2013  08 58  -21.0106 26011.2 -03478.9 -07.6178 26242.8
 23 08 2013  08 59  -21.0104 26011.1 -03478.9 -07.6180 26242.7
 23 08 2013  09 00  -21.0098 26011.0 -03479.0 -07.6182 26242.7
 23 08 2013  09 01  -21.0086 26010.9 -03479.0 -07.6181 26242.6
 23 08 2013  09 02  -21.0096 26011.2 -03479.3 -07.6187 26242.9
 23 08 2013  09 03  -21.0092 26011.4 -03479.5 -07.6192 26243.1
 23 08 2013  09 04  -21.0077 26011.2 -03479.5 -07.6193 26242.9
 23 08 2013  09 05  -21.0073 26011.4 -03479.7 -07.6195 26243.2
 23 08 2013  09 06  -21.0074 26011.6 -03479.9 -07.6200 26243.3
 23 08 2013  09 07  -21.0072 26011.7 -03480.1 -07.6204 26243.5
 23 08 2013  09 08  -21.0061 26011.7 -03480.2 -07.6205 26243.5
 23 08 2013  09 09  -21.0049 26011.9 -03480.3 -07.6207 26243.7
 23 08 2013  09 10  -21.0044 26012.0 -03480.5 -07.6210 26243.8
 23 08 2013  09 11  -21.0036 26012.3 -03480.7 -07.6214 26244.1
 23 08 2013  09 12  -21.0021 26012.4 -03480.9 -07.6218 26244.3
 23 08 2013  09 13  -21.0012 26012.6 -03481.1 -07.6222 26244.5
 23 08 2013  09 14  -21.0011 26013.0 -03481.4 -07.6229 26244.9
 23 08 2013  09 15  -21.0002 26013.4 -03481.8 -07.6235 26245.3
 23 08 2013  09 16  -21.0002 26013.7 -03482.1 -07.6240 26245.7
 23 08 2013  09 17  -21.0000 26013.9 -03482.3 -07.6245 26245.9
 23 08 2013  09 18  -21.0000 26014.1 -03482.6 -07.6249 26246.1
 23 08 2013  09 19  -20.9996 26014.0 -03482.6 -07.6252 26246.0
 23 08 2013  09 20  -21.0000 26013.9 -03482.9 -07.6257 26246.0
 23 08 2013  09 21  -20.9996 26013.7 -03483.0 -07.6260 26245.8
 23 08 2013  09 22  -20.9996 26013.5 -03483.0 -07.6262 26245.6
 23 08 2013  09 23  -21.0007 26013.5 -03483.3 -07.6267 26245.6
 23 08 2013  09 24  -21.0013 26013.6 -03483.5 -07.6271 26245.8
 23 08 2013  09 25  -21.0017 26013.8 -03483.7 -07.6275 26246.0
 23 08 2013  09 26  -21.0023 26014.1 -03483.9 -07.6278 26246.3
 23 08 2013  09 27  -21.0028 26014.4 -03484.1 -07.6282 26246.7
 23 08 2013  09 28  -21.0029 26014.6 -03484.2 -07.6284 26246.8
 23 08 2013  09 29  -21.0031 26014.6 -03484.2 -07.6285 26246.9
 23 08 2013  09 30  -21.0032 26014.6 -03484.3 -07.6285 26246.9
 23 08 2013  09 31  -21.0039 26014.8 -03484.4 -07.6288 26247.1
 23 08 2013  09 32  -21.0051 26014.9 -03484.6 -07.6291 26247.2
 23 08 2013  09 33  -21.0060 26015.0 -03484.7 -07.6294 26247.4
 23 08 2013  09 34  -21.0071 26015.3 -03484.9 -07.6297 26247.7
 23 08 2013  09 35  -21.0081 26015.4 -03485.0 -07.6299 26247.8
 23 08 2013  09 36  -21.0091 26015.5 -03485.1 -07.6300 26247.9
 23 08 2013  09 37  -21.0101 26015.6 -03485.2 -07.6302 26248.0
 23 08 2013  09 38  -21.0107 26015.5 -03485.2 -07.6302 26248.0
 23 08 2013  09 39  -21.0119 26015.7 -03485.3 -07.6304 26248.1
 23 08 2013  09 40  -21.0128 26015.8 -03485.4 -07.6307 26248.3
 23 08 2013  09 41  -21.0133 26015.9 -03485.5 -07.6307 26248.3
 23 08 2013  09 42  -21.0147 26015.9 -03485.5 -07.6309 26248.3
 23 08 2013  09 43  -21.0158 26015.6 -03485.5 -07.6308 26248.0
 23 08 2013  09 44  -21.0166 26015.5 -03485.5 -07.6309 26248.0
 23 08 2013  09 45  -21.0172 26015.4 -03485.5 -07.6309 26247.8
 23 08 2013  09 46  -21.0173 26015.1 -03485.3 -07.6307 26247.5
 23 08 2013  09 47  -21.0177 26015.1 -03485.4 -07.6307 26247.5
 23 08 2013  09 48  -21.0185 26015.4 -03485.6 -07.6311 26247.8
 23 08 2013  09 49  -21.0189 26015.5 -03485.6 -07.6312 26247.9
 23 08 2013  09 50  -21.0194 26015.5 -03485.6 -07.6312 26248.0
 23 08 2013  09 51  -21.0195 26015.4 -03485.6 -07.6313 26247.8
 23 08 2013  09 52  -21.0198 26015.2 -03485.6 -07.6312 26247.7
 23 08 2013  09 53  -21.0196 26015.0 -03485.5 -07.6312 26247.4
 23 08 2013  09 54  -21.0195 26014.9 -03485.5 -07.6312 26247.3
 23 08 2013  09 55  -21.0200 26014.7 -03485.6 -07.6313 26247.2
 23 08 2013  09 56  -21.0208 26014.7 -03485.7 -07.6316 26247.2
 23 08 2013  09 57  -21.0219 26014.8 -03485.9 -07.6320 26247.3
 23 08 2013  09 58  -21.0223 26014.9 -03486.0 -07.6322 26247.4
 23 08 2013  09 59  -21.0223 26015.0 -03486.1 -07.6324 26247.6
 23 08 2013  10 00  -21.0226 26014.9 -03486.1 -07.6324 26247.4
 23 08 2013  10 01  -21.0238 26014.8 -03486.2 -07.6327 26247.4
 23 08 2013  10 02  -21.0246 26014.8 -03486.3 -07.6329 26247.3
 23 08 2013  10 03  -21.0246 26014.7 -03486.3 -07.6329 26247.3
 23 08 2013  10 04  -21.0250 26014.5 -03486.3 -07.6329 26247.1
 23 08 2013  10 05  -21.0255 26014.3 -03486.2 -07.6329 26246.8
 23 08 2013  10 06  -21.0260 26014.1 -03486.2 -07.6329 26246.7
 23 08 2013  10 07  -21.0265 26014.2 -03486.3 -07.6330 26246.8
 23 08 2013  10 08  -21.0277 26014.6 -03486.5 -07.6334 26247.2
 23 08 2013  10 09  -21.0280 26014.6 -03486.5 -07.6334 26247.1
 23 08 2013  10 10  -21.0282 26014.5 -03486.5 -07.6334 26247.1
 23 08 2013  10 11  -21.0286 26014.5 -03486.5 -07.6334 26247.1
 23 08 2013  10 12  -21.0291 26014.6 -03486.6 -07.6335 26247.2
 23 08 2013  10 13  -21.0288 26014.7 -03486.6 -07.6335 26247.3
 23 08 2013  10 14  -21.0286 26014.7 -03486.6 -07.6334 26247.3
 23 08 2013  10 15  -21.0285 26014.8 -03486.6 -07.6335 26247.4
 23 08 2013  10 16  -21.0281 26014.9 -03486.6 -07.6335 26247.5
 23 08 2013  10 17  -21.0281 26014.9 -03486.6 -07.6335 26247.5
 23 08 2013  10 18  -21.0283 26014.9 -03486.6 -07.6335 26247.5
 23 08 2013  10 19  -21.0288 26014.9 -03486.6 -07.6335 26247.5
 23 08 2013  10 20  -21.0288 26015.1 -03486.7 -07.6336 26247.7
 23 08 2013  10 21  -21.0284 26015.1 -03486.6 -07.6335 26247.7
 23 08 2013  10 22  -21.0283 26015.1 -03486.7 -07.6335 26247.7
 23 08 2013  10 23  -21.0287 26015.2 -03486.7 -07.6337 26247.8
 23 08 2013  10 24  -21.0289 26015.3 -03486.8 -07.6338 26247.9
 23 08 2013  10 25  -21.0295 26015.6 -03487.0 -07.6340 26248.2
 23 08 2013  10 26  -21.0301 26015.7 -03487.0 -07.6342 26248.3
 23 08 2013  10 27  -21.0301 26015.6 -03487.0 -07.6342 26248.2
 23 08 2013  10 28  -21.0304 26015.6 -03487.1 -07.6343 26248.2
 23 08 2013  10 29  -21.0308 26015.7 -03487.2 -07.6345 26248.3
 23 08 2013  10 30  -21.0313 26015.8 -03487.2 -07.6345 26248.5
 23 08 2013  10 31  -21.0313 26015.7 -03487.2 -07.6345 26248.4
 23 08 2013  10 32  -21.0319 26015.8 -03487.3 -07.6346 26248.4
 23 08 2013  10 33  -21.0332 26015.6 -03487.3 -07.6347 26248.3
 23 08 2013  10 34  -21.0340 26015.5 -03487.3 -07.6348 26248.2
 23 08 2013  10 35  -21.0341 26015.5 -03487.4 -07.6349 26248.2
 23 08 2013  10 36  -21.0339 26015.4 -03487.3 -07.6349 26248.1
 23 08 2013  10 37  -21.0344 26015.4 -03487.4 -07.6350 26248.2
 23 08 2013  10 38  -21.0343 26015.6 -03487.5 -07.6352 26248.3
 23 08 2013  10 39  -21.0345 26015.9 -03487.6 -07.6354 26248.6
 23 08 2013  10 40  -21.0346 26016.1 -03487.7 -07.6354 26248.8
 23 08 2013  10 41  -21.0344 26016.3 -03487.7 -07.6353 26249.0
 23 08 2013  10 42  -21.0340 26016.5 -03487.7 -07.6353 26249.2
 23 08 2013  10 43  -21.0333 26016.8 -03487.7 -07.6353 26249.6
 23 08 2013  10 44  -21.0334 26017.0 -03487.7 -07.6353 26249.8
 23 08 2013  10 45  -21.0339 26017.1 -03487.8 -07.6353 26249.9
 23 08 2013  10 46  -21.0342 26017.3 -03487.8 -07.6354 26250.1
 23 08 2013  10 47  -21.0347 26017.8 -03487.9 -07.6355 26250.5
 23 08 2013  10 48  -21.0357 26018.2 -03488.1 -07.6357 26250.9
 23 08 2013  10 49  -21.0360 26018.2 -03487.9 -07.6354 26250.9
 23 08 2013  10 50  -21.0362 26018.1 -03487.8 -07.6352 26250.9
 23 08 2013  10 51  -21.0365 26018.1 -03487.7 -07.6350 26250.8
 23 08 2013  10 52  -21.0372 26018.3 -03487.8 -07.6350 26251.0
 23 08 2013  10 53  -21.0380 26018.5 -03487.8 -07.6350 26251.2
 23 08 2013  10 54  -21.0383 26019.0 -03487.9 -07.6351 26251.7
 23 08 2013  10 55  -21.0385 26019.5 -03488.1 -07.6353 26252.2
 23 08 2013  10 56  -21.0387 26019.7 -03488.0 -07.6352 26252.5
 23 08 2013  10 57  -21.0386 26020.0 -03488.0 -07.6350 26252.7
 23 08 2013  10 58  -21.0393 26020.2 -03488.0 -07.6350 26252.9
 23 08 2013  10 59  -21.0394 26020.1 -03487.9 -07.6348 26252.8
 23 08 2013  11 00  -21.0398 26019.8 -03487.8 -07.6347 26252.5
 23 08 2013  11 01  -21.0411 26019.7 -03487.8 -07.6347 26252.4
 23 08 2013  11 02  -21.0423 26020.0 -03488.0 -07.6350 26252.7
 23 08 2013  11 03  -21.0437 26020.1 -03488.1 -07.6352 26252.8
 23 08 2013  11 04  -21.0451 26020.1 -03488.2 -07.6353 26252.9
 23 08 2013  11 05  -21.0459 26020.1 -03488.2 -07.6354 26252.9
 23 08 2013  11 06  -21.0464 26020.2 -03488.2 -07.6354 26252.9
 23 08 2013  11 07  -21.0474 26020.4 -03488.3 -07.6356 26253.2
 23 08 2013  11 08  -21.0485 26020.3 -03488.3 -07.6356 26253.1
 23 08 2013  11 09  -21.0494 26020.3 -03488.2 -07.6355 26253.1
 23 08 2013  11 10  -21.0499 26020.4 -03488.3 -07.6354 26253.2
 23 08 2013  11 11  -21.0503 26020.8 -03488.3 -07.6354 26253.6
 23 08 2013  11 12  -21.0509 26020.9 -03488.3 -07.6353 26253.6
 23 08 2013  11 13  -21.0515 26020.8 -03488.1 -07.6349 26253.5
 23 08 2013  11 14  -21.0521 26021.2 -03488.1 -07.6348 26254.0
 23 08 2013  11 15  -21.0527 26021.4 -03488.0 -07.6346 26254.1
 23 08 2013  11 16  -21.0533 26021.4 -03487.8 -07.6343 26254.1
 23 08 2013  11 17  -21.0533 26021.2 -03487.6 -07.6339 26253.8
 23 08 2013  11 18  -21.0535 26021.4 -03487.5 -07.6336 26254.0
 23 08 2013  11 19  -21.0542 26021.3 -03487.4 -07.6334 26254.0
 23 08 2013  11 20  -21.0550 26021.3 -03487.4 -07.6332 26254.0
 23 08 2013  11 21  -21.0555 26021.8 -03487.5 -07.6334 26254.5
 23 08 2013  11 22  -21.0553 26021.9 -03487.4 -07.6332 26254.5
 23 08 2013  11 23  -21.0548 26022.2 -03487.5 -07.6332 26254.9
 23 08 2013  11 24  -21.0550 26022.4 -03487.4 -07.6331 26255.1
 23 08 2013  11 25  -21.0552 26022.4 -03487.3 -07.6327 26255.1
 23 08 2013  11 26  -21.0550 26022.5 -03487.1 -07.6323 26255.1
 23 08 2013  11 27  -21.0552 26022.9 -03487.1 -07.6321 26255.5
 23 08 2013  11 28  -21.0556 26023.3 -03487.0 -07.6320 26255.9
 23 08 2013  11 29  -21.0562 26023.4 -03486.9 -07.6317 26256.0
 23 08 2013  11 30  -21.0569 26022.7 -03486.4 -07.6308 26255.2
 23 08 2013  11 31  -21.0575 26021.9 -03486.0 -07.6301 26254.4
 23 08 2013  11 32  -21.0581 26022.1 -03486.0 -07.6301 26254.6
 23 08 2013  11 33  -21.0588 26022.3 -03486.0 -07.6300 26254.7
 23 08 2013  11 34  -21.0598 26022.1 -03485.8 -07.6297 26254.5
 23 08 2013  11 35  -21.0605 26022.2 -03485.8 -07.6296 26254.6
 23 08 2013  11 36  -21.0615 26022.3 -03485.7 -07.6294 26254.7
 23 08 2013  11 37  -21.0624 26022.0 -03485.6 -07.6291 26254.4
 23 08 2013  11 38  -21.0634 26022.2 -03485.6 -07.6292 26254.6
 23 08 2013  11 39  -21.0641 26022.3 -03485.6 -07.6292 26254.7
 23 08 2013  11 40  -21.0646 26022.4 -03485.6 -07.6291 26254.8
 23 08 2013  11 41  -21.0648 26022.3 -03485.5 -07.6289 26254.7
 23 08 2013  11 42  -21.0650 26022.6 -03485.5 -07.6290 26255.0
 23 08 2013  11 43  -21.0651 26023.1 -03485.6 -07.6290 26255.5
 23 08 2013  11 44  -21.0653 26022.6 -03485.3 -07.6285 26255.0
 23 08 2013  11 45  -21.0658 26022.4 -03485.2 -07.6282 26254.7
 23 08 2013  11 46  -21.0666 26022.5 -03485.2 -07.6283 26254.9
 23 08 2013  11 47  -21.0669 26022.3 -03485.1 -07.6281 26254.6
 23 08 2013  11 48  -21.0673 26022.1 -03485.1 -07.6281 26254.4
 23 08 2013  11 49  -21.0668 26022.1 -03485.0 -07.6280 26254.4
 23 08 2013  11 50  -21.0666 26022.5 -03485.2 -07.6283 26254.8
 23 08 2013  11 51  -21.0665 26022.8 -03485.3 -07.6284 26255.1
 23 08 2013  11 52  -21.0661 26022.6 -03485.2 -07.6282 26254.9
 23 08 2013  11 53  -21.0654 26023.0 -03485.3 -07.6283 26255.3
 23 08 2013  11 54  -21.0649 26023.1 -03485.3 -07.6284 26255.5
 23 08 2013  11 55  -21.0644 26022.8 -03485.2 -07.6281 26255.1
 23 08 2013  11 56  -21.0643 26022.4 -03485.1 -07.6280 26254.8
 23 08 2013  11 57  -21.0642 26022.6 -03485.2 -07.6283 26255.0
 23 08 2013  11 58  -21.0645 26023.0 -03485.4 -07.6286 26255.3
 23 08 2013  11 59  -21.0651 26023.4 -03485.6 -07.6289 26255.8
 23 08 2013  12 00  -21.0653 26023.2 -03485.5 -07.6286 26255.6
 23 08 2013  12 01  -21.0653 26022.9 -03485.3 -07.6283 26255.3
 23 08 2013  12 02  -21.0651 26023.2 -03485.3 -07.6283 26255.5
 23 08 2013  12 03  -21.0655 26023.8 -03485.5 -07.6285 26256.2
 23 08 2013  12 04  -21.0657 26024.9 -03485.8 -07.6288 26257.3
 23 08 2013  12 05  -21.0659 26026.0 -03486.0 -07.6289 26258.5
 23 08 2013  12 06  -21.0661 26026.4 -03485.8 -07.6284 26258.8
 23 08 2013  12 07  -21.0663 26026.8 -03485.6 -07.6278 26259.2
 23 08 2013  12 08  -21.0667 26027.0 -03485.4 -07.6273 26259.3
 23 08 2013  12 09  -21.0662 26027.4 -03485.2 -07.6268 26259.7
 23 08 2013  12 10  -21.0670 26027.4 -03484.9 -07.6261 26259.7
 23 08 2013  12 11  -21.0703 26027.3 -03484.5 -07.6254 26259.5
 23 08 2013  12 12  -21.0714 26027.9 -03484.6 -07.6253 26260.1
 23 08 2013  12 13  -21.0722 26028.3 -03484.5 -07.6249 26260.5
 23 08 2013  12 14  -21.0719 26028.4 -03484.1 -07.6242 26260.6
 23 08 2013  12 15  -21.0722 26028.7 -03484.0 -07.6239 26260.8
 23 08 2013  12 16  -21.0720 26028.7 -03483.8 -07.6234 26260.8
 23 08 2013  12 17  -21.0718 26028.4 -03483.6 -07.6230 26260.5
 23 08 2013  12 18  -21.0717 26028.6 -03483.5 -07.6228 26260.7
 23 08 2013  12 19  -21.0688 26030.1 -03484.1 -07.6237 26262.2
 23 08 2013  12 20  -21.0692 26030.4 -03484.2 -07.6237 26262.6
 23 08 2013  12 21  -21.0694 26030.2 -03483.9 -07.6232 26262.3
 23 08 2013  12 22  -21.0699 26030.6 -03484.0 -07.6232 26262.7
 23 08 2013  12 23  -21.0702 26030.7 -03484.0 -07.6232 26262.8
 23 08 2013  12 24  -21.0702 26030.9 -03483.9 -07.6231 26263.0
 23 08 2013  12 25  -21.0699 26031.3 -03484.0 -07.6232 26263.4
 23 08 2013  12 26  -21.0698 26031.9 -03484.2 -07.6233 26264.0
 23 08 2013  12 27  -21.0696 26032.8 -03484.4 -07.6235 26264.9
 23 08 2013  12 28  -21.0692 26033.3 -03484.4 -07.6234 26265.5
 23 08 2013  12 29  -21.0679 26033.0 -03484.2 -07.6229 26265.1
 23 08 2013  12 30  -21.0662 26032.3 -03483.8 -07.6223 26264.3
 23 08 2013  12 31  -21.0657 26032.2 -03483.8 -07.6225 26264.3
 23 08 2013  12 32  -21.0664 26033.3 -03484.4 -07.6234 26265.5
 23 08 2013  12 33  -21.0668 26033.9 -03484.6 -07.6236 26266.0
 23 08 2013  12 34  -21.0666 26033.8 -03484.4 -07.6233 26265.9
 23 08 2013  12 35  -21.0661 26034.2 -03484.5 -07.6233 26266.3
 23 08 2013  12 36  -21.0663 26034.3 -03484.5 -07.6233 26266.5
 23 08 2013  12 37  -21.0660 26034.3 -03484.3 -07.6230 26266.4
 23 08 2013  12 38  -21.0654 26034.6 -03484.4 -07.6230 26266.8
 23 08 2013  12 39  -21.0651 26034.7 -03484.4 -07.6229 26266.8
 23 08 2013  12 40  -21.0647 26034.9 -03484.4 -07.6229 26267.0
 23 08 2013  12 41  -21.0646 26034.0 -03484.0 -07.6224 26266.1
 23 08 2013  12 42  -21.0645 26033.8 -03484.0 -07.6224 26265.9
 23 08 2013  12 43  -21.0650 26033.9 -03484.2 -07.6228 26266.0
 23 08 2013  12 44  -21.0657 26034.1 -03484.3 -07.6230 26266.3
 23 08 2013  12 45  -21.0658 26033.8 -03484.2 -07.6229 26265.9
 23 08 2013  12 46  -21.0654 26033.2 -03484.1 -07.6227 26265.3
 23 08 2013  12 47  -21.0655 26033.8 -03484.5 -07.6235 26266.0
 23 08 2013  12 48  -21.0659 26034.8 -03485.0 -07.6243 26267.0
 23 08 2013  12 49  -21.0655 26035.3 -03485.4 -07.6248 26267.6
 23 08 2013  12 50  -21.0640 26035.6 -03485.5 -07.6250 26267.9
 23 08 2013  12 51  -21.0627 26035.5 -03485.5 -07.6251 26267.8
 23 08 2013  12 52  -21.0620 26035.2 -03485.4 -07.6251 26267.4
 23 08 2013  12 53  -21.0615 26035.6 -03485.7 -07.6256 26267.9
 23 08 2013  12 54  -21.0612 26036.5 -03486.1 -07.6262 26268.8
 23 08 2013  12 55  -21.0610 26037.0 -03486.3 -07.6264 26269.4
 23 08 2013  12 56  -21.0610 26036.7 -03486.1 -07.6261 26269.0
 23 08 2013  12 57  -21.0611 26035.0 -03485.5 -07.6252 26267.3
 23 08 2013  12 58  -21.0619 26034.0 -03485.4 -07.6253 26266.3
 23 08 2013  12 59  -21.0628 26034.0 -03485.8 -07.6261 26266.3
 23 08 2013  13 00  -21.0635 26034.0 -03486.1 -07.6268 26266.4
 23 08 2013  13 01  -21.0635 26034.6 -03486.5 -07.6276 26267.0
 23 08 2013  13 02  -21.0640 26035.2 -03487.0 -07.6284 26267.7
 23 08 2013  13 03  -21.0645 26035.7 -03487.2 -07.6288 26268.2
 23 08 2013  13 04  -21.0650 26036.4 -03487.5 -07.6293 26268.9
 23 08 2013  13 05  -21.0659 26036.4 -03487.6 -07.6295 26269.0
 23 08 2013  13 06  -21.0663 26036.8 -03487.8 -07.6296 26269.4
 23 08 2013  13 07  -21.0667 26037.1 -03487.8 -07.6297 26269.7
 23 08 2013  13 08  -21.0678 26037.8 -03488.0 -07.6299 26270.4
 23 08 2013  13 09  -21.0689 26038.5 -03488.2 -07.6300 26271.1
 23 08 2013  13 10  -21.0699 26039.1 -03488.2 -07.6300 26271.7
 23 08 2013  13 11  -21.0704 26039.3 -03488.1 -07.6296 26271.9
 23 08 2013  13 12  -21.0698 26040.4 -03488.2 -07.6296 26273.0
 23 08 2013  13 13  -21.0691 26042.0 -03488.5 -07.6298 26274.6
 23 08 2013  13 14  -21.0688 26043.4 -03488.7 -07.6297 26276.0
 23 08 2013  13 15  -21.0692 26043.9 -03488.5 -07.6291 26276.5
 23 08 2013  13 16  -21.0695 26044.0 -03488.1 -07.6283 26276.6
 23 08 2013  13 17  -21.0697 26043.9 -03487.7 -07.6275 26276.4
 23 08 2013  13 18  -21.0694 26043.9 -03487.5 -07.6270 26276.4
 23 08 2013  13 19  -21.0690 26044.2 -03487.5 -07.6269 26276.7
 23 08 2013  13 20  -21.0688 26044.4 -03487.5 -07.6268 26276.9
 23 08 2013  13 21  -21.0686 26044.1 -03487.3 -07.6266 26276.5
 23 08 2013  13 22  -21.0683 26043.7 -03487.2 -07.6264 26276.2
 23 08 2013  13 23  -21.0689 26043.5 -03487.2 -07.6266 26275.9
 23 08 2013  13 24  -21.0688 26043.7 -03487.4 -07.6268 26276.1
 23 08 2013  13 25  -21.0691 26044.7 -03487.9 -07.6275 26277.2
 23 08 2013  13 26  -21.0701 26045.5 -03488.1 -07.6279 26278.0
 23 08 2013  13 27  -21.0704 26045.8 -03488.1 -07.6277 26278.3
 23 08 2013  13 28  -21.0707 26046.3 -03488.1 -07.6276 26278.8
 23 08 2013  13 29  -21.0709 26046.2 -03487.9 -07.6272 26278.7
 23 08 2013  13 30  -21.0710 26046.1 -03487.8 -07.6270 26278.6
 23 08 2013  13 31  -21.0713 26046.5 -03487.9 -07.6271 26279.0
 23 08 2013  13 32  -21.0713 26046.6 -03487.9 -07.6271 26279.1
 23 08 2013  13 33  -21.0709 26046.6 -03487.9 -07.6270 26279.1
 23 08 2013  13 34  -21.0710 26047.0 -03488.0 -07.6271 26279.5
 23 08 2013  13 35  -21.0713 26047.8 -03488.2 -07.6273 26280.3
 23 08 2013  13 36  -21.0721 26048.5 -03488.3 -07.6273 26281.0
 23 08 2013  13 37  -21.0731 26048.6 -03488.1 -07.6268 26281.1
 23 08 2013  13 38  -21.0739 26048.3 -03487.6 -07.6260 26280.7
 23 08 2013  13 39  -21.0748 26048.0 -03487.3 -07.6254 26280.4
 23 08 2013  13 40  -21.0754 26047.5 -03487.0 -07.6248 26279.9
 23 08 2013  13 41  -21.0760 26047.4 -03486.8 -07.6246 26279.7
 23 08 2013  13 42  -21.0767 26047.1 -03486.7 -07.6243 26279.4
 23 08 2013  13 43  -21.0773 26046.9 -03486.5 -07.6239 26279.2
 23 08 2013  13 44  -21.0780 26046.9 -03486.4 -07.6237 26279.2
 23 08 2013  13 45  -21.0784 26047.3 -03486.4 -07.6237 26279.6
 23 08 2013  13 46  -21.0788 26048.1 -03486.6 -07.6238 26280.4
 23 08 2013  13 47  -21.0787 26049.2 -03486.7 -07.6237 26281.5
 23 08 2013  13 48  -21.0780 26049.9 -03486.6 -07.6233 26282.2
 23 08 2013  13 49  -21.0780 26050.5 -03486.4 -07.6227 26282.8
 23 08 2013  13 50  -21.0782 26050.9 -03486.2 -07.6221 26283.2
 23 08 2013  13 51  -21.0782 26051.1 -03485.9 -07.6214 26283.3
 23 08 2013  13 52  -21.0787 26051.1 -03485.5 -07.6207 26283.3
 23 08 2013  13 53  -21.0789 26050.7 -03485.0 -07.6197 26282.7
 23 08 2013  13 54  -21.0796 26050.4 -03484.8 -07.6192 26282.5
 23 08 2013  13 55  -21.0806 26050.5 -03484.7 -07.6190 26282.5
 23 08 2013  13 56  -21.0818 26050.7 -03484.6 -07.6189 26282.8
 23 08 2013  13 57  -21.0833 26051.4 -03484.7 -07.6189 26283.4
 23 08 2013  13 58  -21.0838 26051.9 -03484.6 -07.6185 26283.9
 23 08 2013  13 59  -21.0841 26052.3 -03484.5 -07.6180 26284.3
 23 08 2013  14 00  -21.0842 26053.3 -03484.5 -07.6179 26285.2
 23 08 2013  14 01  -21.0848 26053.9 -03484.4 -07.6175 26285.9
 23 08 2013  14 02  -21.0847 26054.2 -03484.1 -07.6168 26286.1
 23 08 2013  14 03  -21.0845 26054.5 -03483.9 -07.6161 26286.4
 23 08 2013  14 04  -21.0844 26054.8 -03483.7 -07.6156 26286.7
 23 08 2013  14 05  -21.0844 26055.5 -03483.6 -07.6152 26287.4
 23 08 2013  14 06  -21.0846 26056.4 -03483.6 -07.6150 26288.2
 23 08 2013  14 07  -21.0848 26056.8 -03483.4 -07.6144 26288.6
 23 08 2013  14 08  -21.0848 26056.8 -03483.0 -07.6136 26288.6
 23 08 2013  14 09  -21.0845 26056.7 -03482.6 -07.6128 26288.4
 23 08 2013  14 10  -21.0846 26056.3 -03482.2 -07.6120 26288.0
 23 08 2013  14 11  -21.0851 26056.3 -03482.0 -07.6114 26287.9
 23 08 2013  14 12  -21.0852 26056.1 -03481.6 -07.6108 26287.7
 23 08 2013  14 13  -21.0847 26055.7 -03481.2 -07.6100 26287.2
 23 08 2013  14 14  -21.0843 26055.4 -03480.9 -07.6094 26286.9
 23 08 2013  14 15  -21.0843 26055.8 -03480.9 -07.6093 26287.3
 23 08 2013  14 16  -21.0844 26056.4 -03480.9 -07.6092 26287.9
 23 08 2013  14 17  -21.0844 26056.9 -03480.8 -07.6089 26288.3
 23 08 2013  14 18  -21.0844 26057.2 -03480.6 -07.6083 26288.6
 23 08 2013  14 19  -21.0842 26057.2 -03480.3 -07.6077 26288.6
 23 08 2013  14 20  -21.0839 26057.1 -03480.0 -07.6070 26288.5
 23 08 2013  14 21  -21.0838 26057.2 -03479.8 -07.6066 26288.5
 23 08 2013  14 22  -21.0835 26057.5 -03479.7 -07.6063 26288.8
 23 08 2013  14 23  -21.0829 26057.4 -03479.5 -07.6058 26288.7
 23 08 2013  14 24  -21.0825 26057.5 -03479.3 -07.6054 26288.8
 23 08 2013  14 25  -21.0827 26058.0 -03479.4 -07.6054 26289.3
 23 08 2013  14 26  -21.0831 26058.4 -03479.4 -07.6052 26289.6
 23 08 2013  14 27  -21.0833 26058.3 -03479.1 -07.6048 26289.5
 23 08 2013  14 28  -21.0830 26057.8 -03478.8 -07.6042 26289.0
 23 08 2013  14 29  -21.0827 26057.3 -03478.5 -07.6037 26288.4
 23 08 2013  14 30  -21.0824 26057.0 -03478.3 -07.6034 26288.2
 23 08 2013  14 31  -21.0826 26057.7 -03478.5 -07.6036 26288.8
 23 08 2013  14 32  -21.0832 26058.5 -03478.7 -07.6038 26289.6
 23 08 2013  14 33  -21.0832 26058.7 -03478.6 -07.6035 26289.9
 23 08 2013  14 34  -21.0832 26059.0 -03478.5 -07.6032 26290.2
 23 08 2013  14 35  -21.0830 26059.3 -03478.3 -07.6027 26290.4
 23 08 2013  14 36  -21.0832 26059.6 -03478.2 -07.6023 26290.7
 23 08 2013  14 37  -21.0833 26059.6 -03477.9 -07.6017 26290.7
 23 08 2013  14 38  -21.0830 26059.6 -03477.6 -07.6010 26290.6
 23 08 2013  14 39  -21.0828 26059.6 -03477.3 -07.6004 26290.5
 23 08 2013  14 40  -21.0824 26059.4 -03477.0 -07.5998 26290.4
 23 08 2013  14 41  -21.0818 26059.3 -03476.7 -07.5992 26290.2
 23 08 2013  14 42  -21.0815 26059.5 -03476.6 -07.5990 26290.4
 23 08 2013  14 43  -21.0815 26059.8 -03476.6 -07.5990 26290.7
 23 08 2013  14 44  -21.0817 26060.2 -03476.6 -07.5988 26291.1
 23 08 2013  14 45  -21.0822 26060.7 -03476.6 -07.5986 26291.6
 23 08 2013  14 46  -21.0827 26061.6 -03476.7 -07.5986 26292.5
 23 08 2013  14 47  -21.0832 26062.5 -03476.7 -07.5983 26293.4
 23 08 2013  14 48  -21.0830 26062.7 -03476.4 -07.5976 26293.6
 23 08 2013  14 49  -21.0822 26062.4 -03475.9 -07.5966 26293.1
 23 08 2013  14 50  -21.0817 26061.8 -03475.5 -07.5958 26292.6
 23 08 2013  14 51  -21.0811 26061.3 -03475.1 -07.5953 26292.0
 23 08 2013  14 52  -21.0808 26060.9 -03474.9 -07.5950 26291.5
 23 08 2013  14 53  -21.0811 26060.7 -03474.9 -07.5948 26291.3
 23 08 2013  14 54  -21.0817 26060.5 -03474.8 -07.5948 26291.2
 23 08 2013  14 55  -21.0823 26060.3 -03474.7 -07.5947 26291.0
 23 08 2013  14 56  -21.0825 26060.1 -03474.6 -07.5945 26290.7
 23 08 2013  14 57  -21.0830 26060.2 -03474.6 -07.5944 26290.8
 23 08 2013  14 58  -21.0836 26060.5 -03474.7 -07.5946 26291.1
 23 08 2013  14 59  -21.0839 26060.9 -03474.8 -07.5946 26291.6
 23 08 2013  15 00  -21.0839 26061.1 -03474.6 -07.5942 26291.7
 23 08 2013  15 01  -21.0841 26061.1 -03474.5 -07.5939 26291.7
 23 08 2013  15 02  -21.0842 26061.1 -03474.3 -07.5936 26291.7
 23 08 2013  15 03  -21.0842 26061.0 -03474.1 -07.5932 26291.6
 23 08 2013  15 04  -21.0844 26061.0 -03474.0 -07.5930 26291.5
 23 08 2013  15 05  -21.0846 26061.1 -03473.9 -07.5927 26291.6
 23 08 2013  15 06  -21.0846 26061.5 -03473.9 -07.5926 26292.0
 23 08 2013  15 07  -21.0848 26061.8 -03473.9 -07.5924 26292.3
 23 08 2013  15 08  -21.0847 26062.1 -03473.8 -07.5921 26292.5
 23 08 2013  15 09  -21.0849 26062.8 -03473.9 -07.5921 26293.3
 23 08 2013  15 10  -21.0845 26063.4 -03473.8 -07.5918 26293.9
 23 08 2013  15 11  -21.0834 26063.4 -03473.4 -07.5910 26293.8
 23 08 2013  15 12  -21.0824 26062.9 -03472.9 -07.5900 26293.3
 23 08 2013  15 13  -21.0816 26062.3 -03472.4 -07.5892 26292.6
 23 08 2013  15 14  -21.0813 26062.5 -03472.4 -07.5891 26292.8
 23 08 2013  15 15  -21.0813 26063.2 -03472.6 -07.5892 26293.5
 23 08 2013  15 16  -21.0812 26063.6 -03472.5 -07.5888 26293.9
 23 08 2013  15 17  -21.0812 26064.1 -03472.4 -07.5885 26294.4
 23 08 2013  15 18  -21.0809 26064.5 -03472.2 -07.5881 26294.8
 23 08 2013  15 19  -21.0804 26064.8 -03472.1 -07.5876 26295.0
 23 08 2013  15 20  -21.0804 26065.0 -03471.9 -07.5873 26295.2
 23 08 2013  15 21  -21.0796 26064.8 -03471.6 -07.5866 26294.9
 23 08 2013  15 22  -21.0794 26064.1 -03471.0 -07.5855 26294.3
 23 08 2013  15 23  -21.0793 26063.7 -03470.8 -07.5852 26293.8
 23 08 2013  15 24  -21.0787 26062.6 -03470.3 -07.5844 26292.7
 23 08 2013  15 25  -21.0779 26061.2 -03469.7 -07.5836 26291.2
 23 08 2013  15 26  -21.0769 26059.6 -03469.1 -07.5828 26289.5
 23 08 2013  15 27  -21.0765 26058.4 -03468.9 -07.5827 26288.3
 23 08 2013  15 28  -21.0768 26057.3 -03468.9 -07.5829 26287.2
 23 08 2013  15 29  -21.0773 26056.2 -03468.9 -07.5832 26286.1
 23 08 2013  15 30  -21.0779 26055.7 -03469.0 -07.5837 26285.6
 23 08 2013  15 31  -21.0787 26055.6 -03469.3 -07.5844 26285.5
 23 08 2013  15 32  -21.0796 26055.8 -03469.7 -07.5852 26285.8
 23 08 2013  15 33  -21.0805 26056.0 -03470.0 -07.5857 26286.1
 23 08 2013  15 34  -21.0810 26056.0 -03470.1 -07.5859 26286.0
 23 08 2013  15 35  -21.0816 26056.0 -03470.2 -07.5861 26286.0
 23 08 2013  15 36  -21.0826 26056.8 -03470.7 -07.5869 26286.9
 23 08 2013  15 37  -21.0830 26057.5 -03470.9 -07.5872 26287.7
 23 08 2013  15 38  -21.0829 26057.8 -03470.8 -07.5869 26288.0
 23 08 2013  15 39  -21.0831 26057.7 -03470.6 -07.5866 26287.8
 23 08 2013  15 40  -21.0831 26056.9 -03470.2 -07.5859 26286.9
 23 08 2013  15 41  -21.0827 26055.4 -03469.6 -07.5850 26285.3
 23 08 2013  15 42  -21.0830 26054.2 -03469.3 -07.5846 26284.2
 23 08 2013  15 43  -21.0840 26054.2 -03469.5 -07.5851 26284.2
 23 08 2013  15 44  -21.0843 26054.6 -03469.8 -07.5857 26284.6
 23 08 2013  15 45  -21.0845 26054.5 -03469.9 -07.5859 26284.6
 23 08 2013  15 46  -21.0847 26054.0 -03469.8 -07.5858 26284.0
 23 08 2013  15 47  -21.0855 26053.3 -03469.7 -07.5858 26283.4
 23 08 2013  15 48  -21.0854 26052.6 -03469.5 -07.5855 26282.6
 23 08 2013  15 49  -21.0846 26051.3 -03469.0 -07.5849 26281.3
 23 08 2013  15 50  -21.0837 26050.5 -03468.9 -07.5848 26280.4
 23 08 2013  15 51  -21.0836 26050.2 -03469.0 -07.5851 26280.2
 23 08 2013  15 52  -21.0840 26050.4 -03469.2 -07.5856 26280.4
 23 08 2013  15 53  -21.0840 26050.0 -03469.1 -07.5856 26280.0
 23 08 2013  15 54  -21.0840 26049.9 -03469.1 -07.5855 26279.9
 23 08 2013  15 55  -21.0844 26049.6 -03469.0 -07.5854 26279.6
 23 08 2013  15 56  -21.0840 26049.7 -03469.0 -07.5853 26279.6
 23 08 2013  15 57  -21.0844 26050.4 -03469.3 -07.5858 26280.4
 23 08 2013  15 58  -21.0846 26050.6 -03469.3 -07.5857 26280.6
 23 08 2013  15 59  -21.0842 26050.6 -03469.2 -07.5854 26280.6
 23 08 2013  16 00  -21.0840 26051.0 -03469.2 -07.5854 26281.0
 23 08 2013  16 01  -21.0843 26051.4 -03469.3 -07.5854 26281.4
 23 08 2013  16 02  -21.0849 26052.0 -03469.4 -07.5856 26282.0
 23 08 2013  16 03  -21.0852 26052.3 -03469.4 -07.5854 26282.2
 23 08 2013  16 04  -21.0850 26052.3 -03469.2 -07.5850 26282.2
 23 08 2013  16 05  -21.0852 26052.5 -03469.1 -07.5848 26282.5
 23 08 2013  16 06  -21.0852 26052.6 -03469.0 -07.5846 26282.6
 23 08 2013  16 07  -21.0862 26052.7 -03469.0 -07.5844 26282.6
 23 08 2013  16 08  -21.0871 26052.8 -03468.9 -07.5842 26282.8
 23 08 2013  16 09  -21.0870 26052.6 -03468.6 -07.5837 26282.5
 23 08 2013  16 10  -21.0865 26051.9 -03468.2 -07.5830 26281.8
 23 08 2013  16 11  -21.0860 26051.7 -03468.1 -07.5828 26281.5
 23 08 2013  16 12  -21.0857 26052.3 -03468.3 -07.5831 26282.1
 23 08 2013  16 13  -21.0859 26052.3 -03468.2 -07.5829 26282.1
 23 08 2013  16 14  -21.0866 26052.9 -03468.3 -07.5829 26282.7
 23 08 2013  16 15  -21.0871 26053.4 -03468.3 -07.5829 26283.3
 23 08 2013  16 16  -21.0871 26053.7 -03468.2 -07.5824 26283.5
 23 08 2013  16 17  -21.0863 26053.6 -03467.8 -07.5817 26283.4
 23 08 2013  16 18  -21.0857 26053.6 -03467.6 -07.5812 26283.4
 23 08 2013  16 19  -21.0854 26053.4 -03467.3 -07.5807 26283.1
 23 08 2013  16 20  -21.0849 26053.0 -03467.1 -07.5802 26282.7
 23 08 2013  16 21  -21.0842 26053.0 -03467.0 -07.5801 26282.7
 23 08 2013  16 22  -21.0835 26053.5 -03467.1 -07.5802 26283.2
 23 08 2013  16 23  -21.0825 26053.6 -03467.1 -07.5800 26283.3
 23 08 2013  16 24  -21.0814 26053.0 -03466.7 -07.5795 26282.6
 23 08 2013  16 25  -21.0805 26052.4 -03466.5 -07.5792 26282.0
 23 08 2013  16 26  -21.0799 26052.1 -03466.4 -07.5791 26281.7
 23 08 2013  16 27  -21.0797 26052.4 -03466.6 -07.5794 26282.0
 23 08 2013  16 28  -21.0794 26051.9 -03466.5 -07.5792 26281.5
 23 08 2013  16 29  -21.0793 26052.3 -03466.6 -07.5795 26282.0
 23 08 2013  16 30  -21.0796 26053.0 -03466.9 -07.5798 26282.7
 23 08 2013  16 31  -21.0791 26053.2 -03466.8 -07.5797 26282.9
 23 08 2013  16 32  -21.0783 26052.9 -03466.6 -07.5792 26282.6
 23 08 2013  16 33  -21.0780 26052.9 -03466.6 -07.5793 26282.5
 23 08 2013  16 34  -21.0774 26052.9 -03466.7 -07.5793 26282.6
 23 08 2013  16 35  -21.0768 26052.7 -03466.7 -07.5794 26282.4
 23 08 2013  16 36  -21.0762 26052.3 -03466.6 -07.5794 26281.9
 23 08 2013  16 37  -21.0755 26051.7 -03466.5 -07.5794 26281.3
 23 08 2013  16 38  -21.0754 26051.5 -03466.7 -07.5798 26281.1
 23 08 2013  16 39  -21.0755 26051.1 -03466.8 -07.5801 26280.8
 23 08 2013  16 40  -21.0754 26051.0 -03466.9 -07.5804 26280.7
 23 08 2013  16 41  -21.0746 26050.7 -03466.9 -07.5805 26280.4
 23 08 2013  16 42  -21.0737 26050.4 -03466.9 -07.5806 26280.1
 23 08 2013  16 43  -21.0738 26050.6 -03467.2 -07.5811 26280.3
 23 08 2013  16 44  -21.0739 26050.5 -03467.3 -07.5814 26280.2
 23 08 2013  16 45  -21.0741 26050.4 -03467.3 -07.5816 26280.2
 23 08 2013  16 46  -21.0744 26050.5 -03467.4 -07.5818 26280.2
 23 08 2013  16 47  -21.0738 26050.3 -03467.4 -07.5816 26280.1
 23 08 2013  16 48  -21.0728 26049.9 -03467.2 -07.5814 26279.6
 23 08 2013  16 49  -21.0722 26049.8 -03467.2 -07.5815 26279.6
 23 08 2013  16 50  -21.0721 26049.7 -03467.3 -07.5816 26279.5
 23 08 2013  16 51  -21.0720 26049.3 -03467.2 -07.5815 26279.0
 23 08 2013  16 52  -21.0718 26048.9 -03467.0 -07.5814 26278.6
 23 08 2013  16 53  -21.0714 26048.7 -03467.0 -07.5813 26278.4
 23 08 2013  16 54  -21.0704 26048.3 -03466.8 -07.5810 26278.0
 23 08 2013  16 55  -21.0698 26047.8 -03466.7 -07.5809 26277.5
 23 08 2013  16 56  -21.0691 26047.6 -03466.7 -07.5809 26277.2
 23 08 2013  16 57  -21.0685 26047.2 -03466.6 -07.5810 26276.9
 23 08 2013  16 58  -21.0679 26046.9 -03466.6 -07.5810 26276.5
 23 08 2013  16 59  -21.0674 26046.7 -03466.7 -07.5812 26276.4
 23 08 2013  17 00  -21.0673 26046.7 -03466.7 -07.5813 26276.4
 23 08 2013  17 01  -21.0668 26046.9 -03466.9 -07.5815 26276.6
 23 08 2013  17 02  -21.0659 26046.5 -03466.7 -07.5813 26276.2
 23 08 2013  17 03  -21.0658 26046.2 -03466.7 -07.5814 26275.9
 23 08 2013  17 04  -21.0656 26046.0 -03466.8 -07.5816 26275.7
 23 08 2013  17 05  -21.0652 26045.5 -03466.8 -07.5818 26275.3
 23 08 2013  17 06  -21.0649 26045.0 -03466.8 -07.5819 26274.7
 23 08 2013  17 07  -21.0640 26044.4 -03466.7 -07.5818 26274.1
 23 08 2013  17 08  -21.0637 26044.1 -03466.7 -07.5821 26273.8
 23 08 2013  17 09  -21.0633 26044.0 -03466.9 -07.5824 26273.7
 23 08 2013  17 10  -21.0636 26044.0 -03467.1 -07.5828 26273.8
 23 08 2013  17 11  -21.0633 26043.5 -03467.0 -07.5827 26273.3
 23 08 2013  17 12  -21.0629 26043.0 -03466.9 -07.5827 26272.8
 23 08 2013  17 13  -21.0634 26043.3 -03467.1 -07.5831 26273.1
 23 08 2013  17 14  -21.0638 26043.4 -03467.3 -07.5834 26273.2
 23 08 2013  17 15  -21.0632 26043.0 -03467.2 -07.5833 26272.8
 23 08 2013  17 16  -21.0627 26042.7 -03467.1 -07.5832 26272.5
 23 08 2013  17 17  -21.0628 26042.5 -03467.2 -07.5834 26272.3
 23 08 2013  17 18  -21.0616 26042.0 -03467.0 -07.5833 26271.7
 23 08 2013  17 19  -21.0612 26042.1 -03467.2 -07.5837 26271.9
 23 08 2013  17 20  -21.0605 26041.9 -03467.3 -07.5840 26271.7
 23 08 2013  17 21  -21.0605 26041.9 -03467.4 -07.5842 26271.7
 23 08 2013  17 22  -21.0610 26042.1 -03467.5 -07.5843 26271.9
 23 08 2013  17 23  -21.0608 26041.6 -03467.2 -07.5839 26271.4
 23 08 2013  17 24  -21.0605 26041.1 -03466.9 -07.5832 26270.8
 23 08 2013  17 25  -21.0603 26040.7 -03466.7 -07.5829 26270.4
 23 08 2013  17 26  -21.0594 26040.3 -03466.4 -07.5825 26270.0
 23 08 2013  17 27  -21.0592 26040.6 -03466.5 -07.5826 26270.3
 23 08 2013  17 28  -21.0599 26040.8 -03466.6 -07.5826 26270.6
 23 08 2013  17 29  -21.0599 26040.6 -03466.3 -07.5822 26270.3
 23 08 2013  17 30  -21.0587 26040.3 -03466.0 -07.5815 26269.9
 23 08 2013  17 31  -21.0585 26040.4 -03465.9 -07.5813 26270.0
 23 08 2013  17 32  -21.0593 26040.8 -03466.0 -07.5814 26270.5
 23 08 2013  17 33  -21.0597 26041.1 -03466.0 -07.5813 26270.8
 23 08 2013  17 34  -21.0583 26040.1 -03465.3 -07.5801 26269.6
 23 08 2013  17 35  -21.0566 26038.8 -03464.6 -07.5791 26268.3
 23 08 2013  17 36  -21.0545 26037.7 -03464.3 -07.5786 26267.2
 23 08 2013  17 37  -21.0523 26036.8 -03464.1 -07.5785 26266.2
 23 08 2013  17 38  -21.0506 26036.1 -03464.1 -07.5787 26265.5
 23 08 2013  17 39  -21.0493 26035.7 -03464.2 -07.5791 26265.2
 23 08 2013  17 40  -21.0488 26035.8 -03464.5 -07.5795 26265.3
 23 08 2013  17 41  -21.0487 26036.0 -03464.7 -07.5800 26265.5
 23 08 2013  17 42  -21.0489 26036.6 -03465.0 -07.5804 26266.2
 23 08 2013  17 43  -21.0494 26036.7 -03465.0 -07.5803 26266.3
 23 08 2013  17 44  -21.0495 26036.6 -03464.8 -07.5800 26266.1
 23 08 2013  17 45  -21.0503 26036.6 -03464.7 -07.5798 26266.1
 23 08 2013  17 46  -21.0507 26036.6 -03464.7 -07.5797 26266.1
 23 08 2013  17 47  -21.0507 26036.5 -03464.6 -07.5796 26266.0
 23 08 2013  17 48  -21.0501 26036.3 -03464.5 -07.5794 26265.8
 23 08 2013  17 49  -21.0494 26036.0 -03464.4 -07.5794 26265.5
 23 08 2013  17 50  -21.0488 26035.8 -03464.5 -07.5795 26265.3
 23 08 2013  17 51  -21.0484 26035.9 -03464.7 -07.5799 26265.4
 23 08 2013  17 52  -21.0482 26035.7 -03464.8 -07.5802 26265.3
 23 08 2013  17 53  -21.0484 26035.8 -03465.0 -07.5806 26265.4
 23 08 2013  17 54  -21.0481 26035.6 -03464.9 -07.5806 26265.2
 23 08 2013  17 55  -21.0467 26035.3 -03464.9 -07.5806 26264.8
 23 08 2013  17 56  -21.0454 26035.6 -03465.2 -07.5812 26265.2
 23 08 2013  17 57  -21.0455 26036.3 -03466.0 -07.5826 26266.0
 23 08 2013  17 58  -21.0472 26037.5 -03466.7 -07.5839 26267.3
 23 08 2013  17 59  -21.0487 26038.2 -03467.0 -07.5843 26268.0
 23 08 2013  18 00  -21.0499 26038.0 -03466.8 -07.5839 26267.7
 23 08 2013  18 01  -21.0506 26037.1 -03466.3 -07.5831 26266.8
 23 08 2013  18 02  -21.0506 26035.8 -03465.7 -07.5822 26265.5
 23 08 2013  18 03  -21.0497 26034.4 -03465.1 -07.5814 26264.0
 23 08 2013  18 04  -21.0487 26033.6 -03464.9 -07.5811 26263.2
 23 08 2013  18 05  -21.0484 26033.4 -03465.0 -07.5815 26263.0
 23 08 2013  18 06  -21.0488 26033.7 -03465.4 -07.5822 26263.3
 23 08 2013  18 07  -21.0488 26034.0 -03465.7 -07.5827 26263.7
 23 08 2013  18 08  -21.0491 26034.1 -03465.9 -07.5832 26263.8
 23 08 2013  18 09  -21.0491 26033.8 -03465.9 -07.5831 26263.5
 23 08 2013  18 10  -21.0492 26033.5 -03465.9 -07.5833 26263.2
 23 08 2013  18 11  -21.0493 26033.3 -03466.0 -07.5835 26263.0
 23 08 2013  18 12  -21.0499 26033.2 -03466.0 -07.5836 26262.9
 23 08 2013  18 13  -21.0505 26033.0 -03466.0 -07.5836 26262.7
 23 08 2013  18 14  -21.0505 26032.9 -03465.9 -07.5835 26262.6
 23 08 2013  18 15  -21.0506 26032.8 -03465.9 -07.5836 26262.5
 23 08 2013  18 16  -21.0505 26032.8 -03466.0 -07.5837 26262.5
 23 08 2013  18 17  -21.0505 26032.8 -03466.1 -07.5839 26262.5
 23 08 2013  18 18  -21.0505 26032.9 -03466.2 -07.5841 26262.6
 23 08 2013  18 19  -21.0507 26033.0 -03466.3 -07.5843 26262.8
 23 08 2013  18 20  -21.0508 26033.0 -03466.3 -07.5844 26262.7
 23 08 2013  18 21  -21.0503 26032.5 -03466.1 -07.5841 26262.2
 23 08 2013  18 22  -21.0501 26032.4 -03466.2 -07.5842 26262.1
 23 08 2013  18 23  -21.0502 26032.4 -03466.3 -07.5844 26262.1
 23 08 2013  18 24  -21.0499 26032.1 -03466.2 -07.5843 26261.8
 23 08 2013  18 25  -21.0496 26031.7 -03466.0 -07.5840 26261.4
 23 08 2013  18 26  -21.0495 26031.4 -03466.0 -07.5840 26261.1
 23 08 2013  18 27  -21.0495 26031.4 -03466.0 -07.5842 26261.2
 23 08 2013  18 28  -21.0494 26031.4 -03466.1 -07.5843 26261.2
 23 08 2013  18 29  -21.0490 26031.3 -03466.0 -07.5842 26261.0
 23 08 2013  18 30  -21.0484 26031.2 -03466.0 -07.5842 26260.9
 23 08 2013  18 31  -21.0482 26031.2 -03466.1 -07.5845 26261.0
 23 08 2013  18 32  -21.0477 26031.0 -03466.1 -07.5844 26260.7
 23 08 2013  18 33  -21.0471 26030.5 -03466.0 -07.5843 26260.2
 23 08 2013  18 34  -21.0464 26029.9 -03465.8 -07.5842 26259.7
 23 08 2013  18 35  -21.0457 26029.1 -03465.6 -07.5839 26258.8
 23 08 2013  18 36  -21.0450 26028.2 -03465.4 -07.5838 26257.9
 23 08 2013  18 37  -21.0439 26027.4 -03465.3 -07.5838 26257.0
 23 08 2013  18 38  -21.0431 26027.0 -03465.5 -07.5842 26256.7
 23 08 2013  18 39  -21.0425 26026.8 -03465.7 -07.5849 26256.5
 23 08 2013  18 40  -21.0420 26026.6 -03466.0 -07.5854 26256.3
 23 08 2013  18 41  -21.0414 26026.4 -03466.1 -07.5859 26256.2
 23 08 2013  18 42  -21.0414 26026.2 -03466.3 -07.5864 26256.0
 23 08 2013  18 43  -21.0414 26025.9 -03466.5 -07.5867 26255.8
 23 08 2013  18 44  -21.0415 26025.6 -03466.5 -07.5869 26255.4
 23 08 2013  18 45  -21.0417 26025.4 -03466.5 -07.5870 26255.2
 23 08 2013  18 46  -21.0419 26025.3 -03466.6 -07.5872 26255.1
 23 08 2013  18 47  -21.0421 26025.3 -03466.7 -07.5875 26255.2
 23 08 2013  18 48  -21.0426 26025.6 -03466.9 -07.5878 26255.5
 23 08 2013  18 49  -21.0427 26025.7 -03467.0 -07.5880 26255.6
 23 08 2013  18 50  -21.0430 26025.9 -03467.1 -07.5882 26255.9
 23 08 2013  18 51  -21.0435 26026.1 -03467.3 -07.5884 26256.1
 23 08 2013  18 52  -21.0439 26026.2 -03467.3 -07.5885 26256.1
 23 08 2013  18 53  -21.0443 26026.1 -03467.3 -07.5884 26256.0
 23 08 2013  18 54  -21.0445 26025.9 -03467.2 -07.5883 26255.8
 23 08 2013  18 55  -21.0447 26025.7 -03467.1 -07.5882 26255.6
 23 08 2013  18 56  -21.0452 26025.7 -03467.2 -07.5883 26255.7
 23 08 2013  18 57  -21.0459 26026.2 -03467.4 -07.5887 26256.2
 23 08 2013  18 58  -21.0465 26026.4 -03467.5 -07.5888 26256.4
 23 08 2013  18 59  -21.0467 26026.3 -03467.4 -07.5887 26256.2
 23 08 2013  19 00  -21.0471 26026.2 -03467.4 -07.5886 26256.1
 23 08 2013  19 01  -21.0475 26026.1 -03467.3 -07.5885 26256.0
 23 08 2013  19 02  -21.0480 26025.9 -03467.2 -07.5884 26255.9
 23 08 2013  19 03  -21.0482 26025.7 -03467.1 -07.5882 26255.6
 23 08 2013  19 04  -21.0483 26025.1 -03466.9 -07.5879 26255.0
 23 08 2013  19 05  -21.0483 26024.5 -03466.6 -07.5875 26254.4
 23 08 2013  19 06  -21.0484 26024.1 -03466.5 -07.5874 26254.0
 23 08 2013  19 07  -21.0488 26023.9 -03466.6 -07.5875 26253.8
 23 08 2013  19 08  -21.0486 26023.2 -03466.4 -07.5873 26253.1
 23 08 2013  19 09  -21.0486 26022.7 -03466.3 -07.5872 26252.6
 23 08 2013  19 10  -21.0489 26022.4 -03466.3 -07.5875 26252.3
 23 08 2013  19 11  -21.0489 26022.1 -03466.3 -07.5874 26251.9
 23 08 2013  19 12  -21.0491 26022.1 -03466.4 -07.5877 26252.0
 23 08 2013  19 13  -21.0491 26021.9 -03466.4 -07.5877 26251.8
 23 08 2013  19 14  -21.0492 26021.5 -03466.3 -07.5876 26251.3
 23 08 2013  19 15  -21.0493 26021.2 -03466.3 -07.5876 26251.0
 23 08 2013  19 16  -21.0497 26020.8 -03466.2 -07.5876 26250.6
 23 08 2013  19 17  -21.0499 26020.5 -03466.2 -07.5877 26250.4
 23 08 2013  19 18  -21.0501 26020.4 -03466.3 -07.5879 26250.3
 23 08 2013  19 19  -21.0502 26020.0 -03466.2 -07.5879 26249.9
 23 08 2013  19 20  -21.0504 26019.7 -03466.2 -07.5879 26249.5
 23 08 2013  19 21  -21.0503 26019.4 -03466.1 -07.5878 26249.2
 23 08 2013  19 22  -21.0499 26019.0 -03466.1 -07.5878 26248.9
 23 08 2013  19 23  -21.0496 26018.6 -03466.0 -07.5878 26248.4
 23 08 2013  19 24  -21.0492 26018.3 -03466.0 -07.5880 26248.1
 23 08 2013  19 25  -21.0492 26018.1 -03466.1 -07.5881 26248.0
 23 08 2013  19 26  -21.0489 26017.8 -03466.1 -07.5883 26247.7
 23 08 2013  19 27  -21.0486 26017.5 -03466.1 -07.5884 26247.3
 23 08 2013  19 28  -21.0482 26017.2 -03466.2 -07.5887 26247.0
 23 08 2013  19 29  -21.0479 26017.0 -03466.3 -07.5889 26246.8
 23 08 2013  19 30  -21.0475 26016.5 -03466.3 -07.5890 26246.4
 23 08 2013  19 31  -21.0472 26016.2 -03466.3 -07.5892 26246.1
 23 08 2013  19 32  -21.0470 26016.0 -03466.4 -07.5895 26245.9
 23 08 2013  19 33  -21.0469 26015.8 -03466.6 -07.5900 26245.7
 23 08 2013  19 34  -21.0468 26015.6 -03466.7 -07.5903 26245.5
 23 08 2013  19 35  -21.0465 26015.4 -03466.9 -07.5906 26245.4
 23 08 2013  19 36  -21.0465 26015.6 -03467.1 -07.5911 26245.7
 23 08 2013  19 37  -21.0466 26015.5 -03467.4 -07.5917 26245.5
 23 08 2013  19 38  -21.0456 26015.3 -03467.6 -07.5923 26245.4
 23 08 2013  19 39  -21.0460 26015.3 -03467.8 -07.5927 26245.4
 23 08 2013  19 40  -21.0463 26015.0 -03467.8 -07.5929 26245.1
 23 08 2013  19 41  -21.0464 26014.6 -03467.9 -07.5930 26244.8
 23 08 2013  19 42  -21.0465 26014.5 -03467.9 -07.5932 26244.6
 23 08 2013  19 43  -21.0478 26014.1 -03467.9 -07.5931 26244.2
 23 08 2013  19 44  -21.0507 26013.4 -03467.6 -07.5927 26243.5
 23 08 2013  19 45  -21.0512 26013.2 -03467.6 -07.5929 26243.3
 23 08 2013  19 46  -21.0513 26012.8 -03467.6 -07.5930 26242.9
 23 08 2013  19 47  -21.0499 26012.4 -03467.5 -07.5929 26242.5
 23 08 2013  19 48  -21.0475 26012.4 -03467.8 -07.5935 26242.5
 23 08 2013  19 49  -21.0469 26011.8 -03467.6 -07.5933 26241.9
 23 08 2013  19 50  -21.0473 26011.5 -03467.7 -07.5936 26241.7
 23 08 2013  19 51  -21.0473 26010.8 -03467.5 -07.5933 26240.9
 23 08 2013  19 52  -21.0472 26010.1 -03467.3 -07.5932 26240.2
 23 08 2013  19 53  -21.0475 26009.8 -03467.4 -07.5934 26239.9
 23 08 2013  19 54  -21.0476 26009.3 -03467.4 -07.5935 26239.4
 23 08 2013  19 55  -21.0475 26008.9 -03467.4 -07.5936 26239.0
 23 08 2013  19 56  -21.0474 26008.4 -03467.4 -07.5937 26238.6
 23 08 2013  19 57  -21.0472 26008.2 -03467.4 -07.5940 26238.3
 23 08 2013  19 58  -21.0471 26008.2 -03467.6 -07.5943 26238.3
 23 08 2013  19 59  -21.0475 26008.1 -03467.8 -07.5948 26238.3
 23 08 2013  20 00  -21.0475 26008.0 -03467.9 -07.5950 26238.2
 23 08 2013  20 01  -21.0478 26007.7 -03468.0 -07.5952 26237.9
 23 08 2013  20 02  -21.0477 26007.4 -03468.0 -07.5954 26237.6
 23 08 2013  20 03  -21.0475 26007.4 -03468.1 -07.5957 26237.6
 23 08 2013  20 04  -21.0474 26007.4 -03468.3 -07.5960 26237.6
 23 08 2013  20 05  -21.0474 26007.2 -03468.3 -07.5961 26237.4
 23 08 2013  20 06  -21.0474 26006.9 -03468.3 -07.5962 26237.1
 23 08 2013  20 07  -21.0471 26006.4 -03468.2 -07.5961 26236.7
 23 08 2013  20 08  -21.0470 26006.0 -03468.2 -07.5961 26236.2
 23 08 2013  20 09  -21.0469 26005.7 -03468.1 -07.5962 26235.9
 23 08 2013  20 10  -21.0466 26005.4 -03468.2 -07.5963 26235.7
 23 08 2013  20 11  -21.0467 26005.5 -03468.3 -07.5967 26235.8
 23 08 2013  20 12  -21.0467 26005.6 -03468.6 -07.5972 26235.9
 23 08 2013  20 13  -21.0466 26005.9 -03468.8 -07.5976 26236.2
 23 08 2013  20 14  -21.0468 26006.0 -03469.0 -07.5979 26236.3
 23 08 2013  20 15  -21.0467 26005.8 -03468.9 -07.5979 26236.1
 23 08 2013  20 16  -21.0466 26005.3 -03468.9 -07.5978 26235.6
 23 08 2013  20 17  -21.0465 26005.0 -03468.8 -07.5979 26235.3
 23 08 2013  20 18  -21.0465 26005.0 -03469.0 -07.5982 26235.3
 23 08 2013  20 19  -21.0465 26005.2 -03469.1 -07.5985 26235.6
 23 08 2013  20 20  -21.0469 26005.5 -03469.4 -07.5990 26235.9
 23 08 2013  20 21  -21.0472 26005.5 -03469.5 -07.5991 26235.9
 23 08 2013  20 22  -21.0471 26005.4 -03469.5 -07.5993 26235.9
 23 08 2013  20 23  -21.0470 26005.6 -03469.7 -07.5995 26236.1
 23 08 2013  20 24  -21.0470 26005.8 -03469.8 -07.5997 26236.3
 23 08 2013  20 25  -21.0469 26005.8 -03469.8 -07.5998 26236.3
 23 08 2013  20 26  -21.0470 26005.7 -03469.8 -07.5998 26236.2
 23 08 2013  20 27  -21.0471 26005.6 -03469.8 -07.5998 26236.1
 23 08 2013  20 28  -21.0474 26005.0 -03469.7 -07.5997 26235.5
 23 08 2013  20 29  -21.0471 26004.9 -03469.6 -07.5996 26235.3
 23 08 2013  20 30  -21.0466 26004.9 -03469.7 -07.5998 26235.3
 23 08 2013  20 31  -21.0464 26005.1 -03469.9 -07.6002 26235.6
 23 08 2013  20 32  -21.0464 26005.3 -03470.1 -07.6006 26235.8
 23 08 2013  20 33  -21.0463 26005.2 -03470.2 -07.6009 26235.7
 23 08 2013  20 34  -21.0461 26005.2 -03470.4 -07.6011 26235.8
 23 08 2013  20 35  -21.0458 26005.4 -03470.6 -07.6015 26236.0
 23 08 2013  20 36  -21.0453 26005.5 -03470.7 -07.6017 26236.1
 23 08 2013  20 37  -21.0445 26005.7 -03470.9 -07.6021 26236.3
 23 08 2013  20 38  -21.0439 26005.9 -03471.0 -07.6023 26236.5
 23 08 2013  20 39  -21.0434 26006.3 -03471.2 -07.6027 26237.0
 23 08 2013  20 40  -21.0433 26006.7 -03471.5 -07.6032 26237.3
 23 08 2013  20 41  -21.0437 26006.9 -03471.7 -07.6036 26237.6
 23 08 2013  20 42  -21.0441 26006.9 -03471.8 -07.6038 26237.7
 23 08 2013  20 43  -21.0444 26007.0 -03472.0 -07.6040 26237.8
 23 08 2013  20 44  -21.0445 26007.2 -03472.1 -07.6043 26238.0
 23 08 2013  20 45  -21.0442 26007.3 -03472.1 -07.6043 26238.1
 23 08 2013  20 46  -21.0441 26007.4 -03472.2 -07.6044 26238.2
 23 08 2013  20 47  -21.0438 26007.6 -03472.3 -07.6045 26238.4
 23 08 2013  20 48  -21.0436 26007.7 -03472.3 -07.6047 26238.4
 23 08 2013  20 49  -21.0434 26007.5 -03472.3 -07.6047 26238.3
 23 08 2013  20 50  -21.0430 26007.4 -03472.3 -07.6047 26238.2
 23 08 2013  20 51  -21.0428 26007.4 -03472.3 -07.6047 26238.2
 23 08 2013  20 52  -21.0425 26007.4 -03472.3 -07.6048 26238.2
 23 08 2013  20 53  -21.0420 26007.4 -03472.4 -07.6048 26238.2
 23 08 2013  20 54  -21.0415 26007.5 -03472.4 -07.6049 26238.3
 23 08 2013  20 55  -21.0413 26007.4 -03472.4 -07.6048 26238.2
 23 08 2013  20 56  -21.0410 26007.1 -03472.3 -07.6047 26237.9
 23 08 2013  20 57  -21.0409 26006.8 -03472.2 -07.6046 26237.6
 23 08 2013  20 58  -21.0407 26006.7 -03472.1 -07.6046 26237.4
 23 08 2013  20 59  -21.0406 26006.4 -03472.0 -07.6044 26237.1
 23 08 2013  21 00  -21.0402 26006.2 -03471.9 -07.6043 26237.0
 23 08 2013  21 01  -21.0396 26006.2 -03472.0 -07.6044 26237.0
 23 08 2013  21 02  -21.0391 26006.3 -03472.2 -07.6047 26237.1
 23 08 2013  21 03  -21.0386 26006.4 -03472.3 -07.6050 26237.2
 23 08 2013  21 04  -21.0382 26006.7 -03472.5 -07.6053 26237.5
 23 08 2013  21 05  -21.0381 26006.8 -03472.7 -07.6057 26237.7
 23 08 2013  21 06  -21.0380 26007.0 -03472.8 -07.6060 26237.9
 23 08 2013  21 07  -21.0379 26007.2 -03473.0 -07.6063 26238.0
 23 08 2013  21 08  -21.0378 26007.1 -03473.0 -07.6064 26237.9
 23 08 2013  21 09  -21.0378 26006.9 -03473.0 -07.6064 26237.8
 23 08 2013  21 10  -21.0380 26006.5 -03472.9 -07.6062 26237.4
 23 08 2013  21 11  -21.0380 26006.3 -03472.8 -07.6061 26237.2
 23 08 2013  21 12  -21.0380 26006.2 -03472.8 -07.6060 26237.0
 23 08 2013  21 13  -21.0379 26005.9 -03472.7 -07.6060 26236.8
 23 08 2013  21 14  -21.0379 26005.7 -03472.7 -07.6060 26236.5
 23 08 2013  21 15  -21.0376 26005.5 -03472.7 -07.6060 26236.3
 23 08 2013  21 16  -21.0372 26005.4 -03472.7 -07.6062 26236.3
 23 08 2013  21 17  -21.0371 26005.4 -03472.8 -07.6064 26236.3
 23 08 2013  21 18  -21.0370 26005.4 -03473.0 -07.6067 26236.3
 23 08 2013  21 19  -21.0370 26005.5 -03473.1 -07.6070 26236.4
 23 08 2013  21 20  -21.0371 26005.5 -03473.2 -07.6072 26236.4
 23 08 2013  21 21  -21.0372 26005.4 -03473.3 -07.6074 26236.3
 23 08 2013  21 22  -21.0372 26005.3 -03473.3 -07.6074 26236.2
 23 08 2013  21 23  -21.0371 26005.2 -03473.3 -07.6075 26236.1
 23 08 2013  21 24  -21.0373 26005.2 -03473.4 -07.6077 26236.1
 23 08 2013  21 25  -21.0374 26005.2 -03473.5 -07.6080 26236.1
 23 08 2013  21 26  -21.0373 26005.1 -03473.6 -07.6081 26236.0
 23 08 2013  21 27  -21.0370 26005.1 -03473.7 -07.6083 26236.1
 23 08 2013  21 28  -21.0365 26005.4 -03473.9 -07.6087 26236.4
 23 08 2013  21 29  -21.0361 26005.8 -03474.2 -07.6092 26236.8
 23 08 2013  21 30  -21.0357 26006.1 -03474.4 -07.6096 26237.2
 23 08 2013  21 31  -21.0355 26006.3 -03474.6 -07.6099 26237.4
 23 08 2013  21 32  -21.0352 26006.3 -03474.6 -07.6100 26237.4
 23 08 2013  21 33  -21.0350 26006.3 -03474.7 -07.6103 26237.4
 23 08 2013  21 34  -21.0350 26006.2 -03474.8 -07.6104 26237.4
 23 08 2013  21 35  -21.0352 26006.3 -03474.9 -07.6106 26237.4
 23 08 2013  21 36  -21.0352 26006.4 -03475.0 -07.6108 26237.5
 23 08 2013  21 37  -21.0355 26006.5 -03475.1 -07.6111 26237.6
 23 08 2013  21 38  -21.0357 26006.6 -03475.3 -07.6114 26237.8
 23 08 2013  21 39  -21.0358 26006.7 -03475.4 -07.6116 26237.9
 23 08 2013  21 40  -21.0359 26006.9 -03475.5 -07.6116 26238.1
 23 08 2013  21 41  -21.0361 26007.1 -03475.7 -07.6121 26238.4
 23 08 2013  21 42  -21.0363 26007.4 -03475.8 -07.6124 26238.6
 23 08 2013  21 43  -21.0367 26007.5 -03475.9 -07.6125 26238.8
 23 08 2013  21 44  -21.0369 26007.7 -03476.0 -07.6127 26238.9
 23 08 2013  21 45  -21.0370 26007.7 -03476.1 -07.6127 26239.0
 23 08 2013  21 46  -21.0372 26007.7 -03476.1 -07.6128 26239.0
 23 08 2013  21 47  -21.0374 26007.8 -03476.1 -07.6128 26239.1
 23 08 2013  21 48  -21.0375 26007.9 -03476.2 -07.6129 26239.2
 23 08 2013  21 49  -21.0378 26007.9 -03476.2 -07.6130 26239.2
 23 08 2013  21 50  -21.0380 26008.1 -03476.2 -07.6130 26239.3
 23 08 2013  21 51  -21.0383 26008.0 -03476.3 -07.6131 26239.3
 23 08 2013  21 52  -21.0385 26008.1 -03476.3 -07.6131 26239.4
 23 08 2013  21 53  -21.0387 26008.2 -03476.3 -07.6132 26239.5
 23 08 2013  21 54  -21.0389 26008.2 -03476.3 -07.6132 26239.5
 23 08 2013  21 55  -21.0390 26008.3 -03476.4 -07.6133 26239.6
 23 08 2013  21 56  -21.0393 26008.3 -03476.4 -07.6133 26239.7
 23 08 2013  21 57  -21.0396 26008.4 -03476.4 -07.6133 26239.7
 23 08 2013  21 58  -21.0396 26008.5 -03476.4 -07.6133 26239.8
 23 08 2013  21 59  -21.0397 26008.5 -03476.5 -07.6133 26239.8
 23 08 2013  22 00  -21.0397 26008.6 -03476.5 -07.6134 26239.9
 23 08 2013  22 01  -21.0397 26008.7 -03476.5 -07.6134 26240.0
 23 08 2013  22 02  -21.0397 26008.7 -03476.6 -07.6135 26240.0
 23 08 2013  22 03  -21.0398 26008.7 -03476.5 -07.6135 26240.0
 23 08 2013  22 04  -21.0399 26008.8 -03476.6 -07.6136 26240.1
 23 08 2013  22 05  -21.0401 26008.8 -03476.7 -07.6137 26240.2
 23 08 2013  22 06  -21.0403 26008.7 -03476.6 -07.6136 26240.1
 23 08 2013  22 07  -21.0405 26008.6 -03476.5 -07.6135 26239.9
 23 08 2013  22 08  -21.0405 26008.5 -03476.5 -07.6135 26239.8
 23 08 2013  22 09  -21.0405 26009.0 -03476.7 -07.6138 26240.3
 23 08 2013  22 10  -21.0403 26009.5 -03477.0 -07.6142 26240.9
 23 08 2013  22 11  -21.0402 26009.6 -03477.0 -07.6143 26241.0
 23 08 2013  22 12  -21.0402 26009.4 -03476.9 -07.6141 26240.7
 23 08 2013  22 13  -21.0403 26009.2 -03476.8 -07.6140 26240.5
 23 08 2013  22 14  -21.0406 26009.0 -03476.7 -07.6138 26240.4
 23 08 2013  22 15  -21.0410 26009.0 -03476.8 -07.6139 26240.3
 23 08 2013  22 16  -21.0412 26008.9 -03476.7 -07.6139 26240.2
 23 08 2013  22 17  -21.0412 26008.9 -03476.8 -07.6139 26240.2
 23 08 2013  22 18  -21.0409 26009.1 -03476.8 -07.6140 26240.4
 23 08 2013  22 19  -21.0405 26009.3 -03476.9 -07.6142 26240.6
 23 08 2013  22 20  -21.0402 26009.5 -03477.0 -07.6143 26240.9
 23 08 2013  22 21  -21.0398 26009.9 -03477.2 -07.6146 26241.3
 23 08 2013  22 22  -21.0394 26010.3 -03477.5 -07.6150 26241.7
 23 08 2013  22 23  -21.0391 26010.6 -03477.6 -07.6153 26242.0
 23 08 2013  22 24  -21.0388 26010.6 -03477.7 -07.6154 26242.0
 23 08 2013  22 25  -21.0388 26010.5 -03477.6 -07.6153 26242.0
 23 08 2013  22 26  -21.0387 26010.4 -03477.6 -07.6153 26241.9
 23 08 2013  22 27  -21.0389 26010.3 -03477.5 -07.6152 26241.8
 23 08 2013  22 28  -21.0392 26010.3 -03477.6 -07.6152 26241.8
 23 08 2013  22 29  -21.0394 26010.4 -03477.6 -07.6153 26241.9
 23 08 2013  22 30  -21.0397 26010.4 -03477.6 -07.6153 26241.8
 23 08 2013  22 31  -21.0400 26010.4 -03477.6 -07.6154 26241.8
 23 08 2013  22 32  -21.0400 26010.4 -03477.6 -07.6154 26241.8
 23 08 2013  22 33  -21.0400 26010.4 -03477.6 -07.6153 26241.8
 23 08 2013  22 34  -21.0398 26010.3 -03477.6 -07.6153 26241.8
 23 08 2013  22 35  -21.0396 26010.3 -03477.6 -07.6153 26241.7
 23 08 2013  22 36  -21.0394 26010.2 -03477.5 -07.6152 26241.7
 23 08 2013  22 37  -21.0391 26010.1 -03477.5 -07.6152 26241.5
 23 08 2013  22 38  -21.0390 26009.9 -03477.4 -07.6150 26241.3
 23 08 2013  22 39  -21.0386 26009.8 -03477.4 -07.6150 26241.2
 23 08 2013  22 40  -21.0382 26009.8 -03477.4 -07.6150 26241.2
 23 08 2013  22 41  -21.0378 26009.7 -03477.4 -07.6150 26241.2
 23 08 2013  22 42  -21.0375 26009.7 -03477.5 -07.6152 26241.2
 23 08 2013  22 43  -21.0372 26009.7 -03477.5 -07.6152 26241.1
 23 08 2013  22 44  -21.0369 26009.8 -03477.6 -07.6154 26241.3
 23 08 2013  22 45  -21.0367 26010.0 -03477.7 -07.6156 26241.5
 23 08 2013  22 46  -21.0368 26010.1 -03477.9 -07.6159 26241.6
 23 08 2013  22 47  -21.0367 26010.2 -03478.0 -07.6161 26241.7
 23 08 2013  22 48  -21.0367 26010.3 -03478.0 -07.6162 26241.8
 23 08 2013  22 49  -21.0367 26010.4 -03478.1 -07.6163 26241.9
 23 08 2013  22 50  -21.0367 26010.5 -03478.1 -07.6164 26242.0
 23 08 2013  22 51  -21.0367 26010.5 -03478.1 -07.6164 26242.0
 23 08 2013  22 52  -21.0369 26010.7 -03478.2 -07.6164 26242.2
 23 08 2013  22 53  -21.0369 26010.7 -03478.2 -07.6166 26242.3
 23 08 2013  22 54  -21.0369 26010.7 -03478.2 -07.6165 26242.2
 23 08 2013  22 55  -21.0368 26010.3 -03478.0 -07.6163 26241.8
 23 08 2013  22 56  -21.0368 26009.9 -03477.8 -07.6159 26241.4
 23 08 2013  22 57  -21.0366 26009.9 -03477.8 -07.6159 26241.4
 23 08 2013  22 58  -21.0365 26010.0 -03477.9 -07.6160 26241.5
 23 08 2013  22 59  -21.0367 26009.5 -03477.7 -07.6158 26240.9
 23 08 2013  23 00  -21.0369 26009.0 -03477.5 -07.6154 26240.5
 23 08 2013  23 01  -21.0371 26008.6 -03477.2 -07.6150 26240.0
 23 08 2013  23 02  -21.0373 26008.2 -03477.1 -07.6148 26239.6
 23 08 2013  23 03  -21.0373 26007.9 -03477.0 -07.6146 26239.3
 23 08 2013  23 04  -21.0373 26007.5 -03476.8 -07.6144 26238.9
 23 08 2013  23 05  -21.0372 26007.2 -03476.7 -07.6142 26238.5
 23 08 2013  23 06  -21.0370 26007.0 -03476.6 -07.6142 26238.4
 23 08 2013  23 07  -21.0369 26007.0 -03476.7 -07.6142 26238.3
 23 08 2013  23 08  -21.0368 26007.2 -03476.8 -07.6145 26238.5
 23 08 2013  23 09  -21.0366 26007.4 -03477.0 -07.6149 26238.8
 23 08 2013  23 10  -21.0364 26007.7 -03477.2 -07.6152 26239.1
 23 08 2013  23 11  -21.0361 26008.0 -03477.4 -07.6156 26239.4
 23 08 2013  23 12  -21.0358 26008.3 -03477.6 -07.6158 26239.8
 23 08 2013  23 13  -21.0355 26008.6 -03477.7 -07.6161 26240.1
 23 08 2013  23 14  -21.0352 26008.9 -03477.9 -07.6164 26240.4
 23 08 2013  23 15  -21.0348 26009.0 -03477.9 -07.6164 26240.5
 23 08 2013  23 16  -21.0343 26009.1 -03478.0 -07.6165 26240.6
 23 08 2013  23 17  -21.0341 26009.2 -03478.0 -07.6166 26240.8
 23 08 2013  23 18  -21.0341 26009.2 -03478.1 -07.6167 26240.7
 23 08 2013  23 19  -21.0340 26009.1 -03478.0 -07.6166 26240.6
 23 08 2013  23 20  -21.0338 26009.1 -03478.0 -07.6165 26240.6
 23 08 2013  23 21  -21.0335 26009.1 -03478.0 -07.6164 26240.6
 23 08 2013  23 22  -21.0333 26009.1 -03478.0 -07.6165 26240.6
 23 08 2013  23 23  -21.0331 26009.1 -03478.0 -07.6165 26240.7
 23 08 2013  23 24  -21.0328 26009.0 -03478.0 -07.6165 26240.5
 23 08 2013  23 25  -21.0329 26009.0 -03477.9 -07.6164 26240.5
 23 08 2013  23 26  -21.0330 26008.7 -03477.8 -07.6163 26240.2
 23 08 2013  23 27  -21.0329 26008.4 -03477.7 -07.6160 26239.9
 23 08 2013  23 28  -21.0326 26008.5 -03477.7 -07.6161 26240.0
 23 08 2013  23 29  -21.0323 26008.6 -03477.8 -07.6162 26240.1
 23 08 2013  23 30  -21.0321 26008.7 -03477.8 -07.6162 26240.1
 23 08 2013  23 31  -21.0317 26008.7 -03477.9 -07.6164 26240.2
 23 08 2013  23 32  -21.0316 26008.4 -03477.8 -07.6163 26239.9
 23 08 2013  23 33  -21.0317 26008.5 -03477.8 -07.6164 26240.0
 23 08 2013  23 34  -21.0318 26008.1 -03477.7 -07.6162 26239.5
 23 08 2013  23 35  -21.0319 26007.2 -03477.3 -07.6155 26238.6
 23 08 2013  23 36  -21.0319 26006.3 -03476.8 -07.6148 26237.7
 23 08 2013  23 37  -21.0317 26005.9 -03476.6 -07.6143 26237.2
 23 08 2013  23 38  -21.0314 26005.8 -03476.5 -07.6143 26237.1
 23 08 2013  23 39  -21.0309 26005.9 -03476.7 -07.6145 26237.3
 23 08 2013  23 40  -21.0304 26006.2 -03476.9 -07.6149 26237.5
 23 08 2013  23 41  -21.0301 26006.6 -03477.2 -07.6154 26238.0
 23 08 2013  23 42  -21.0300 26007.0 -03477.4 -07.6159 26238.4
 23 08 2013  23 43  -21.0299 26007.3 -03477.6 -07.6163 26238.8
 23 08 2013  23 44  -21.0300 26007.7 -03477.9 -07.6167 26239.2
 23 08 2013  23 45  -21.0302 26008.1 -03478.1 -07.6171 26239.6
 23 08 2013  23 46  -21.0301 26008.5 -03478.3 -07.6174 26240.1
 23 08 2013  23 47  -21.0297 26009.0 -03478.5 -07.6176 26240.5
 23 08 2013  23 48  -21.0296 26009.2 -03478.6 -07.6179 26240.8
 23 08 2013  23 49  -21.0296 26009.5 -03478.8 -07.6180 26241.1
 23 08 2013  23 50  -21.0294 26010.0 -03478.9 -07.6182 26241.6
 23 08 2013  23 51  -21.0290 26010.6 -03479.1 -07.6186 26242.2
 23 08 2013  23 52  -21.0289 26010.9 -03479.3 -07.6188 26242.6
 23 08 2013  23 53  -21.0289 26011.4 -03479.4 -07.6190 26243.0
 23 08 2013  23 54  -21.0289 26011.4 -03479.4 -07.6190 26243.1
 23 08 2013  23 55  -21.0287 26011.4 -03479.4 -07.6188 26243.1
 23 08 2013  23 56  -21.0283 26011.8 -03479.5 -07.6190 26243.5
 23 08 2013  23 57  -21.0282 26012.2 -03479.6 -07.6191 26243.9
