SAO LUIS EMBRACE-03 <026> 1 Min. Reported data

 DD MM YYYY  HH MM   D(Deg)  H(nT)   Z(nT)   I(Deg)   F(nT)

 26 01 2013  00 00  -21.0450 26023.5 -03382.3 -07.4053 26242.4
 26 01 2013  00 01  -21.0439 26023.1 -03382.3 -07.4054 26241.9
 26 01 2013  00 02  -21.0429 26022.5 -03382.3 -07.4055 26241.4
 26 01 2013  00 03  -21.0428 26022.2 -03382.4 -07.4059 26241.1
 26 01 2013  00 04  -21.0432 26021.9 -03382.7 -07.4065 26240.9
 26 01 2013  00 05  -21.0434 26022.1 -03383.1 -07.4073 26241.1
 26 01 2013  00 06  -21.0426 26021.6 -03383.1 -07.4075 26240.6
 26 01 2013  00 07  -21.0417 26021.5 -03383.2 -07.4077 26240.5
 26 01 2013  00 08  -21.0419 26021.6 -03383.5 -07.4085 26240.7
 26 01 2013  00 09  -21.0426 26020.5 -03383.4 -07.4084 26239.6
 26 01 2013  00 10  -21.0422 26019.6 -03383.0 -07.4079 26238.6
 26 01 2013  00 11  -21.0422 26018.8 -03382.8 -07.4076 26237.8
 26 01 2013  00 12  -21.0435 26018.3 -03382.8 -07.4078 26237.3
 26 01 2013  00 13  -21.0444 26018.0 -03382.9 -07.4080 26237.0
 26 01 2013  00 14  -21.0450 26017.8 -03383.0 -07.4084 26236.8
 26 01 2013  00 15  -21.0446 26017.8 -03383.2 -07.4087 26236.9
 26 01 2013  00 16  -21.0445 26017.7 -03383.3 -07.4091 26236.8
 26 01 2013  00 17  -21.0444 26016.8 -03383.1 -07.4088 26235.8
 26 01 2013  00 18  -21.0445 26016.5 -03383.0 -07.4088 26235.5
 26 01 2013  00 19  -21.0466 26016.4 -03383.3 -07.4094 26235.4
 26 01 2013  00 20  -21.0481 26016.1 -03383.4 -07.4097 26235.1
 26 01 2013  00 21  -21.0477 26015.6 -03383.3 -07.4096 26234.7
 26 01 2013  00 22  -21.0478 26014.9 -03383.1 -07.4093 26234.0
 26 01 2013  00 23  -21.0488 26013.6 -03382.6 -07.4087 26232.6
 26 01 2013  00 24  -21.0501 26011.3 -03381.6 -07.4073 26230.2
 26 01 2013  00 25  -21.0517 26008.0 -03380.1 -07.4050 26226.7
 26 01 2013  00 26  -21.0542 26004.8 -03378.7 -07.4027 26223.4
 26 01 2013  00 27  -21.0579 26002.3 -03377.8 -07.4014 26220.8
 26 01 2013  00 28  -21.0586 26000.9 -03377.2 -07.4006 26219.4
 26 01 2013  00 29  -21.0576 26000.5 -03377.1 -07.4005 26218.9
 26 01 2013  00 30  -21.0561 26000.6 -03377.5 -07.4014 26219.1
 26 01 2013  00 31  -21.0545 26001.1 -03378.2 -07.4026 26219.7
 26 01 2013  00 32  -21.0534 26001.6 -03378.9 -07.4040 26220.3
 26 01 2013  00 33  -21.0522 26001.8 -03379.4 -07.4051 26220.5
 26 01 2013  00 34  -21.0510 26002.0 -03379.9 -07.4061 26220.8
 26 01 2013  00 35  -21.0497 26002.3 -03380.3 -07.4070 26221.1
 26 01 2013  00 36  -21.0487 26002.6 -03380.9 -07.4080 26221.4
 26 01 2013  00 37  -21.0480 26002.5 -03381.2 -07.4087 26221.4
 26 01 2013  00 38  -21.0477 26002.1 -03381.3 -07.4091 26221.1
 26 01 2013  00 39  -21.0477 26001.9 -03381.5 -07.4096 26220.9
 26 01 2013  00 40  -21.0479 26001.8 -03381.8 -07.4102 26220.8
 26 01 2013  00 41  -21.0477 26001.7 -03381.9 -07.4106 26220.7
 26 01 2013  00 42  -21.0472 26001.5 -03382.1 -07.4109 26220.5
 26 01 2013  00 43  -21.0467 26001.3 -03382.2 -07.4113 26220.4
 26 01 2013  00 44  -21.0461 26001.2 -03382.4 -07.4117 26220.3
 26 01 2013  00 45  -21.0456 26001.3 -03382.6 -07.4122 26220.4
 26 01 2013  00 46  -21.0451 26001.7 -03383.0 -07.4130 26220.8
 26 01 2013  00 47  -21.0447 26002.1 -03383.5 -07.4138 26221.3
 26 01 2013  00 48  -21.0444 26002.5 -03383.9 -07.4146 26221.8
 26 01 2013  00 49  -21.0440 26002.9 -03384.3 -07.4153 26222.2
 26 01 2013  00 50  -21.0436 26003.3 -03384.6 -07.4160 26222.6
 26 01 2013  00 51  -21.0433 26003.9 -03385.1 -07.4167 26223.3
 26 01 2013  00 52  -21.0431 26004.6 -03385.5 -07.4176 26224.0
 26 01 2013  00 53  -21.0430 26005.1 -03386.0 -07.4185 26224.6
 26 01 2013  00 54  -21.0428 26005.9 -03386.5 -07.4193 26225.5
 26 01 2013  00 55  -21.0425 26006.8 -03387.0 -07.4202 26226.4
 26 01 2013  00 56  -21.0425 26007.6 -03387.5 -07.4210 26227.2
 26 01 2013  00 57  -21.0426 26008.3 -03387.9 -07.4217 26228.0
 26 01 2013  00 58  -21.0428 26009.1 -03388.3 -07.4224 26228.8
 26 01 2013  00 59  -21.0430 26009.8 -03388.7 -07.4230 26229.6
 26 01 2013  01 00  -21.0435 26010.3 -03389.0 -07.4235 26230.2
 26 01 2013  01 01  -21.0439 26010.9 -03389.3 -07.4239 26230.8
 26 01 2013  01 02  -21.0439 26011.3 -03389.4 -07.4241 26231.1
 26 01 2013  01 03  -21.0440 26011.4 -03389.5 -07.4242 26231.3
 26 01 2013  01 04  -21.0441 26011.6 -03389.5 -07.4242 26231.5
 26 01 2013  01 05  -21.0441 26011.9 -03389.5 -07.4242 26231.8
 26 01 2013  01 06  -21.0440 26012.3 -03389.7 -07.4244 26232.3
 26 01 2013  01 07  -21.0437 26013.0 -03390.0 -07.4248 26232.9
 26 01 2013  01 08  -21.0431 26013.9 -03390.3 -07.4254 26233.9
 26 01 2013  01 09  -21.0423 26015.0 -03390.9 -07.4262 26235.1
 26 01 2013  01 10  -21.0418 26016.3 -03391.5 -07.4272 26236.5
 26 01 2013  01 11  -21.0416 26017.7 -03392.1 -07.4282 26237.9
 26 01 2013  01 12  -21.0414 26019.0 -03392.7 -07.4291 26239.2
 26 01 2013  01 13  -21.0412 26020.2 -03393.3 -07.4299 26240.6
 26 01 2013  01 14  -21.0412 26021.0 -03393.6 -07.4304 26241.4
 26 01 2013  01 15  -21.0415 26021.5 -03393.7 -07.4305 26241.9
 26 01 2013  01 16  -21.0422 26021.5 -03393.6 -07.4302 26241.8
 26 01 2013  01 17  -21.0430 26021.2 -03393.2 -07.4296 26241.5
 26 01 2013  01 18  -21.0436 26020.9 -03393.0 -07.4291 26241.2
 26 01 2013  01 19  -21.0438 26020.6 -03392.7 -07.4285 26240.8
 26 01 2013  01 20  -21.0436 26020.7 -03392.5 -07.4281 26240.9
 26 01 2013  01 21  -21.0430 26021.4 -03392.7 -07.4284 26241.6
 26 01 2013  01 22  -21.0425 26022.6 -03393.2 -07.4292 26242.9
 26 01 2013  01 23  -21.0429 26023.5 -03393.7 -07.4300 26243.9
 26 01 2013  01 24  -21.0431 26024.2 -03394.0 -07.4304 26244.5
 26 01 2013  01 25  -21.0432 26024.5 -03394.1 -07.4305 26244.9
 26 01 2013  01 26  -21.0432 26024.7 -03394.0 -07.4303 26245.1
 26 01 2013  01 27  -21.0433 26024.9 -03394.0 -07.4302 26245.3
 26 01 2013  01 28  -21.0434 26024.9 -03393.9 -07.4299 26245.3
 26 01 2013  01 29  -21.0437 26024.9 -03393.8 -07.4297 26245.3
 26 01 2013  01 30  -21.0435 26024.9 -03393.6 -07.4294 26245.2
 26 01 2013  01 31  -21.0432 26025.0 -03393.5 -07.4292 26245.3
 26 01 2013  01 32  -21.0435 26025.0 -03393.5 -07.4292 26245.3
 26 01 2013  01 33  -21.0430 26025.2 -03393.5 -07.4290 26245.5
 26 01 2013  01 34  -21.0432 26025.5 -03393.6 -07.4292 26245.8
 26 01 2013  01 35  -21.0435 26025.5 -03393.6 -07.4292 26245.8
 26 01 2013  01 36  -21.0434 26025.7 -03393.6 -07.4292 26246.0
 26 01 2013  01 37  -21.0431 26026.0 -03393.7 -07.4293 26246.3
 26 01 2013  01 38  -21.0425 26025.9 -03393.6 -07.4292 26246.2
 26 01 2013  01 39  -21.0416 26025.8 -03393.5 -07.4289 26246.1
 26 01 2013  01 40  -21.0405 26026.0 -03393.6 -07.4290 26246.3
 26 01 2013  01 41  -21.0396 26026.5 -03393.8 -07.4294 26246.9
 26 01 2013  01 42  -21.0391 26026.7 -03394.0 -07.4297 26247.1
 26 01 2013  01 43  -21.0387 26026.3 -03393.9 -07.4295 26246.7
 26 01 2013  01 44  -21.0382 26026.1 -03393.7 -07.4293 26246.4
 26 01 2013  01 45  -21.0377 26025.9 -03393.6 -07.4291 26246.3
 26 01 2013  01 46  -21.0376 26026.1 -03393.8 -07.4293 26246.5
 26 01 2013  01 47  -21.0373 26026.4 -03394.0 -07.4297 26246.7
 26 01 2013  01 48  -21.0369 26026.3 -03394.0 -07.4298 26246.6
 26 01 2013  01 49  -21.0365 26025.9 -03393.8 -07.4296 26246.2
 26 01 2013  01 50  -21.0359 26025.5 -03393.7 -07.4294 26245.9
 26 01 2013  01 51  -21.0356 26025.0 -03393.4 -07.4289 26245.3
 26 01 2013  01 52  -21.0352 26024.5 -03393.3 -07.4288 26244.8
 26 01 2013  01 53  -21.0347 26024.0 -03393.1 -07.4286 26244.3
 26 01 2013  01 54  -21.0338 26023.5 -03392.9 -07.4283 26243.8
 26 01 2013  01 55  -21.0330 26023.3 -03392.9 -07.4283 26243.5
 26 01 2013  01 56  -21.0328 26023.4 -03393.1 -07.4288 26243.7
 26 01 2013  01 57  -21.0328 26023.2 -03393.3 -07.4291 26243.5
 26 01 2013  01 58  -21.0327 26022.9 -03393.2 -07.4291 26243.2
 26 01 2013  01 59  -21.0325 26022.5 -03393.2 -07.4290 26242.8
 26 01 2013  02 00  -21.0323 26022.6 -03393.3 -07.4293 26242.9
 26 01 2013  02 01  -21.0318 26023.2 -03393.7 -07.4300 26243.6
 26 01 2013  02 02  -21.0315 26024.0 -03394.2 -07.4310 26244.4
 26 01 2013  02 03  -21.0316 26024.7 -03394.8 -07.4319 26245.2
 26 01 2013  02 04  -21.0322 26025.0 -03395.1 -07.4325 26245.5
 26 01 2013  02 05  -21.0326 26025.1 -03395.2 -07.4327 26245.6
 26 01 2013  02 06  -21.0331 26025.2 -03395.2 -07.4328 26245.7
 26 01 2013  02 07  -21.0336 26025.4 -03395.4 -07.4330 26246.0
 26 01 2013  02 08  -21.0342 26025.8 -03395.6 -07.4333 26246.4
 26 01 2013  02 09  -21.0347 26026.1 -03395.7 -07.4336 26246.6
 26 01 2013  02 10  -21.0354 26026.3 -03395.8 -07.4338 26246.9
 26 01 2013  02 11  -21.0360 26026.4 -03395.9 -07.4338 26247.0
 26 01 2013  02 12  -21.0365 26026.5 -03395.9 -07.4338 26247.1
 26 01 2013  02 13  -21.0369 26026.4 -03395.7 -07.4335 26246.9
 26 01 2013  02 14  -21.0372 26026.3 -03395.6 -07.4334 26246.9
 26 01 2013  02 15  -21.0374 26026.2 -03395.6 -07.4332 26246.8
 26 01 2013  02 16  -21.0377 26026.2 -03395.5 -07.4331 26246.7
 26 01 2013  02 17  -21.0381 26026.3 -03395.5 -07.4331 26246.9
 26 01 2013  02 18  -21.0385 26026.6 -03395.6 -07.4333 26247.1
 26 01 2013  02 19  -21.0388 26026.8 -03395.7 -07.4334 26247.4
 26 01 2013  02 20  -21.0390 26027.0 -03395.8 -07.4335 26247.6
 26 01 2013  02 21  -21.0394 26027.1 -03395.8 -07.4335 26247.7
 26 01 2013  02 22  -21.0400 26027.0 -03395.8 -07.4334 26247.6
 26 01 2013  02 23  -21.0404 26027.0 -03395.7 -07.4333 26247.6
 26 01 2013  02 24  -21.0407 26027.1 -03395.7 -07.4332 26247.6
 26 01 2013  02 25  -21.0407 26027.3 -03395.7 -07.4332 26247.9
 26 01 2013  02 26  -21.0410 26027.7 -03395.9 -07.4335 26248.3
 26 01 2013  02 27  -21.0414 26028.0 -03396.0 -07.4337 26248.6
 26 01 2013  02 28  -21.0417 26028.4 -03396.1 -07.4339 26249.0
 26 01 2013  02 29  -21.0421 26028.6 -03396.2 -07.4339 26249.2
 26 01 2013  02 30  -21.0422 26028.9 -03396.3 -07.4339 26249.6
 26 01 2013  02 31  -21.0423 26029.3 -03396.4 -07.4341 26249.9
 26 01 2013  02 32  -21.0423 26030.0 -03396.6 -07.4344 26250.7
 26 01 2013  02 33  -21.0420 26030.7 -03396.9 -07.4348 26251.4
 26 01 2013  02 34  -21.0420 26031.3 -03397.1 -07.4350 26252.0
 26 01 2013  02 35  -21.0420 26031.4 -03397.1 -07.4351 26252.1
 26 01 2013  02 36  -21.0420 26031.3 -03396.9 -07.4348 26252.0
 26 01 2013  02 37  -21.0421 26031.1 -03396.7 -07.4343 26251.7
 26 01 2013  02 38  -21.0421 26030.7 -03396.4 -07.4338 26251.4
 26 01 2013  02 39  -21.0422 26030.5 -03396.3 -07.4335 26251.2
 26 01 2013  02 40  -21.0423 26030.5 -03396.2 -07.4333 26251.1
 26 01 2013  02 41  -21.0423 26030.5 -03396.1 -07.4332 26251.1
 26 01 2013  02 42  -21.0421 26030.5 -03396.1 -07.4332 26251.1
 26 01 2013  02 43  -21.0416 26030.6 -03396.1 -07.4331 26251.2
 26 01 2013  02 44  -21.0410 26030.7 -03396.1 -07.4331 26251.3
 26 01 2013  02 45  -21.0406 26030.9 -03396.2 -07.4332 26251.5
 26 01 2013  02 46  -21.0403 26031.1 -03396.3 -07.4334 26251.7
 26 01 2013  02 47  -21.0402 26031.4 -03396.4 -07.4337 26252.0
 26 01 2013  02 48  -21.0401 26031.6 -03396.6 -07.4339 26252.2
 26 01 2013  02 49  -21.0400 26031.7 -03396.6 -07.4339 26252.3
 26 01 2013  02 50  -21.0400 26031.8 -03396.7 -07.4341 26252.5
 26 01 2013  02 51  -21.0399 26032.0 -03396.7 -07.4341 26252.7
 26 01 2013  02 52  -21.0398 26032.2 -03396.8 -07.4342 26252.8
 26 01 2013  02 53  -21.0396 26032.5 -03396.9 -07.4343 26253.2
 26 01 2013  02 54  -21.0395 26032.8 -03397.0 -07.4345 26253.5
 26 01 2013  02 55  -21.0392 26033.2 -03397.2 -07.4347 26253.9
 26 01 2013  02 56  -21.0390 26033.6 -03397.3 -07.4350 26254.3
 26 01 2013  02 57  -21.0388 26033.9 -03397.4 -07.4351 26254.7
 26 01 2013  02 58  -21.0386 26034.2 -03397.5 -07.4352 26255.0
 26 01 2013  02 59  -21.0385 26034.5 -03397.7 -07.4354 26255.3
 26 01 2013  03 00  -21.0383 26034.8 -03397.7 -07.4355 26255.5
 26 01 2013  03 01  -21.0383 26035.0 -03397.8 -07.4356 26255.8
 26 01 2013  03 02  -21.0381 26035.3 -03397.9 -07.4357 26256.1
 26 01 2013  03 03  -21.0380 26035.6 -03398.0 -07.4358 26256.4
 26 01 2013  03 04  -21.0379 26035.8 -03398.0 -07.4358 26256.6
 26 01 2013  03 05  -21.0378 26035.9 -03398.0 -07.4358 26256.7
 26 01 2013  03 06  -21.0377 26036.1 -03398.1 -07.4358 26256.9
 26 01 2013  03 07  -21.0377 26036.2 -03398.1 -07.4358 26257.0
 26 01 2013  03 08  -21.0375 26036.4 -03398.1 -07.4359 26257.2
 26 01 2013  03 09  -21.0374 26036.6 -03398.1 -07.4359 26257.4
 26 01 2013  03 10  -21.0372 26036.5 -03398.1 -07.4357 26257.3
 26 01 2013  03 11  -21.0372 26036.4 -03398.0 -07.4355 26257.2
 26 01 2013  03 12  -21.0373 26036.2 -03397.8 -07.4352 26257.0
 26 01 2013  03 13  -21.0371 26035.9 -03397.6 -07.4349 26256.6
 26 01 2013  03 14  -21.0368 26035.6 -03397.4 -07.4346 26256.4
 26 01 2013  03 15  -21.0366 26035.5 -03397.3 -07.4344 26256.2
 26 01 2013  03 16  -21.0363 26035.5 -03397.3 -07.4344 26256.2
 26 01 2013  03 17  -21.0361 26035.6 -03397.4 -07.4345 26256.3
 26 01 2013  03 18  -21.0359 26035.9 -03397.5 -07.4347 26256.7
 26 01 2013  03 19  -21.0358 26036.2 -03397.7 -07.4351 26257.0
 26 01 2013  03 20  -21.0356 26036.5 -03397.9 -07.4353 26257.3
 26 01 2013  03 21  -21.0355 26036.7 -03398.0 -07.4355 26257.5
 26 01 2013  03 22  -21.0356 26036.8 -03398.1 -07.4356 26257.6
 26 01 2013  03 23  -21.0356 26036.8 -03398.0 -07.4355 26257.6
 26 01 2013  03 24  -21.0358 26036.8 -03398.0 -07.4354 26257.6
 26 01 2013  03 25  -21.0359 26036.8 -03397.9 -07.4353 26257.6
 26 01 2013  03 26  -21.0361 26036.7 -03397.9 -07.4352 26257.5
 26 01 2013  03 27  -21.0362 26036.7 -03397.8 -07.4351 26257.5
 26 01 2013  03 28  -21.0363 26036.8 -03397.8 -07.4350 26257.6
 26 01 2013  03 29  -21.0363 26036.9 -03397.8 -07.4351 26257.7
 26 01 2013  03 30  -21.0362 26037.1 -03397.9 -07.4352 26257.9
 26 01 2013  03 31  -21.0359 26037.3 -03397.9 -07.4352 26258.1
 26 01 2013  03 32  -21.0355 26037.4 -03397.9 -07.4352 26258.1
 26 01 2013  03 33  -21.0348 26037.5 -03397.9 -07.4352 26258.3
 26 01 2013  03 34  -21.0340 26037.6 -03398.0 -07.4352 26258.4
 26 01 2013  03 35  -21.0335 26037.7 -03398.0 -07.4353 26258.5
 26 01 2013  03 36  -21.0330 26037.6 -03398.0 -07.4353 26258.4
 26 01 2013  03 37  -21.0317 26037.0 -03397.7 -07.4348 26257.8
 26 01 2013  03 38  -21.0304 26035.9 -03397.2 -07.4339 26256.6
 26 01 2013  03 39  -21.0299 26034.9 -03396.7 -07.4332 26255.5
 26 01 2013  03 40  -21.0303 26034.4 -03396.5 -07.4329 26255.0
 26 01 2013  03 41  -21.0310 26034.4 -03396.7 -07.4333 26255.1
 26 01 2013  03 42  -21.0320 26035.3 -03397.2 -07.4341 26256.0
 26 01 2013  03 43  -21.0319 26035.8 -03397.6 -07.4348 26256.6
 26 01 2013  03 44  -21.0314 26036.1 -03397.7 -07.4351 26256.9
 26 01 2013  03 45  -21.0309 26036.6 -03397.9 -07.4354 26257.4
 26 01 2013  03 46  -21.0303 26037.3 -03398.3 -07.4360 26258.1
 26 01 2013  03 47  -21.0300 26037.5 -03398.4 -07.4362 26258.4
 26 01 2013  03 48  -21.0295 26037.2 -03398.3 -07.4360 26258.1
 26 01 2013  03 49  -21.0288 26036.9 -03398.1 -07.4356 26257.7
 26 01 2013  03 50  -21.0280 26036.6 -03397.9 -07.4353 26257.3
 26 01 2013  03 51  -21.0276 26036.0 -03397.7 -07.4350 26256.8
 26 01 2013  03 52  -21.0273 26035.5 -03397.4 -07.4346 26256.3
 26 01 2013  03 53  -21.0269 26035.2 -03397.3 -07.4344 26255.9
 26 01 2013  03 54  -21.0264 26034.9 -03397.2 -07.4343 26255.6
 26 01 2013  03 55  -21.0259 26034.9 -03397.2 -07.4344 26255.6
 26 01 2013  03 56  -21.0255 26035.1 -03397.4 -07.4347 26255.9
 26 01 2013  03 57  -21.0255 26035.3 -03397.6 -07.4351 26256.0
 26 01 2013  03 58  -21.0255 26035.4 -03397.7 -07.4353 26256.1
 26 01 2013  03 59  -21.0256 26035.3 -03397.8 -07.4354 26256.1
 26 01 2013  04 00  -21.0257 26035.1 -03397.7 -07.4353 26255.9
 26 01 2013  04 01  -21.0259 26034.7 -03397.5 -07.4350 26255.4
 26 01 2013  04 02  -21.0262 26034.5 -03397.4 -07.4349 26255.2
 26 01 2013  04 03  -21.0264 26034.7 -03397.5 -07.4351 26255.4
 26 01 2013  04 04  -21.0266 26034.9 -03397.7 -07.4354 26255.7
 26 01 2013  04 05  -21.0270 26035.0 -03397.8 -07.4356 26255.8
 26 01 2013  04 06  -21.0272 26035.1 -03397.9 -07.4357 26255.9
 26 01 2013  04 07  -21.0273 26035.4 -03398.0 -07.4359 26256.2
 26 01 2013  04 08  -21.0274 26035.8 -03398.2 -07.4362 26256.6
 26 01 2013  04 09  -21.0277 26036.5 -03398.6 -07.4368 26257.4
 26 01 2013  04 10  -21.0280 26037.3 -03399.0 -07.4375 26258.2
 26 01 2013  04 11  -21.0285 26037.5 -03399.1 -07.4377 26258.5
 26 01 2013  04 12  -21.0292 26038.0 -03399.3 -07.4379 26258.9
 26 01 2013  04 13  -21.0293 26038.5 -03399.4 -07.4381 26259.5
 26 01 2013  04 14  -21.0295 26039.0 -03399.6 -07.4383 26260.0
 26 01 2013  04 15  -21.0299 26039.2 -03399.7 -07.4384 26260.2
 26 01 2013  04 16  -21.0304 26039.3 -03399.6 -07.4382 26260.3
 26 01 2013  04 17  -21.0307 26039.2 -03399.5 -07.4380 26260.2
 26 01 2013  04 18  -21.0310 26039.0 -03399.3 -07.4377 26259.9
 26 01 2013  04 19  -21.0313 26038.3 -03398.9 -07.4370 26259.2
 26 01 2013  04 20  -21.0316 26037.6 -03398.4 -07.4360 26258.4
 26 01 2013  04 21  -21.0316 26037.1 -03398.0 -07.4353 26257.8
 26 01 2013  04 22  -21.0319 26037.0 -03397.9 -07.4352 26257.8
 26 01 2013  04 23  -21.0324 26037.1 -03397.9 -07.4353 26257.9
 26 01 2013  04 24  -21.0328 26037.2 -03398.0 -07.4354 26258.0
 26 01 2013  04 25  -21.0334 26037.5 -03398.1 -07.4356 26258.3
 26 01 2013  04 26  -21.0339 26037.9 -03398.3 -07.4358 26258.7
 26 01 2013  04 27  -21.0343 26038.4 -03398.5 -07.4361 26259.2
 26 01 2013  04 28  -21.0345 26038.7 -03398.7 -07.4364 26259.6
 26 01 2013  04 29  -21.0348 26039.1 -03398.8 -07.4365 26260.0
 26 01 2013  04 30  -21.0349 26039.4 -03398.8 -07.4366 26260.3
 26 01 2013  04 31  -21.0351 26039.7 -03398.9 -07.4367 26260.6
 26 01 2013  04 32  -21.0351 26039.8 -03398.9 -07.4367 26260.7
 26 01 2013  04 33  -21.0352 26039.5 -03398.7 -07.4362 26260.4
 26 01 2013  04 34  -21.0352 26039.2 -03398.4 -07.4357 26260.0
 26 01 2013  04 35  -21.0352 26039.0 -03398.2 -07.4354 26259.8
 26 01 2013  04 36  -21.0352 26038.9 -03398.1 -07.4352 26259.7
 26 01 2013  04 37  -21.0353 26038.7 -03398.0 -07.4350 26259.5
 26 01 2013  04 38  -21.0354 26038.8 -03398.0 -07.4350 26259.5
 26 01 2013  04 39  -21.0353 26038.8 -03398.0 -07.4350 26259.6
 26 01 2013  04 40  -21.0353 26038.8 -03398.0 -07.4350 26259.6
 26 01 2013  04 41  -21.0352 26038.8 -03398.0 -07.4349 26259.6
 26 01 2013  04 42  -21.0353 26038.8 -03398.0 -07.4349 26259.6
 26 01 2013  04 43  -21.0356 26038.7 -03397.9 -07.4348 26259.5
 26 01 2013  04 44  -21.0358 26038.4 -03397.8 -07.4346 26259.2
 26 01 2013  04 45  -21.0357 26038.5 -03397.8 -07.4345 26259.2
 26 01 2013  04 46  -21.0357 26038.3 -03397.7 -07.4345 26259.1
 26 01 2013  04 47  -21.0363 26037.8 -03397.5 -07.4342 26258.6
 26 01 2013  04 48  -21.0371 26037.2 -03397.2 -07.4337 26257.9
 26 01 2013  04 49  -21.0375 26036.9 -03397.0 -07.4333 26257.5
 26 01 2013  04 50  -21.0377 26036.8 -03396.9 -07.4332 26257.5
 26 01 2013  04 51  -21.0381 26036.7 -03396.9 -07.4332 26257.4
 26 01 2013  04 52  -21.0386 26037.0 -03397.1 -07.4334 26257.7
 26 01 2013  04 53  -21.0389 26037.7 -03397.4 -07.4340 26258.5
 26 01 2013  04 54  -21.0392 26039.1 -03398.1 -07.4351 26259.9
 26 01 2013  04 55  -21.0392 26039.9 -03398.6 -07.4358 26260.8
 26 01 2013  04 56  -21.0393 26040.2 -03398.7 -07.4360 26261.0
 26 01 2013  04 57  -21.0394 26040.3 -03398.6 -07.4359 26261.2
 26 01 2013  04 58  -21.0394 26040.6 -03398.7 -07.4359 26261.5
 26 01 2013  04 59  -21.0396 26041.1 -03398.8 -07.4361 26262.0
 26 01 2013  05 00  -21.0398 26041.5 -03398.9 -07.4362 26262.3
 26 01 2013  05 01  -21.0399 26041.5 -03398.9 -07.4361 26262.4
 26 01 2013  05 02  -21.0400 26041.5 -03398.8 -07.4358 26262.4
 26 01 2013  05 03  -21.0399 26041.3 -03398.6 -07.4354 26262.1
 26 01 2013  05 04  -21.0396 26041.1 -03398.4 -07.4351 26261.9
 26 01 2013  05 05  -21.0394 26040.9 -03398.2 -07.4348 26261.7
 26 01 2013  05 06  -21.0391 26040.7 -03398.0 -07.4345 26261.5
 26 01 2013  05 07  -21.0386 26040.3 -03397.8 -07.4340 26261.1
 26 01 2013  05 08  -21.0379 26040.0 -03397.6 -07.4337 26260.7
 26 01 2013  05 09  -21.0372 26039.6 -03397.4 -07.4333 26260.3
 26 01 2013  05 10  -21.0366 26039.6 -03397.3 -07.4333 26260.2
 26 01 2013  05 11  -21.0363 26039.6 -03397.4 -07.4334 26260.3
 26 01 2013  05 12  -21.0364 26039.7 -03397.5 -07.4337 26260.4
 26 01 2013  05 13  -21.0365 26039.7 -03397.6 -07.4339 26260.5
 26 01 2013  05 14  -21.0365 26039.7 -03397.7 -07.4339 26260.4
 26 01 2013  05 15  -21.0363 26039.7 -03397.7 -07.4340 26260.4
 26 01 2013  05 16  -21.0361 26039.9 -03397.8 -07.4341 26260.7
 26 01 2013  05 17  -21.0359 26040.4 -03398.0 -07.4345 26261.1
 26 01 2013  05 18  -21.0356 26040.4 -03398.1 -07.4346 26261.2
 26 01 2013  05 19  -21.0352 26039.8 -03397.8 -07.4342 26260.5
 26 01 2013  05 20  -21.0348 26038.7 -03397.2 -07.4332 26259.4
 26 01 2013  05 21  -21.0346 26037.9 -03396.7 -07.4324 26258.5
 26 01 2013  05 22  -21.0348 26037.6 -03396.6 -07.4322 26258.2
 26 01 2013  05 23  -21.0349 26037.6 -03396.7 -07.4324 26258.2
 26 01 2013  05 24  -21.0347 26037.3 -03396.6 -07.4323 26257.9
 26 01 2013  05 25  -21.0347 26037.2 -03396.6 -07.4323 26257.8
 26 01 2013  05 26  -21.0345 26037.1 -03396.6 -07.4324 26257.8
 26 01 2013  05 27  -21.0346 26037.2 -03396.7 -07.4326 26257.8
 26 01 2013  05 28  -21.0348 26037.1 -03396.7 -07.4327 26257.7
 26 01 2013  05 29  -21.0350 26036.9 -03396.7 -07.4326 26257.6
 26 01 2013  05 30  -21.0350 26036.8 -03396.6 -07.4325 26257.4
 26 01 2013  05 31  -21.0350 26036.7 -03396.6 -07.4325 26257.3
 26 01 2013  05 32  -21.0347 26036.7 -03396.6 -07.4326 26257.3
 26 01 2013  05 33  -21.0344 26036.5 -03396.6 -07.4326 26257.1
 26 01 2013  05 34  -21.0338 26036.4 -03396.6 -07.4325 26257.1
 26 01 2013  05 35  -21.0333 26036.6 -03396.7 -07.4327 26257.3
 26 01 2013  05 36  -21.0329 26036.7 -03396.8 -07.4330 26257.4
 26 01 2013  05 37  -21.0325 26037.0 -03397.0 -07.4333 26257.6
 26 01 2013  05 38  -21.0319 26037.4 -03397.3 -07.4337 26258.1
 26 01 2013  05 39  -21.0313 26037.8 -03397.6 -07.4343 26258.6
 26 01 2013  05 40  -21.0303 26038.1 -03397.8 -07.4347 26258.9
 26 01 2013  05 41  -21.0298 26038.2 -03398.0 -07.4350 26259.0
 26 01 2013  05 42  -21.0294 26038.3 -03398.1 -07.4353 26259.1
 26 01 2013  05 43  -21.0294 26038.6 -03398.3 -07.4357 26259.4
 26 01 2013  05 44  -21.0290 26038.4 -03398.3 -07.4358 26259.2
 26 01 2013  05 45  -21.0307 26038.6 -03398.5 -07.4361 26259.5
 26 01 2013  05 46  -21.0308 26039.0 -03398.7 -07.4365 26259.9
 26 01 2013  05 47  -21.0310 26039.2 -03398.8 -07.4366 26260.0
 26 01 2013  05 48  -21.0303 26038.6 -03398.5 -07.4361 26259.5
 26 01 2013  05 49  -21.0295 26037.9 -03398.1 -07.4353 26258.7
 26 01 2013  05 50  -21.0294 26038.0 -03398.1 -07.4354 26258.8
 26 01 2013  05 51  -21.0298 26038.2 -03398.4 -07.4359 26259.1
 26 01 2013  05 52  -21.0307 26038.4 -03398.5 -07.4362 26259.2
 26 01 2013  05 53  -21.0312 26038.3 -03398.5 -07.4361 26259.1
 26 01 2013  05 54  -21.0322 26038.0 -03398.3 -07.4358 26258.9
 26 01 2013  05 55  -21.0336 26038.1 -03398.3 -07.4358 26258.9
 26 01 2013  05 56  -21.0344 26037.8 -03398.1 -07.4355 26258.6
 26 01 2013  05 57  -21.0354 26037.1 -03397.7 -07.4348 26257.8
 26 01 2013  05 58  -21.0360 26036.4 -03397.3 -07.4340 26257.1
 26 01 2013  05 59  -21.0369 26036.2 -03397.1 -07.4336 26256.9
 26 01 2013  06 00  -21.0376 26036.3 -03397.1 -07.4336 26257.0
 26 01 2013  06 01  -21.0386 26036.6 -03397.2 -07.4338 26257.3
 26 01 2013  06 02  -21.0393 26036.7 -03397.2 -07.4338 26257.4
 26 01 2013  06 03  -21.0399 26036.9 -03397.3 -07.4339 26257.6
 26 01 2013  06 04  -21.0401 26036.9 -03397.3 -07.4339 26257.6
 26 01 2013  06 05  -21.0401 26036.8 -03397.1 -07.4336 26257.4
 26 01 2013  06 06  -21.0403 26037.1 -03397.2 -07.4337 26257.8
 26 01 2013  06 07  -21.0402 26037.5 -03397.4 -07.4340 26258.2
 26 01 2013  06 08  -21.0400 26037.8 -03397.6 -07.4343 26258.6
 26 01 2013  06 09  -21.0384 26036.8 -03397.0 -07.4334 26257.5
 26 01 2013  06 10  -21.0384 26035.9 -03396.4 -07.4324 26256.5
 26 01 2013  06 11  -21.0385 26035.5 -03396.3 -07.4321 26256.1
 26 01 2013  06 12  -21.0387 26035.3 -03396.2 -07.4319 26255.8
 26 01 2013  06 13  -21.0396 26035.1 -03396.1 -07.4319 26255.7
 26 01 2013  06 14  -21.0404 26035.2 -03396.2 -07.4321 26255.8
 26 01 2013  06 15  -21.0409 26035.4 -03396.3 -07.4322 26255.9
 26 01 2013  06 16  -21.0415 26035.4 -03396.3 -07.4322 26256.0
 26 01 2013  06 17  -21.0428 26035.7 -03396.4 -07.4324 26256.3
 26 01 2013  06 18  -21.0440 26035.8 -03396.5 -07.4325 26256.4
 26 01 2013  06 19  -21.0450 26036.0 -03396.5 -07.4325 26256.6
 26 01 2013  06 20  -21.0460 26035.9 -03396.4 -07.4322 26256.4
 26 01 2013  06 21  -21.0469 26035.9 -03396.2 -07.4319 26256.4
 26 01 2013  06 22  -21.0476 26036.0 -03396.2 -07.4317 26256.5
 26 01 2013  06 23  -21.0486 26036.1 -03396.1 -07.4316 26256.6
 26 01 2013  06 24  -21.0499 26036.3 -03396.1 -07.4316 26256.9
 26 01 2013  06 25  -21.0515 26036.6 -03396.2 -07.4317 26257.2
 26 01 2013  06 26  -21.0533 26037.5 -03396.6 -07.4322 26258.1
 26 01 2013  06 27  -21.0546 26037.7 -03396.6 -07.4322 26258.3
 26 01 2013  06 28  -21.0556 26037.5 -03396.3 -07.4317 26258.1
 26 01 2013  06 29  -21.0563 26037.3 -03396.0 -07.4310 26257.8
 26 01 2013  06 30  -21.0575 26037.3 -03395.8 -07.4306 26257.8
 26 01 2013  06 31  -21.0583 26037.7 -03395.9 -07.4306 26258.2
 26 01 2013  06 32  -21.0589 26038.1 -03395.9 -07.4306 26258.6
 26 01 2013  06 33  -21.0590 26039.0 -03396.2 -07.4310 26259.5
 26 01 2013  06 34  -21.0593 26039.3 -03396.3 -07.4310 26259.9
 26 01 2013  06 35  -21.0585 26040.1 -03396.5 -07.4313 26260.7
 26 01 2013  06 36  -21.0573 26040.0 -03396.2 -07.4308 26260.5
 26 01 2013  06 37  -21.0561 26039.1 -03395.7 -07.4298 26259.5
 26 01 2013  06 38  -21.0552 26038.9 -03395.3 -07.4292 26259.3
 26 01 2013  06 39  -21.0553 26039.1 -03395.4 -07.4293 26259.5
 26 01 2013  06 40  -21.0558 26039.6 -03395.7 -07.4298 26260.1
 26 01 2013  06 41  -21.0569 26040.5 -03396.2 -07.4305 26261.0
 26 01 2013  06 42  -21.0571 26041.4 -03396.6 -07.4312 26262.0
 26 01 2013  06 43  -21.0578 26041.8 -03396.8 -07.4315 26262.4
 26 01 2013  06 44  -21.0578 26042.3 -03396.9 -07.4316 26262.9
 26 01 2013  06 45  -21.0580 26042.0 -03396.7 -07.4312 26262.6
 26 01 2013  06 46  -21.0585 26042.4 -03396.8 -07.4312 26263.0
 26 01 2013  06 47  -21.0584 26042.9 -03396.9 -07.4314 26263.5
 26 01 2013  06 48  -21.0583 26042.8 -03396.8 -07.4311 26263.4
 26 01 2013  06 49  -21.0577 26042.6 -03396.5 -07.4307 26263.2
 26 01 2013  06 50  -21.0574 26042.4 -03396.3 -07.4302 26262.9
 26 01 2013  06 51  -21.0571 26042.6 -03396.3 -07.4302 26263.2
 26 01 2013  06 52  -21.0570 26042.9 -03396.4 -07.4303 26263.4
 26 01 2013  06 53  -21.0568 26042.9 -03396.4 -07.4303 26263.4
 26 01 2013  06 54  -21.0565 26042.7 -03396.2 -07.4300 26263.2
 26 01 2013  06 55  -21.0562 26042.5 -03396.1 -07.4297 26263.0
 26 01 2013  06 56  -21.0560 26042.2 -03395.9 -07.4294 26262.7
 26 01 2013  06 57  -21.0558 26042.0 -03395.7 -07.4291 26262.5
 26 01 2013  06 58  -21.0557 26042.0 -03395.7 -07.4290 26262.5
 26 01 2013  06 59  -21.0556 26042.1 -03395.8 -07.4291 26262.6
 26 01 2013  07 00  -21.0556 26042.3 -03395.8 -07.4292 26262.8
 26 01 2013  07 01  -21.0554 26042.7 -03396.0 -07.4295 26263.2
 26 01 2013  07 02  -21.0552 26043.3 -03396.3 -07.4300 26263.8
 26 01 2013  07 03  -21.0551 26043.6 -03396.5 -07.4303 26264.1
 26 01 2013  07 04  -21.0547 26044.1 -03396.6 -07.4305 26264.6
 26 01 2013  07 05  -21.0542 26044.1 -03396.6 -07.4305 26264.7
 26 01 2013  07 06  -21.0537 26044.6 -03396.8 -07.4307 26265.2
 26 01 2013  07 07  -21.0533 26045.0 -03396.9 -07.4309 26265.5
 26 01 2013  07 08  -21.0530 26045.3 -03397.1 -07.4311 26265.9
 26 01 2013  07 09  -21.0526 26045.5 -03397.1 -07.4312 26266.1
 26 01 2013  07 10  -21.0524 26045.8 -03397.2 -07.4313 26266.4
 26 01 2013  07 11  -21.0523 26046.1 -03397.4 -07.4315 26266.7
 26 01 2013  07 12  -21.0526 26045.9 -03397.2 -07.4313 26266.5
 26 01 2013  07 13  -21.0524 26045.9 -03397.2 -07.4311 26266.5
 26 01 2013  07 14  -21.0522 26045.7 -03397.0 -07.4309 26266.3
 26 01 2013  07 15  -21.0518 26045.9 -03397.1 -07.4309 26266.5
 26 01 2013  07 16  -21.0516 26045.7 -03396.9 -07.4307 26266.3
 26 01 2013  07 17  -21.0513 26045.0 -03396.5 -07.4300 26265.5
 26 01 2013  07 18  -21.0512 26044.6 -03396.2 -07.4294 26265.1
 26 01 2013  07 19  -21.0510 26044.3 -03396.1 -07.4292 26264.8
 26 01 2013  07 20  -21.0513 26043.6 -03395.7 -07.4287 26264.1
 26 01 2013  07 21  -21.0515 26043.3 -03395.6 -07.4284 26263.7
 26 01 2013  07 22  -21.0517 26043.2 -03395.5 -07.4283 26263.6
 26 01 2013  07 23  -21.0515 26044.0 -03395.9 -07.4289 26264.4
 26 01 2013  07 24  -21.0514 26045.2 -03396.5 -07.4299 26265.7
 26 01 2013  07 25  -21.0508 26046.3 -03397.1 -07.4309 26267.0
 26 01 2013  07 26  -21.0503 26046.4 -03397.3 -07.4312 26267.1
 26 01 2013  07 27  -21.0495 26046.3 -03397.0 -07.4307 26266.9
 26 01 2013  07 28  -21.0488 26046.5 -03397.0 -07.4307 26267.1
 26 01 2013  07 29  -21.0485 26046.6 -03397.1 -07.4308 26267.2
 26 01 2013  07 30  -21.0482 26046.6 -03397.1 -07.4308 26267.2
 26 01 2013  07 31  -21.0479 26046.6 -03397.0 -07.4306 26267.2
 26 01 2013  07 32  -21.0474 26046.8 -03397.1 -07.4307 26267.4
 26 01 2013  07 33  -21.0469 26046.9 -03397.1 -07.4307 26267.5
 26 01 2013  07 34  -21.0468 26047.0 -03397.2 -07.4308 26267.6
 26 01 2013  07 35  -21.0468 26046.9 -03397.1 -07.4308 26267.5
 26 01 2013  07 36  -21.0469 26047.0 -03397.1 -07.4307 26267.6
 26 01 2013  07 37  -21.0471 26047.4 -03397.3 -07.4311 26268.0
 26 01 2013  07 38  -21.0471 26047.9 -03397.6 -07.4314 26268.6
 26 01 2013  07 39  -21.0472 26048.7 -03397.9 -07.4319 26269.4
 26 01 2013  07 40  -21.0467 26049.4 -03398.2 -07.4324 26270.1
 26 01 2013  07 41  -21.0463 26049.7 -03398.3 -07.4326 26270.4
 26 01 2013  07 42  -21.0459 26048.8 -03397.9 -07.4318 26269.4
 26 01 2013  07 43  -21.0454 26047.8 -03397.2 -07.4307 26268.4
 26 01 2013  07 44  -21.0452 26047.1 -03396.7 -07.4298 26267.6
 26 01 2013  07 45  -21.0452 26047.0 -03396.5 -07.4294 26267.5
 26 01 2013  07 46  -21.0455 26047.4 -03396.7 -07.4298 26267.9
 26 01 2013  07 47  -21.0456 26048.3 -03397.3 -07.4306 26268.9
 26 01 2013  07 48  -21.0453 26049.2 -03397.8 -07.4316 26269.9
 26 01 2013  07 49  -21.0446 26050.0 -03398.2 -07.4322 26270.7
 26 01 2013  07 50  -21.0434 26050.6 -03398.4 -07.4325 26271.3
 26 01 2013  07 51  -21.0419 26050.9 -03398.4 -07.4325 26271.6
 26 01 2013  07 52  -21.0404 26050.7 -03398.3 -07.4322 26271.4
 26 01 2013  07 53  -21.0389 26049.9 -03397.8 -07.4314 26270.6
 26 01 2013  07 54  -21.0373 26049.1 -03397.3 -07.4305 26269.7
 26 01 2013  07 55  -21.0356 26048.3 -03396.8 -07.4297 26268.9
 26 01 2013  07 56  -21.0337 26047.9 -03396.6 -07.4292 26268.4
 26 01 2013  07 57  -21.0318 26047.5 -03396.4 -07.4291 26268.0
 26 01 2013  07 58  -21.0298 26047.2 -03396.4 -07.4292 26267.7
 26 01 2013  07 59  -21.0282 26046.9 -03396.5 -07.4294 26267.5
 26 01 2013  08 00  -21.0270 26046.5 -03396.5 -07.4295 26267.0
 26 01 2013  08 01  -21.0264 26046.2 -03396.6 -07.4298 26266.7
 26 01 2013  08 02  -21.0261 26045.9 -03396.7 -07.4301 26266.4
 26 01 2013  08 03  -21.0264 26045.9 -03396.9 -07.4306 26266.5
 26 01 2013  08 04  -21.0269 26046.2 -03397.3 -07.4314 26266.8
 26 01 2013  08 05  -21.0267 26046.4 -03397.7 -07.4321 26267.0
 26 01 2013  08 06  -21.0267 26046.3 -03397.8 -07.4323 26266.9
 26 01 2013  08 07  -21.0270 26045.7 -03397.5 -07.4319 26266.3
 26 01 2013  08 08  -21.0277 26045.6 -03397.6 -07.4320 26266.3
 26 01 2013  08 09  -21.0291 26045.9 -03397.8 -07.4326 26266.6
 26 01 2013  08 10  -21.0305 26046.7 -03398.4 -07.4335 26267.4
 26 01 2013  08 11  -21.0309 26047.0 -03398.7 -07.4342 26267.8
 26 01 2013  08 12  -21.0309 26047.0 -03398.8 -07.4342 26267.9
 26 01 2013  08 13  -21.0306 26047.2 -03398.8 -07.4343 26268.0
 26 01 2013  08 14  -21.0294 26046.6 -03398.4 -07.4337 26267.3
 26 01 2013  08 15  -21.0287 26045.7 -03397.9 -07.4328 26266.5
 26 01 2013  08 16  -21.0282 26044.8 -03397.4 -07.4319 26265.5
 26 01 2013  08 17  -21.0283 26043.6 -03396.7 -07.4308 26264.2
 26 01 2013  08 18  -21.0295 26043.2 -03396.4 -07.4303 26263.7
 26 01 2013  08 19  -21.0310 26043.9 -03396.9 -07.4311 26264.5
 26 01 2013  08 20  -21.0321 26044.5 -03397.3 -07.4318 26265.1
 26 01 2013  08 21  -21.0331 26044.6 -03397.5 -07.4322 26265.2
 26 01 2013  08 22  -21.0330 26044.3 -03397.3 -07.4318 26264.9
 26 01 2013  08 23  -21.0335 26043.7 -03396.9 -07.4311 26264.3
 26 01 2013  08 24  -21.0340 26043.5 -03396.7 -07.4309 26264.1
 26 01 2013  08 25  -21.0344 26043.5 -03396.8 -07.4311 26264.1
 26 01 2013  08 26  -21.0338 26044.1 -03397.2 -07.4317 26264.7
 26 01 2013  08 27  -21.0336 26044.7 -03397.5 -07.4323 26265.4
 26 01 2013  08 28  -21.0347 26044.8 -03397.7 -07.4326 26265.5
 26 01 2013  08 29  -21.0361 26044.8 -03397.8 -07.4328 26265.5
 26 01 2013  08 30  -21.0369 26044.7 -03397.7 -07.4327 26265.4
 26 01 2013  08 31  -21.0380 26044.6 -03397.6 -07.4324 26265.3
 26 01 2013  08 32  -21.0380 26044.4 -03397.4 -07.4319 26265.1
 26 01 2013  08 33  -21.0384 26044.4 -03397.2 -07.4316 26265.0
 26 01 2013  08 34  -21.0376 26044.4 -03397.1 -07.4313 26265.0
 26 01 2013  08 35  -21.0377 26043.8 -03396.7 -07.4307 26264.4
 26 01 2013  08 36  -21.0378 26043.7 -03396.7 -07.4307 26264.2
 26 01 2013  08 37  -21.0372 26043.2 -03396.5 -07.4305 26263.8
 26 01 2013  08 38  -21.0366 26042.8 -03396.3 -07.4302 26263.3
 26 01 2013  08 39  -21.0358 26042.1 -03396.0 -07.4296 26262.5
 26 01 2013  08 40  -21.0362 26042.2 -03396.2 -07.4300 26262.7
 26 01 2013  08 41  -21.0365 26042.0 -03396.2 -07.4302 26262.5
 26 01 2013  08 42  -21.0369 26042.1 -03396.4 -07.4304 26262.6
 26 01 2013  08 43  -21.0374 26042.3 -03396.5 -07.4308 26262.8
 26 01 2013  08 44  -21.0379 26042.4 -03396.6 -07.4310 26263.0
 26 01 2013  08 45  -21.0379 26042.6 -03396.7 -07.4311 26263.2
 26 01 2013  08 46  -21.0388 26042.4 -03396.6 -07.4310 26262.9
 26 01 2013  08 47  -21.0402 26041.8 -03396.4 -07.4306 26262.4
 26 01 2013  08 48  -21.0405 26041.7 -03396.2 -07.4303 26262.3
 26 01 2013  08 49  -21.0422 26041.5 -03396.1 -07.4300 26262.0
 26 01 2013  08 50  -21.0432 26041.0 -03395.8 -07.4295 26261.5
 26 01 2013  08 51  -21.0444 26041.3 -03395.8 -07.4294 26261.8
 26 01 2013  08 52  -21.0443 26041.3 -03395.6 -07.4291 26261.8
 26 01 2013  08 53  -21.0448 26040.8 -03395.3 -07.4286 26261.3
 26 01 2013  08 54  -21.0450 26040.6 -03395.1 -07.4282 26261.0
 26 01 2013  08 55  -21.0447 26040.4 -03394.9 -07.4277 26260.7
 26 01 2013  08 56  -21.0443 26040.2 -03394.8 -07.4276 26260.6
 26 01 2013  08 57  -21.0439 26040.3 -03394.8 -07.4276 26260.7
 26 01 2013  08 58  -21.0434 26040.1 -03394.8 -07.4276 26260.4
 26 01 2013  08 59  -21.0430 26040.1 -03394.8 -07.4277 26260.4
 26 01 2013  09 00  -21.0429 26040.4 -03395.0 -07.4280 26260.7
 26 01 2013  09 01  -21.0429 26040.5 -03395.2 -07.4285 26260.9
 26 01 2013  09 02  -21.0428 26040.6 -03395.4 -07.4287 26261.0
 26 01 2013  09 03  -21.0423 26041.1 -03395.7 -07.4293 26261.6
 26 01 2013  09 04  -21.0401 26040.9 -03395.6 -07.4292 26261.3
 26 01 2013  09 05  -21.0392 26041.1 -03395.7 -07.4294 26261.5
 26 01 2013  09 06  -21.0394 26041.2 -03396.0 -07.4299 26261.7
 26 01 2013  09 07  -21.0387 26041.2 -03396.1 -07.4302 26261.7
 26 01 2013  09 08  -21.0385 26041.0 -03396.1 -07.4303 26261.5
 26 01 2013  09 09  -21.0391 26041.1 -03396.3 -07.4307 26261.7
 26 01 2013  09 10  -21.0393 26040.7 -03396.2 -07.4306 26261.2
 26 01 2013  09 11  -21.0397 26040.5 -03396.2 -07.4305 26261.0
 26 01 2013  09 12  -21.0400 26040.5 -03396.2 -07.4306 26261.0
 26 01 2013  09 13  -21.0402 26040.9 -03396.4 -07.4309 26261.5
 26 01 2013  09 14  -21.0402 26041.0 -03396.5 -07.4311 26261.6
 26 01 2013  09 15  -21.0396 26041.3 -03396.6 -07.4311 26261.8
 26 01 2013  09 16  -21.0394 26041.5 -03396.7 -07.4314 26262.1
 26 01 2013  09 17  -21.0394 26041.7 -03396.9 -07.4316 26262.3
 26 01 2013  09 18  -21.0392 26041.9 -03397.0 -07.4319 26262.5
 26 01 2013  09 19  -21.0392 26042.2 -03397.2 -07.4322 26262.9
 26 01 2013  09 20  -21.0389 26042.4 -03397.3 -07.4324 26263.0
 26 01 2013  09 21  -21.0379 26042.3 -03397.3 -07.4324 26262.9
 26 01 2013  09 22  -21.0368 26042.2 -03397.3 -07.4325 26262.9
 26 01 2013  09 23  -21.0364 26042.1 -03397.3 -07.4325 26262.8
 26 01 2013  09 24  -21.0355 26042.1 -03397.4 -07.4326 26262.8
 26 01 2013  09 25  -21.0345 26042.5 -03397.7 -07.4332 26263.2
 26 01 2013  09 26  -21.0338 26042.5 -03397.8 -07.4335 26263.2
 26 01 2013  09 27  -21.0337 26042.6 -03397.9 -07.4337 26263.3
 26 01 2013  09 28  -21.0333 26042.6 -03398.0 -07.4338 26263.3
 26 01 2013  09 29  -21.0326 26042.4 -03398.0 -07.4339 26263.2
 26 01 2013  09 30  -21.0321 26042.3 -03398.0 -07.4340 26263.0
 26 01 2013  09 31  -21.0323 26042.3 -03398.1 -07.4342 26263.1
 26 01 2013  09 32  -21.0326 26042.9 -03398.5 -07.4348 26263.7
 26 01 2013  09 33  -21.0323 26043.2 -03398.6 -07.4350 26264.0
 26 01 2013  09 34  -21.0322 26043.4 -03398.7 -07.4351 26264.2
 26 01 2013  09 35  -21.0318 26043.5 -03398.7 -07.4350 26264.3
 26 01 2013  09 36  -21.0314 26043.8 -03398.8 -07.4352 26264.6
 26 01 2013  09 37  -21.0319 26044.0 -03398.9 -07.4354 26264.9
 26 01 2013  09 38  -21.0333 26044.4 -03399.0 -07.4356 26265.3
 26 01 2013  09 39  -21.0330 26044.8 -03399.1 -07.4356 26265.7
 26 01 2013  09 40  -21.0338 26045.4 -03399.3 -07.4358 26266.3
 26 01 2013  09 41  -21.0330 26045.9 -03399.5 -07.4362 26266.8
 26 01 2013  09 42  -21.0315 26046.0 -03399.7 -07.4367 26267.0
 26 01 2013  09 43  -21.0315 26046.8 -03400.3 -07.4377 26267.8
 26 01 2013  09 44  -21.0316 26046.8 -03400.6 -07.4383 26267.9
 26 01 2013  09 45  -21.0314 26046.7 -03400.6 -07.4384 26267.8
 26 01 2013  09 46  -21.0329 26046.8 -03400.6 -07.4383 26267.8
 26 01 2013  09 47  -21.0335 26046.7 -03400.5 -07.4381 26267.7
 26 01 2013  09 48  -21.0341 26046.8 -03400.4 -07.4379 26267.8
 26 01 2013  09 49  -21.0348 26048.0 -03400.8 -07.4385 26269.1
 26 01 2013  09 50  -21.0355 26048.8 -03401.1 -07.4387 26269.9
 26 01 2013  09 51  -21.0350 26049.6 -03401.1 -07.4386 26270.7
 26 01 2013  09 52  -21.0346 26050.4 -03401.2 -07.4385 26271.5
 26 01 2013  09 53  -21.0337 26050.9 -03401.1 -07.4383 26272.0
 26 01 2013  09 54  -21.0337 26051.2 -03401.2 -07.4383 26272.3
 26 01 2013  09 55  -21.0338 26051.3 -03401.1 -07.4380 26272.4
 26 01 2013  09 56  -21.0334 26051.5 -03401.0 -07.4378 26272.6
 26 01 2013  09 57  -21.0325 26051.5 -03400.9 -07.4375 26272.5
 26 01 2013  09 58  -21.0329 26051.7 -03400.9 -07.4377 26272.7
 26 01 2013  09 59  -21.0334 26051.8 -03401.0 -07.4377 26272.8
 26 01 2013  10 00  -21.0330 26051.6 -03400.9 -07.4376 26272.6
 26 01 2013  10 01  -21.0333 26051.8 -03401.0 -07.4378 26272.9
 26 01 2013  10 02  -21.0332 26052.0 -03401.1 -07.4380 26273.1
 26 01 2013  10 03  -21.0333 26052.4 -03401.3 -07.4383 26273.5
 26 01 2013  10 04  -21.0341 26052.9 -03401.6 -07.4387 26274.0
 26 01 2013  10 05  -21.0358 26053.2 -03401.7 -07.4390 26274.3
 26 01 2013  10 06  -21.0367 26052.9 -03401.6 -07.4387 26274.0
 26 01 2013  10 07  -21.0376 26052.8 -03401.4 -07.4384 26273.9
 26 01 2013  10 08  -21.0381 26052.5 -03401.3 -07.4381 26273.6
 26 01 2013  10 09  -21.0387 26052.1 -03401.0 -07.4378 26273.1
 26 01 2013  10 10  -21.0389 26051.5 -03400.7 -07.4372 26272.6
 26 01 2013  10 11  -21.0389 26051.1 -03400.4 -07.4366 26272.1
 26 01 2013  10 12  -21.0385 26050.7 -03400.1 -07.4362 26271.6
 26 01 2013  10 13  -21.0387 26050.3 -03400.0 -07.4359 26271.3
 26 01 2013  10 14  -21.0394 26050.5 -03400.1 -07.4361 26271.5
 26 01 2013  10 15  -21.0404 26050.7 -03400.2 -07.4363 26271.7
 26 01 2013  10 16  -21.0410 26050.9 -03400.3 -07.4365 26271.9
 26 01 2013  10 17  -21.0410 26050.8 -03400.2 -07.4362 26271.7
 26 01 2013  10 18  -21.0414 26050.6 -03400.0 -07.4358 26271.6
 26 01 2013  10 19  -21.0411 26050.6 -03399.8 -07.4355 26271.5
 26 01 2013  10 20  -21.0412 26050.5 -03399.7 -07.4352 26271.4
 26 01 2013  10 21  -21.0417 26050.7 -03399.6 -07.4351 26271.6
 26 01 2013  10 22  -21.0414 26050.5 -03399.4 -07.4346 26271.3
 26 01 2013  10 23  -21.0424 26050.8 -03399.4 -07.4346 26271.6
 26 01 2013  10 24  -21.0432 26050.7 -03399.3 -07.4344 26271.6
 26 01 2013  10 25  -21.0442 26050.8 -03399.2 -07.4342 26271.6
 26 01 2013  10 26  -21.0442 26050.5 -03398.9 -07.4337 26271.3
 26 01 2013  10 27  -21.0442 26050.1 -03398.6 -07.4330 26270.8
 26 01 2013  10 28  -21.0441 26049.9 -03398.4 -07.4326 26270.7
 26 01 2013  10 29  -21.0452 26050.3 -03398.5 -07.4327 26271.0
 26 01 2013  10 30  -21.0446 26049.9 -03398.1 -07.4321 26270.6
 26 01 2013  10 31  -21.0441 26049.2 -03397.7 -07.4313 26269.8
 26 01 2013  10 32  -21.0435 26048.7 -03397.4 -07.4309 26269.3
 26 01 2013  10 33  -21.0443 26048.8 -03397.4 -07.4309 26269.4
 26 01 2013  10 34  -21.0446 26049.3 -03397.6 -07.4311 26270.0
 26 01 2013  10 35  -21.0450 26049.6 -03397.7 -07.4311 26270.2
 26 01 2013  10 36  -21.0454 26049.5 -03397.6 -07.4310 26270.2
 26 01 2013  10 37  -21.0452 26049.2 -03397.3 -07.4306 26269.8
 26 01 2013  10 38  -21.0453 26048.5 -03397.0 -07.4300 26269.0
 26 01 2013  10 39  -21.0465 26048.3 -03396.9 -07.4298 26268.9
 26 01 2013  10 40  -21.0476 26048.4 -03396.9 -07.4298 26269.0
 26 01 2013  10 41  -21.0478 26048.8 -03396.9 -07.4297 26269.4
 26 01 2013  10 42  -21.0466 26048.4 -03396.7 -07.4293 26268.9
 26 01 2013  10 43  -21.0480 26047.8 -03396.4 -07.4289 26268.3
 26 01 2013  10 44  -21.0486 26048.0 -03396.5 -07.4290 26268.5
 26 01 2013  10 45  -21.0474 26047.6 -03396.1 -07.4284 26268.1
 26 01 2013  10 46  -21.0487 26047.9 -03396.1 -07.4282 26268.4
 26 01 2013  10 47  -21.0497 26048.8 -03396.3 -07.4284 26269.3
 26 01 2013  10 48  -21.0494 26048.7 -03396.1 -07.4280 26269.2
 26 01 2013  10 49  -21.0488 26048.6 -03395.9 -07.4277 26269.0
 26 01 2013  10 50  -21.0491 26049.2 -03396.2 -07.4281 26269.7
 26 01 2013  10 51  -21.0483 26050.1 -03396.6 -07.4288 26270.6
 26 01 2013  10 52  -21.0488 26051.0 -03397.0 -07.4294 26271.5
 26 01 2013  10 53  -21.0485 26051.2 -03396.9 -07.4291 26271.7
 26 01 2013  10 54  -21.0474 26051.8 -03396.8 -07.4286 26272.3
 26 01 2013  10 55  -21.0479 26052.2 -03396.5 -07.4280 26272.6
 26 01 2013  10 56  -21.0481 26053.3 -03396.7 -07.4280 26273.8
 26 01 2013  10 57  -21.0498 26053.8 -03396.7 -07.4280 26274.3
 26 01 2013  10 58  -21.0495 26054.7 -03396.9 -07.4282 26275.2
 26 01 2013  10 59  -21.0500 26054.6 -03396.6 -07.4275 26275.0
 26 01 2013  11 00  -21.0509 26055.5 -03396.7 -07.4274 26276.0
 26 01 2013  11 01  -21.0512 26055.9 -03396.5 -07.4269 26276.3
 26 01 2013  11 02  -21.0514 26055.8 -03396.2 -07.4262 26276.2
 26 01 2013  11 03  -21.0514 26055.1 -03395.7 -07.4253 26275.5
 26 01 2013  11 04  -21.0509 26054.7 -03395.3 -07.4247 26275.0
 26 01 2013  11 05  -21.0503 26054.5 -03395.1 -07.4242 26274.7
 26 01 2013  11 06  -21.0489 26054.0 -03394.7 -07.4236 26274.2
 26 01 2013  11 07  -21.0479 26053.7 -03394.5 -07.4231 26273.9
 26 01 2013  11 08  -21.0475 26053.6 -03394.3 -07.4228 26273.8
 26 01 2013  11 09  -21.0476 26053.9 -03394.4 -07.4228 26274.1
 26 01 2013  11 10  -21.0474 26053.8 -03394.1 -07.4223 26274.0
 26 01 2013  11 11  -21.0480 26054.2 -03394.1 -07.4222 26274.3
 26 01 2013  11 12  -21.0492 26054.2 -03394.1 -07.4221 26274.3
 26 01 2013  11 13  -21.0497 26054.0 -03393.8 -07.4216 26274.1
 26 01 2013  11 14  -21.0508 26054.5 -03394.0 -07.4218 26274.6
 26 01 2013  11 15  -21.0516 26054.7 -03394.3 -07.4223 26274.9
 26 01 2013  11 16  -21.0518 26055.6 -03394.5 -07.4227 26275.8
 26 01 2013  11 17  -21.0512 26056.5 -03394.7 -07.4228 26276.7
 26 01 2013  11 18  -21.0527 26057.3 -03394.8 -07.4228 26277.5
 26 01 2013  11 19  -21.0536 26057.6 -03394.5 -07.4222 26277.7
 26 01 2013  11 20  -21.0543 26058.2 -03394.6 -07.4221 26278.4
 26 01 2013  11 21  -21.0554 26058.3 -03394.6 -07.4220 26278.5
 26 01 2013  11 22  -21.0556 26058.7 -03394.6 -07.4219 26278.9
 26 01 2013  11 23  -21.0543 26058.6 -03394.3 -07.4214 26278.8
 26 01 2013  11 24  -21.0535 26058.1 -03393.8 -07.4205 26278.1
 26 01 2013  11 25  -21.0532 26058.3 -03393.7 -07.4201 26278.4
 26 01 2013  11 26  -21.0538 26058.7 -03393.6 -07.4198 26278.7
 26 01 2013  11 27  -21.0545 26058.3 -03393.2 -07.4191 26278.3
 26 01 2013  11 28  -21.0552 26057.4 -03392.8 -07.4183 26277.4
 26 01 2013  11 29  -21.0553 26056.1 -03392.1 -07.4174 26276.0
 26 01 2013  11 30  -21.0559 26055.6 -03392.0 -07.4172 26275.5
 26 01 2013  11 31  -21.0552 26055.1 -03392.0 -07.4173 26275.0
 26 01 2013  11 32  -21.0555 26055.0 -03391.9 -07.4173 26274.9
 26 01 2013  11 33  -21.0561 26055.5 -03392.3 -07.4178 26275.4
 26 01 2013  11 34  -21.0565 26055.7 -03392.4 -07.4180 26275.6
 26 01 2013  11 35  -21.0568 26056.2 -03392.6 -07.4183 26276.2
 26 01 2013  11 36  -21.0568 26056.4 -03392.5 -07.4182 26276.3
 26 01 2013  11 37  -21.0573 26056.8 -03392.6 -07.4182 26276.7
 26 01 2013  11 38  -21.0574 26057.5 -03392.7 -07.4183 26277.5
 26 01 2013  11 39  -21.0570 26057.6 -03392.5 -07.4177 26277.5
 26 01 2013  11 40  -21.0563 26057.5 -03392.1 -07.4170 26277.3
 26 01 2013  11 41  -21.0556 26057.1 -03391.7 -07.4162 26276.9
 26 01 2013  11 42  -21.0555 26056.5 -03391.3 -07.4154 26276.3
 26 01 2013  11 43  -21.0550 26055.9 -03390.9 -07.4148 26275.6
 26 01 2013  11 44  -21.0546 26055.3 -03390.7 -07.4145 26275.0
 26 01 2013  11 45  -21.0546 26055.0 -03390.7 -07.4145 26274.7
 26 01 2013  11 46  -21.0546 26055.0 -03390.7 -07.4145 26274.7
 26 01 2013  11 47  -21.0542 26055.1 -03390.7 -07.4145 26274.8
 26 01 2013  11 48  -21.0541 26055.2 -03390.6 -07.4143 26274.8
 26 01 2013  11 49  -21.0541 26055.5 -03390.7 -07.4144 26275.2
 26 01 2013  11 50  -21.0536 26055.8 -03390.6 -07.4142 26275.5
 26 01 2013  11 51  -21.0534 26056.1 -03390.6 -07.4141 26275.8
 26 01 2013  11 52  -21.0527 26056.4 -03390.6 -07.4140 26276.0
 26 01 2013  11 53  -21.0528 26057.5 -03390.9 -07.4144 26277.3
 26 01 2013  11 54  -21.0536 26058.5 -03391.1 -07.4145 26278.2
 26 01 2013  11 55  -21.0533 26058.9 -03390.9 -07.4139 26278.6
 26 01 2013  11 56  -21.0533 26059.6 -03390.8 -07.4134 26279.2
 26 01 2013  11 57  -21.0526 26059.9 -03390.6 -07.4130 26279.5
 26 01 2013  11 58  -21.0516 26060.0 -03390.4 -07.4126 26279.7
 26 01 2013  11 59  -21.0506 26060.1 -03390.3 -07.4123 26279.7
 26 01 2013  12 00  -21.0498 26060.2 -03390.2 -07.4120 26279.8
 26 01 2013  12 01  -21.0489 26060.1 -03390.0 -07.4117 26279.7
 26 01 2013  12 02  -21.0480 26060.3 -03390.0 -07.4116 26279.9
 26 01 2013  12 03  -21.0471 26060.5 -03390.0 -07.4116 26280.1
 26 01 2013  12 04  -21.0463 26060.6 -03390.1 -07.4117 26280.2
 26 01 2013  12 05  -21.0465 26061.5 -03390.4 -07.4122 26281.1
 26 01 2013  12 06  -21.0464 26063.2 -03391.0 -07.4130 26282.9
 26 01 2013  12 07  -21.0471 26064.9 -03391.5 -07.4135 26284.6
 26 01 2013  12 08  -21.0473 26066.6 -03391.8 -07.4137 26286.3
 26 01 2013  12 09  -21.0472 26067.7 -03391.8 -07.4134 26287.4
 26 01 2013  12 10  -21.0474 26068.3 -03391.7 -07.4130 26288.0
 26 01 2013  12 11  -21.0475 26068.4 -03391.4 -07.4124 26288.1
 26 01 2013  12 12  -21.0471 26068.2 -03391.1 -07.4116 26287.9
 26 01 2013  12 13  -21.0469 26068.2 -03390.9 -07.4113 26287.8
 26 01 2013  12 14  -21.0463 26067.8 -03390.6 -07.4108 26287.4
 26 01 2013  12 15  -21.0454 26067.4 -03390.4 -07.4104 26287.0
 26 01 2013  12 16  -21.0445 26067.4 -03390.3 -07.4101 26286.9
 26 01 2013  12 17  -21.0442 26067.4 -03390.2 -07.4100 26286.9
 26 01 2013  12 18  -21.0448 26067.5 -03390.2 -07.4099 26287.0
 26 01 2013  12 19  -21.0454 26067.9 -03390.3 -07.4100 26287.4
 26 01 2013  12 20  -21.0447 26068.0 -03390.2 -07.4099 26287.5
 26 01 2013  12 21  -21.0437 26068.0 -03390.1 -07.4095 26287.5
 26 01 2013  12 22  -21.0433 26067.4 -03389.7 -07.4089 26286.9
 26 01 2013  12 23  -21.0429 26067.3 -03389.7 -07.4089 26286.8
 26 01 2013  12 24  -21.0416 26067.1 -03389.7 -07.4089 26286.6
 26 01 2013  12 25  -21.0405 26067.2 -03389.8 -07.4091 26286.7
 26 01 2013  12 26  -21.0399 26067.1 -03389.8 -07.4091 26286.6
 26 01 2013  12 27  -21.0389 26067.3 -03389.8 -07.4092 26286.7
 26 01 2013  12 28  -21.0391 26067.0 -03389.7 -07.4091 26286.4
 26 01 2013  12 29  -21.0391 26066.6 -03389.6 -07.4089 26286.1
 26 01 2013  12 30  -21.0391 26066.5 -03389.5 -07.4088 26285.9
 26 01 2013  12 31  -21.0389 26066.2 -03389.5 -07.4087 26285.7
 26 01 2013  12 32  -21.0389 26066.0 -03389.5 -07.4089 26285.5
 26 01 2013  12 33  -21.0385 26065.7 -03389.5 -07.4090 26285.1
 26 01 2013  12 34  -21.0377 26066.1 -03389.8 -07.4094 26285.6
 26 01 2013  12 35  -21.0372 26066.7 -03390.1 -07.4099 26286.2
 26 01 2013  12 36  -21.0368 26066.7 -03390.0 -07.4098 26286.2
 26 01 2013  12 37  -21.0361 26066.1 -03389.8 -07.4095 26285.6
 26 01 2013  12 38  -21.0352 26065.4 -03389.6 -07.4093 26284.8
 26 01 2013  12 39  -21.0344 26065.4 -03389.8 -07.4097 26284.9
 26 01 2013  12 40  -21.0328 26065.5 -03390.0 -07.4101 26285.1
 26 01 2013  12 41  -21.0317 26065.9 -03390.3 -07.4106 26285.5
 26 01 2013  12 42  -21.0307 26066.1 -03390.5 -07.4109 26285.7
 26 01 2013  12 43  -21.0301 26066.6 -03390.7 -07.4113 26286.2
 26 01 2013  12 44  -21.0299 26066.6 -03390.8 -07.4114 26286.2
 26 01 2013  12 45  -21.0300 26066.7 -03390.8 -07.4115 26286.3
 26 01 2013  12 46  -21.0301 26066.4 -03390.7 -07.4113 26286.0
 26 01 2013  12 47  -21.0293 26065.7 -03390.5 -07.4112 26285.3
 26 01 2013  12 48  -21.0281 26065.0 -03390.4 -07.4110 26284.5
 26 01 2013  12 49  -21.0275 26064.6 -03390.5 -07.4114 26284.2
 26 01 2013  12 50  -21.0264 26063.9 -03390.5 -07.4116 26283.5
 26 01 2013  12 51  -21.0255 26064.0 -03390.7 -07.4120 26283.6
 26 01 2013  12 52  -21.0247 26065.6 -03391.5 -07.4132 26285.3
 26 01 2013  12 53  -21.0240 26066.3 -03391.8 -07.4139 26286.0
 26 01 2013  12 54  -21.0239 26066.7 -03392.1 -07.4142 26286.5
 26 01 2013  12 55  -21.0239 26067.6 -03392.3 -07.4146 26287.4
 26 01 2013  12 56  -21.0241 26068.4 -03392.6 -07.4149 26288.3
 26 01 2013  12 57  -21.0252 26069.7 -03392.9 -07.4152 26289.5
 26 01 2013  12 58  -21.0256 26070.7 -03393.1 -07.4153 26290.6
 26 01 2013  12 59  -21.0254 26071.2 -03393.1 -07.4151 26291.1
 26 01 2013  13 00  -21.0245 26071.3 -03392.9 -07.4148 26291.1
 26 01 2013  13 01  -21.0229 26072.0 -03393.1 -07.4149 26291.8
 26 01 2013  13 02  -21.0219 26072.7 -03393.3 -07.4152 26292.6
 26 01 2013  13 03  -21.0205 26073.1 -03393.4 -07.4152 26293.0
 26 01 2013  13 04  -21.0201 26073.2 -03393.3 -07.4151 26293.0
 26 01 2013  13 05  -21.0202 26073.3 -03393.3 -07.4150 26293.1
 26 01 2013  13 06  -21.0200 26073.5 -03393.4 -07.4151 26293.4
 26 01 2013  13 07  -21.0186 26074.3 -03393.5 -07.4153 26294.2
 26 01 2013  13 08  -21.0167 26074.3 -03393.4 -07.4151 26294.2
 26 01 2013  13 09  -21.0151 26073.5 -03393.2 -07.4148 26293.3
 26 01 2013  13 10  -21.0135 26072.3 -03393.1 -07.4148 26292.2
 26 01 2013  13 11  -21.0122 26070.8 -03392.9 -07.4148 26290.7
 26 01 2013  13 12  -21.0115 26069.8 -03393.1 -07.4156 26289.7
 26 01 2013  13 13  -21.0117 26069.7 -03393.7 -07.4169 26289.7
 26 01 2013  13 14  -21.0118 26070.3 -03394.5 -07.4184 26290.3
 26 01 2013  13 15  -21.0126 26070.7 -03395.0 -07.4195 26290.8
 26 01 2013  13 16  -21.0129 26070.7 -03395.2 -07.4199 26290.9
 26 01 2013  13 17  -21.0133 26071.0 -03395.3 -07.4201 26291.2
 26 01 2013  13 18  -21.0147 26071.3 -03395.4 -07.4201 26291.5
 26 01 2013  13 19  -21.0153 26070.5 -03395.0 -07.4195 26290.7
 26 01 2013  13 20  -21.0160 26069.5 -03394.9 -07.4196 26289.6
 26 01 2013  13 21  -21.0157 26067.6 -03394.6 -07.4195 26287.7
 26 01 2013  13 22  -21.0149 26067.9 -03395.3 -07.4208 26288.0
 26 01 2013  13 23  -21.0144 26068.3 -03395.7 -07.4216 26288.6
 26 01 2013  13 24  -21.0153 26070.2 -03396.6 -07.4231 26290.6
 26 01 2013  13 25  -21.0164 26072.2 -03397.3 -07.4239 26292.6
 26 01 2013  13 26  -21.0172 26073.6 -03397.3 -07.4237 26294.0
 26 01 2013  13 27  -21.0178 26074.0 -03397.0 -07.4228 26294.4
 26 01 2013  13 28  -21.0169 26073.6 -03396.2 -07.4212 26293.9
 26 01 2013  13 29  -21.0166 26073.2 -03395.6 -07.4201 26293.4
 26 01 2013  13 30  -21.0172 26074.4 -03396.0 -07.4207 26294.6
 26 01 2013  13 31  -21.0160 26072.9 -03395.0 -07.4188 26293.0
 26 01 2013  13 32  -21.0161 26070.8 -03394.1 -07.4174 26290.8
 26 01 2013  13 33  -21.0180 26070.7 -03394.2 -07.4177 26290.7
 26 01 2013  13 34  -21.0196 26070.3 -03394.2 -07.4178 26290.3
 26 01 2013  13 35  -21.0207 26070.7 -03394.5 -07.4184 26290.8
 26 01 2013  13 36  -21.0209 26071.6 -03394.9 -07.4191 26291.7
 26 01 2013  13 37  -21.0205 26072.9 -03395.4 -07.4197 26293.1
 26 01 2013  13 38  -21.0189 26073.0 -03395.3 -07.4194 26293.1
 26 01 2013  13 39  -21.0176 26071.7 -03394.8 -07.4187 26291.8
 26 01 2013  13 40  -21.0166 26070.4 -03394.5 -07.4185 26290.5
 26 01 2013  13 41  -21.0163 26068.4 -03394.1 -07.4182 26288.5
 26 01 2013  13 42  -21.0170 26068.0 -03394.5 -07.4192 26288.1
 26 01 2013  13 43  -21.0181 26068.4 -03395.2 -07.4205 26288.6
 26 01 2013  13 44  -21.0203 26069.2 -03395.8 -07.4216 26289.5
 26 01 2013  13 45  -21.0211 26070.0 -03396.2 -07.4223 26290.3
 26 01 2013  13 46  -21.0216 26070.9 -03396.7 -07.4230 26291.3
 26 01 2013  13 47  -21.0213 26070.5 -03396.5 -07.4228 26290.9
 26 01 2013  13 48  -21.0209 26070.1 -03396.5 -07.4229 26290.5
 26 01 2013  13 49  -21.0197 26069.9 -03396.6 -07.4232 26290.2
 26 01 2013  13 50  -21.0190 26069.7 -03397.0 -07.4240 26290.0
 26 01 2013  13 51  -21.0189 26069.2 -03397.2 -07.4247 26289.6
 26 01 2013  13 52  -21.0197 26069.3 -03397.7 -07.4257 26289.8
 26 01 2013  13 53  -21.0200 26070.0 -03398.3 -07.4268 26290.6
 26 01 2013  13 54  -21.0195 26070.0 -03398.4 -07.4271 26290.5
 26 01 2013  13 55  -21.0189 26069.0 -03398.3 -07.4271 26289.5
 26 01 2013  13 56  -21.0175 26067.7 -03398.0 -07.4268 26288.2
 26 01 2013  13 57  -21.0153 26066.9 -03397.9 -07.4267 26287.5
 26 01 2013  13 58  -21.0155 26066.7 -03398.6 -07.4284 26287.4
 26 01 2013  13 59  -21.0158 26066.9 -03399.5 -07.4302 26287.6
 26 01 2013  14 00  -21.0161 26068.0 -03400.5 -07.4320 26288.9
 26 01 2013  14 01  -21.0166 26069.6 -03401.4 -07.4335 26290.5
 26 01 2013  14 02  -21.0169 26070.9 -03401.9 -07.4343 26291.9
 26 01 2013  14 03  -21.0162 26070.3 -03401.4 -07.4334 26291.3
 26 01 2013  14 04  -21.0160 26070.1 -03401.0 -07.4325 26291.0
 26 01 2013  14 05  -21.0164 26072.2 -03401.5 -07.4332 26293.1
 26 01 2013  14 06  -21.0195 26074.3 -03402.0 -07.4335 26295.3
 26 01 2013  14 07  -21.0219 26077.0 -03402.5 -07.4338 26298.1
 26 01 2013  14 08  -21.0238 26079.3 -03402.5 -07.4332 26300.3
 26 01 2013  14 09  -21.0251 26080.7 -03402.0 -07.4318 26301.6
 26 01 2013  14 10  -21.0258 26081.9 -03401.4 -07.4301 26302.7
 26 01 2013  14 11  -21.0268 26082.7 -03400.7 -07.4283 26303.5
 26 01 2013  14 12  -21.0271 26083.2 -03399.8 -07.4264 26303.8
 26 01 2013  14 13  -21.0279 26083.4 -03399.0 -07.4245 26304.0
 26 01 2013  14 14  -21.0285 26084.1 -03398.4 -07.4231 26304.5
 26 01 2013  14 15  -21.0271 26082.5 -03396.9 -07.4202 26302.8
 26 01 2013  14 16  -21.0280 26082.9 -03396.4 -07.4190 26303.1
 26 01 2013  14 17  -21.0294 26083.3 -03396.0 -07.4181 26303.5
 26 01 2013  14 18  -21.0286 26083.3 -03395.3 -07.4166 26303.4
 26 01 2013  14 19  -21.0291 26083.8 -03395.1 -07.4159 26303.9
 26 01 2013  14 20  -21.0296 26084.2 -03394.6 -07.4148 26304.2
 26 01 2013  14 21  -21.0320 26083.0 -03393.5 -07.4128 26302.8
 26 01 2013  14 22  -21.0292 26077.5 -03390.6 -07.4080 26297.0
 26 01 2013  14 23  -21.0284 26078.5 -03391.4 -07.4094 26298.1
 26 01 2013  14 24  -21.0290 26078.6 -03391.8 -07.4104 26298.2
 26 01 2013  14 25  -21.0291 26078.9 -03391.9 -07.4104 26298.6
 26 01 2013  14 26  -21.0307 26079.9 -03392.2 -07.4109 26299.6
 26 01 2013  14 27  -21.0302 26078.7 -03391.5 -07.4095 26298.3
 26 01 2013  14 28  -21.0308 26079.1 -03391.5 -07.4095 26298.7
 26 01 2013  14 29  -21.0325 26078.7 -03391.2 -07.4089 26298.3
 26 01 2013  14 30  -21.0334 26077.8 -03390.5 -07.4077 26297.3
 26 01 2013  14 31  -21.0335 26075.4 -03389.3 -07.4058 26294.7
 26 01 2013  14 32  -21.0331 26074.0 -03388.9 -07.4053 26293.3
 26 01 2013  14 33  -21.0323 26071.1 -03387.8 -07.4038 26290.3
 26 01 2013  14 34  -21.0308 26068.6 -03387.3 -07.4034 26287.7
 26 01 2013  14 35  -21.0302 26068.2 -03387.9 -07.4048 26287.4
 26 01 2013  14 36  -21.0303 26066.9 -03387.8 -07.4050 26286.2
 26 01 2013  14 37  -21.0313 26066.4 -03388.1 -07.4057 26285.7
 26 01 2013  14 38  -21.0320 26066.4 -03388.6 -07.4069 26285.7
 26 01 2013  14 39  -21.0316 26065.6 -03388.7 -07.4074 26285.0
 26 01 2013  14 40  -21.0307 26064.7 -03388.7 -07.4074 26284.0
 26 01 2013  14 41  -21.0300 26063.7 -03388.6 -07.4077 26283.1
 26 01 2013  14 42  -21.0300 26063.2 -03389.1 -07.4088 26282.7
 26 01 2013  14 43  -21.0319 26063.6 -03389.8 -07.4102 26283.1
 26 01 2013  14 44  -21.0335 26063.6 -03390.1 -07.4108 26283.2
 26 01 2013  14 45  -21.0349 26063.3 -03390.0 -07.4107 26282.8
 26 01 2013  14 46  -21.0366 26063.2 -03390.1 -07.4111 26282.8
 26 01 2013  14 47  -21.0369 26062.6 -03389.9 -07.4107 26282.1
 26 01 2013  14 48  -21.0374 26061.9 -03389.8 -07.4106 26281.4
 26 01 2013  14 49  -21.0380 26061.0 -03389.6 -07.4105 26280.5
 26 01 2013  14 50  -21.0380 26059.5 -03389.1 -07.4099 26279.0
 26 01 2013  14 51  -21.0378 26058.3 -03388.9 -07.4097 26277.8
 26 01 2013  14 52  -21.0384 26057.7 -03389.0 -07.4102 26277.2
 26 01 2013  14 53  -21.0389 26056.4 -03388.8 -07.4101 26275.9
 26 01 2013  14 54  -21.0384 26054.7 -03388.5 -07.4100 26274.2
 26 01 2013  14 55  -21.0386 26054.0 -03388.8 -07.4108 26273.4
 26 01 2013  14 56  -21.0392 26053.5 -03389.2 -07.4116 26273.1
 26 01 2013  14 57  -21.0418 26054.6 -03390.1 -07.4135 26274.2
 26 01 2013  14 58  -21.0435 26054.5 -03390.2 -07.4136 26274.2
 26 01 2013  14 59  -21.0438 26054.7 -03390.2 -07.4136 26274.3
 26 01 2013  15 00  -21.0431 26054.0 -03389.8 -07.4129 26273.6
 26 01 2013  15 01  -21.0434 26054.3 -03390.0 -07.4132 26273.9
 26 01 2013  15 02  -21.0439 26054.5 -03390.1 -07.4134 26274.1
 26 01 2013  15 03  -21.0433 26053.7 -03389.6 -07.4127 26273.3
 26 01 2013  15 04  -21.0422 26052.7 -03389.2 -07.4119 26272.2
 26 01 2013  15 05  -21.0421 26051.4 -03388.8 -07.4115 26270.9
 26 01 2013  15 06  -21.0406 26049.5 -03388.3 -07.4109 26268.9
 26 01 2013  15 07  -21.0387 26047.8 -03388.1 -07.4109 26267.2
 26 01 2013  15 08  -21.0380 26047.4 -03388.6 -07.4122 26266.9
 26 01 2013  15 09  -21.0381 26047.4 -03389.4 -07.4138 26267.0
 26 01 2013  15 10  -21.0382 26047.3 -03389.9 -07.4151 26267.0
 26 01 2013  15 11  -21.0382 26047.8 -03390.6 -07.4163 26267.5
 26 01 2013  15 12  -21.0382 26048.1 -03391.0 -07.4172 26267.9
 26 01 2013  15 13  -21.0390 26048.1 -03391.2 -07.4177 26268.0
 26 01 2013  15 14  -21.0379 26047.3 -03391.1 -07.4175 26267.1
 26 01 2013  15 15  -21.0360 26046.0 -03390.6 -07.4169 26265.7
 26 01 2013  15 16  -21.0358 26045.5 -03390.8 -07.4175 26265.3
 26 01 2013  15 17  -21.0361 26045.7 -03391.2 -07.4183 26265.5
 26 01 2013  15 18  -21.0363 26046.6 -03391.8 -07.4193 26266.5
 26 01 2013  15 19  -21.0369 26047.8 -03392.5 -07.4205 26267.8
 26 01 2013  15 20  -21.0376 26049.4 -03393.0 -07.4211 26269.5
 26 01 2013  15 21  -21.0389 26050.1 -03392.9 -07.4207 26270.2
 26 01 2013  15 22  -21.0390 26051.0 -03392.9 -07.4204 26271.0
 26 01 2013  15 23  -21.0400 26051.6 -03392.8 -07.4201 26271.6
 26 01 2013  15 24  -21.0392 26052.0 -03392.3 -07.4188 26271.9
 26 01 2013  15 25  -21.0394 26052.5 -03392.0 -07.4181 26272.4
 26 01 2013  15 26  -21.0394 26052.7 -03391.5 -07.4169 26272.5
 26 01 2013  15 27  -21.0393 26053.4 -03391.4 -07.4166 26273.2
 26 01 2013  15 28  -21.0379 26053.7 -03391.2 -07.4161 26273.5
 26 01 2013  15 29  -21.0372 26053.5 -03390.9 -07.4154 26273.3
 26 01 2013  15 30  -21.0349 26052.0 -03390.1 -07.4142 26271.6
 26 01 2013  15 31  -21.0318 26049.8 -03389.4 -07.4132 26269.4
 26 01 2013  15 32  -21.0303 26049.1 -03389.8 -07.4142 26268.7
 26 01 2013  15 33  -21.0296 26048.8 -03390.3 -07.4154 26268.5
 26 01 2013  15 34  -21.0292 26049.1 -03391.1 -07.4171 26268.9
 26 01 2013  15 35  -21.0283 26047.5 -03391.0 -07.4172 26267.3
 26 01 2013  15 36  -21.0265 26045.7 -03390.8 -07.4174 26265.5
 26 01 2013  15 37  -21.0253 26045.3 -03391.5 -07.4190 26265.2
 26 01 2013  15 38  -21.0256 26045.6 -03392.3 -07.4207 26265.6
 26 01 2013  15 39  -21.0248 26045.5 -03392.8 -07.4219 26265.5
 26 01 2013  15 40  -21.0258 26045.5 -03393.5 -07.4233 26265.7
 26 01 2013  15 41  -21.0266 26046.0 -03394.2 -07.4246 26266.2
 26 01 2013  15 42  -21.0272 26047.0 -03394.9 -07.4259 26267.3
 26 01 2013  15 43  -21.0265 26046.7 -03394.9 -07.4260 26267.1
 26 01 2013  15 44  -21.0273 26046.0 -03394.9 -07.4262 26266.3
 26 01 2013  15 45  -21.0286 26044.5 -03394.5 -07.4258 26264.8
 26 01 2013  15 46  -21.0261 26041.6 -03393.6 -07.4246 26261.8
 26 01 2013  15 47  -21.0247 26039.3 -03393.5 -07.4250 26259.5
 26 01 2013  15 48  -21.0244 26038.4 -03394.0 -07.4264 26258.7
 26 01 2013  15 49  -21.0252 26038.5 -03394.9 -07.4283 26258.9
 26 01 2013  15 50  -21.0250 26039.0 -03395.6 -07.4298 26259.4
 26 01 2013  15 51  -21.0261 26040.0 -03396.4 -07.4312 26260.5
 26 01 2013  15 52  -21.0268 26040.2 -03396.6 -07.4314 26260.7
 26 01 2013  15 53  -21.0284 26040.3 -03396.8 -07.4319 26260.9
 26 01 2013  15 54  -21.0289 26040.1 -03396.9 -07.4322 26260.7
 26 01 2013  15 55  -21.0286 26039.4 -03396.9 -07.4323 26260.0
 26 01 2013  15 56  -21.0287 26038.6 -03396.9 -07.4326 26259.2
 26 01 2013  15 57  -21.0283 26037.5 -03396.9 -07.4329 26258.2
 26 01 2013  15 58  -21.0274 26037.0 -03397.4 -07.4341 26257.7
 26 01 2013  15 59  -21.0276 26037.6 -03398.2 -07.4358 26258.4
 26 01 2013  16 00  -21.0289 26038.7 -03399.2 -07.4375 26259.7
 26 01 2013  16 01  -21.0307 26039.4 -03399.7 -07.4385 26260.4
 26 01 2013  16 02  -21.0307 26039.2 -03399.6 -07.4384 26260.2
 26 01 2013  16 03  -21.0303 26038.1 -03399.4 -07.4381 26259.0
 26 01 2013  16 04  -21.0302 26036.9 -03399.3 -07.4384 26257.9
 26 01 2013  16 05  -21.0298 26036.0 -03399.5 -07.4390 26257.0
 26 01 2013  16 06  -21.0285 26035.1 -03399.7 -07.4396 26256.1
 26 01 2013  16 07  -21.0274 26034.2 -03399.9 -07.4403 26255.3
 26 01 2013  16 08  -21.0263 26033.0 -03400.0 -07.4408 26254.1
 26 01 2013  16 09  -21.0262 26031.8 -03400.2 -07.4417 26252.9
 26 01 2013  16 10  -21.0273 26031.1 -03400.9 -07.4434 26252.3
 26 01 2013  16 11  -21.0296 26031.1 -03401.8 -07.4454 26252.4
 26 01 2013  16 12  -21.0321 26031.3 -03402.6 -07.4469 26252.7
 26 01 2013  16 13  -21.0334 26031.2 -03402.9 -07.4476 26252.7
 26 01 2013  16 14  -21.0329 26030.8 -03402.8 -07.4476 26252.2
 26 01 2013  16 15  -21.0344 26030.7 -03403.1 -07.4483 26252.2
 26 01 2013  16 16  -21.0353 26030.5 -03403.3 -07.4487 26252.0
 26 01 2013  16 17  -21.0361 26030.8 -03403.6 -07.4493 26252.4
 26 01 2013  16 18  -21.0373 26032.5 -03404.5 -07.4507 26254.2
 26 01 2013  16 19  -21.0392 26034.6 -03405.2 -07.4516 26256.4
 26 01 2013  16 20  -21.0402 26035.9 -03405.3 -07.4514 26257.7
 26 01 2013  16 21  -21.0397 26036.7 -03404.9 -07.4506 26258.4
 26 01 2013  16 22  -21.0394 26036.8 -03404.7 -07.4499 26258.5
 26 01 2013  16 23  -21.0394 26036.9 -03404.6 -07.4497 26258.5
 26 01 2013  16 24  -21.0394 26036.9 -03404.6 -07.4498 26258.6
 26 01 2013  16 25  -21.0389 26037.0 -03404.7 -07.4500 26258.6
 26 01 2013  16 26  -21.0386 26036.8 -03404.7 -07.4501 26258.5
 26 01 2013  16 27  -21.0387 26036.8 -03404.9 -07.4504 26258.5
 26 01 2013  16 28  -21.0384 26037.0 -03405.1 -07.4509 26258.7
 26 01 2013  16 29  -21.0383 26037.4 -03405.5 -07.4515 26259.2
 26 01 2013  16 30  -21.0383 26037.8 -03405.8 -07.4521 26259.6
 26 01 2013  16 31  -21.0382 26037.5 -03405.8 -07.4521 26259.3
 26 01 2013  16 32  -21.0387 26037.8 -03406.1 -07.4526 26259.6
 26 01 2013  16 33  -21.0403 26038.1 -03406.4 -07.4532 26259.9
 26 01 2013  16 34  -21.0414 26038.0 -03406.4 -07.4534 26259.9
 26 01 2013  16 35  -21.0415 26037.8 -03406.5 -07.4536 26259.7
 26 01 2013  16 36  -21.0417 26037.2 -03406.4 -07.4535 26259.1
 26 01 2013  16 37  -21.0422 26036.7 -03406.4 -07.4538 26258.6
 26 01 2013  16 38  -21.0426 26036.7 -03406.8 -07.4545 26258.6
 26 01 2013  16 39  -21.0434 26036.8 -03407.2 -07.4554 26258.8
 26 01 2013  16 40  -21.0444 26036.8 -03407.5 -07.4560 26258.9
 26 01 2013  16 41  -21.0451 26037.0 -03407.7 -07.4564 26259.1
 26 01 2013  16 42  -21.0459 26037.5 -03408.2 -07.4574 26259.6
 26 01 2013  16 43  -21.0464 26037.5 -03408.3 -07.4576 26259.6
 26 01 2013  16 44  -21.0464 26037.7 -03408.5 -07.4580 26259.9
 26 01 2013  16 45  -21.0474 26038.0 -03408.8 -07.4584 26260.1
 26 01 2013  16 46  -21.0475 26038.0 -03408.8 -07.4586 26260.2
 26 01 2013  16 47  -21.0479 26037.7 -03408.8 -07.4586 26259.9
 26 01 2013  16 48  -21.0485 26037.4 -03408.8 -07.4587 26259.6
 26 01 2013  16 49  -21.0492 26038.0 -03409.3 -07.4595 26260.3
 26 01 2013  16 50  -21.0505 26038.1 -03409.5 -07.4600 26260.3
 26 01 2013  16 51  -21.0521 26037.4 -03409.2 -07.4596 26259.6
 26 01 2013  16 52  -21.0528 26036.8 -03409.0 -07.4593 26259.0
 26 01 2013  16 53  -21.0540 26037.0 -03409.3 -07.4598 26259.2
 26 01 2013  16 54  -21.0566 26038.7 -03410.3 -07.4616 26261.1
 26 01 2013  16 55  -21.0591 26039.7 -03410.7 -07.4622 26262.1
 26 01 2013  16 56  -21.0591 26040.0 -03410.4 -07.4615 26262.3
 26 01 2013  16 57  -21.0589 26040.4 -03410.4 -07.4613 26262.8
 26 01 2013  16 58  -21.0589 26040.2 -03410.2 -07.4610 26262.6
 26 01 2013  16 59  -21.0587 26040.4 -03410.3 -07.4611 26262.8
 26 01 2013  17 00  -21.0590 26041.1 -03410.6 -07.4616 26263.5
 26 01 2013  17 01  -21.0598 26041.0 -03410.5 -07.4614 26263.4
 26 01 2013  17 02  -21.0603 26041.0 -03410.4 -07.4612 26263.4
 26 01 2013  17 03  -21.0612 26041.1 -03410.4 -07.4612 26263.5
 26 01 2013  17 04  -21.0618 26040.5 -03410.0 -07.4604 26262.8
 26 01 2013  17 05  -21.0617 26040.8 -03409.9 -07.4601 26263.1
 26 01 2013  17 06  -21.0620 26040.9 -03409.9 -07.4600 26263.2
 26 01 2013  17 07  -21.0621 26041.0 -03410.0 -07.4602 26263.3
 26 01 2013  17 08  -21.0623 26040.9 -03410.1 -07.4604 26263.3
 26 01 2013  17 09  -21.0630 26040.7 -03410.0 -07.4604 26263.0
 26 01 2013  17 10  -21.0635 26040.5 -03410.0 -07.4603 26262.8
 26 01 2013  17 11  -21.0641 26040.5 -03410.1 -07.4606 26262.8
 26 01 2013  17 12  -21.0652 26040.7 -03410.2 -07.4607 26263.0
 26 01 2013  17 13  -21.0658 26040.6 -03410.1 -07.4606 26262.9
 26 01 2013  17 14  -21.0656 26040.8 -03410.1 -07.4606 26263.1
 26 01 2013  17 15  -21.0657 26041.3 -03410.3 -07.4608 26263.7
 26 01 2013  17 16  -21.0672 26041.9 -03410.5 -07.4610 26264.3
 26 01 2013  17 17  -21.0690 26042.0 -03410.3 -07.4606 26264.3
 26 01 2013  17 18  -21.0699 26042.1 -03410.1 -07.4603 26264.5
 26 01 2013  17 19  -21.0712 26041.5 -03409.7 -07.4594 26263.7
 26 01 2013  17 20  -21.0716 26040.4 -03409.0 -07.4583 26262.6
 26 01 2013  17 21  -21.0721 26040.1 -03408.8 -07.4580 26262.2
 26 01 2013  17 22  -21.0733 26039.9 -03408.8 -07.4579 26262.1
 26 01 2013  17 23  -21.0737 26039.6 -03408.5 -07.4573 26261.8
 26 01 2013  17 24  -21.0729 26039.9 -03408.4 -07.4571 26262.0
 26 01 2013  17 25  -21.0739 26041.1 -03408.9 -07.4578 26263.3
 26 01 2013  17 26  -21.0751 26042.3 -03409.0 -07.4578 26264.4
 26 01 2013  17 27  -21.0755 26043.0 -03408.8 -07.4571 26265.2
 26 01 2013  17 28  -21.0758 26044.5 -03408.9 -07.4570 26266.6
 26 01 2013  17 29  -21.0767 26045.8 -03408.9 -07.4565 26268.0
 26 01 2013  17 30  -21.0771 26046.6 -03408.6 -07.4557 26268.7
 26 01 2013  17 31  -21.0779 26047.5 -03408.2 -07.4546 26269.5
 26 01 2013  17 32  -21.0772 26047.4 -03407.5 -07.4530 26269.4
 26 01 2013  17 33  -21.0771 26047.0 -03406.7 -07.4514 26268.9
 26 01 2013  17 34  -21.0776 26046.5 -03406.1 -07.4502 26268.3
 26 01 2013  17 35  -21.0776 26046.0 -03405.5 -07.4491 26267.7
 26 01 2013  17 36  -21.0786 26046.5 -03405.5 -07.4491 26268.2
 26 01 2013  17 37  -21.0778 26045.1 -03404.5 -07.4473 26266.7
 26 01 2013  17 38  -21.0763 26043.4 -03403.4 -07.4454 26264.8
 26 01 2013  17 39  -21.0764 26042.8 -03403.0 -07.4447 26264.2
 26 01 2013  17 40  -21.0773 26043.4 -03403.3 -07.4450 26264.8
 26 01 2013  17 41  -21.0781 26043.5 -03403.1 -07.4447 26264.9
 26 01 2013  17 42  -21.0782 26042.6 -03402.4 -07.4433 26263.9
 26 01 2013  17 43  -21.0774 26041.3 -03401.5 -07.4418 26262.5
 26 01 2013  17 44  -21.0771 26040.9 -03401.1 -07.4411 26262.1
 26 01 2013  17 45  -21.0759 26040.0 -03400.7 -07.4403 26261.1
 26 01 2013  17 46  -21.0760 26039.3 -03400.3 -07.4397 26260.4
 26 01 2013  17 47  -21.0758 26038.8 -03400.0 -07.4392 26259.8
 26 01 2013  17 48  -21.0756 26038.4 -03399.6 -07.4386 26259.4
 26 01 2013  17 49  -21.0754 26037.7 -03399.3 -07.4380 26258.7
 26 01 2013  17 50  -21.0745 26036.6 -03398.7 -07.4370 26257.5
 26 01 2013  17 51  -21.0739 26035.8 -03398.3 -07.4365 26256.7
 26 01 2013  17 52  -21.0733 26035.3 -03398.0 -07.4360 26256.1
 26 01 2013  17 53  -21.0740 26034.8 -03397.8 -07.4357 26255.6
 26 01 2013  17 54  -21.0739 26034.6 -03397.7 -07.4355 26255.3
 26 01 2013  17 55  -21.0733 26033.6 -03397.2 -07.4347 26254.3
 26 01 2013  17 56  -21.0726 26032.4 -03396.6 -07.4338 26253.0
 26 01 2013  17 57  -21.0719 26031.1 -03396.1 -07.4330 26251.7
 26 01 2013  17 58  -21.0716 26030.1 -03395.8 -07.4327 26250.7
 26 01 2013  17 59  -21.0707 26029.7 -03395.7 -07.4326 26250.3
 26 01 2013  18 00  -21.0702 26029.4 -03395.7 -07.4327 26250.0
 26 01 2013  18 01  -21.0704 26030.0 -03396.0 -07.4332 26250.6
 26 01 2013  18 02  -21.0706 26030.4 -03396.3 -07.4336 26251.0
 26 01 2013  18 03  -21.0708 26030.6 -03396.2 -07.4334 26251.2
 26 01 2013  18 04  -21.0707 26030.7 -03396.0 -07.4328 26251.3
 26 01 2013  18 05  -21.0699 26030.1 -03395.5 -07.4320 26250.7
 26 01 2013  18 06  -21.0688 26029.5 -03395.0 -07.4311 26250.0
 26 01 2013  18 07  -21.0687 26029.3 -03394.8 -07.4307 26249.8
 26 01 2013  18 08  -21.0679 26029.0 -03394.4 -07.4299 26249.4
 26 01 2013  18 09  -21.0673 26029.1 -03394.3 -07.4296 26249.5
 26 01 2013  18 10  -21.0663 26029.1 -03394.1 -07.4293 26249.4
 26 01 2013  18 11  -21.0657 26028.2 -03393.6 -07.4284 26248.5
 26 01 2013  18 12  -21.0652 26027.4 -03393.4 -07.4281 26247.7
 26 01 2013  18 13  -21.0646 26026.5 -03393.1 -07.4278 26246.8
 26 01 2013  18 14  -21.0634 26025.4 -03392.8 -07.4274 26245.7
 26 01 2013  18 15  -21.0622 26024.6 -03392.6 -07.4273 26244.8
 26 01 2013  18 16  -21.0623 26024.3 -03392.8 -07.4278 26244.5
 26 01 2013  18 17  -21.0625 26024.3 -03393.1 -07.4283 26244.6
 26 01 2013  18 18  -21.0618 26024.0 -03393.1 -07.4285 26244.3
 26 01 2013  18 19  -21.0608 26023.9 -03393.1 -07.4286 26244.2
 26 01 2013  18 20  -21.0602 26024.0 -03393.3 -07.4290 26244.3
 26 01 2013  18 21  -21.0590 26023.9 -03393.3 -07.4290 26244.2
 26 01 2013  18 22  -21.0585 26023.8 -03393.4 -07.4292 26244.1
 26 01 2013  18 23  -21.0577 26023.5 -03393.3 -07.4291 26243.8
 26 01 2013  18 24  -21.0570 26023.1 -03393.3 -07.4291 26243.4
 26 01 2013  18 25  -21.0567 26022.8 -03393.4 -07.4294 26243.1
 26 01 2013  18 26  -21.0563 26022.4 -03393.3 -07.4294 26242.7
 26 01 2013  18 27  -21.0553 26022.0 -03393.2 -07.4294 26242.3
 26 01 2013  18 28  -21.0541 26021.9 -03393.4 -07.4297 26242.2
 26 01 2013  18 29  -21.0538 26022.2 -03393.7 -07.4304 26242.5
 26 01 2013  18 30  -21.0543 26022.6 -03394.0 -07.4309 26243.0
 26 01 2013  18 31  -21.0547 26022.9 -03394.2 -07.4311 26243.4
 26 01 2013  18 32  -21.0537 26022.9 -03394.1 -07.4309 26243.3
 26 01 2013  18 33  -21.0531 26022.4 -03393.8 -07.4306 26242.8
 26 01 2013  18 34  -21.0527 26022.1 -03393.8 -07.4305 26242.5
 26 01 2013  18 35  -21.0531 26021.9 -03393.8 -07.4306 26242.2
 26 01 2013  18 36  -21.0534 26021.4 -03393.5 -07.4302 26241.8
 26 01 2013  18 37  -21.0534 26021.4 -03393.5 -07.4302 26241.7
 26 01 2013  18 38  -21.0534 26021.5 -03393.6 -07.4303 26241.9
 26 01 2013  18 39  -21.0539 26022.0 -03393.8 -07.4307 26242.4
 26 01 2013  18 40  -21.0540 26022.4 -03394.0 -07.4309 26242.8
 26 01 2013  18 41  -21.0535 26022.8 -03394.1 -07.4309 26243.2
 26 01 2013  18 42  -21.0539 26023.0 -03394.1 -07.4310 26243.4
 26 01 2013  18 43  -21.0540 26023.3 -03394.2 -07.4310 26243.7
 26 01 2013  18 44  -21.0546 26023.5 -03394.3 -07.4312 26244.0
 26 01 2013  18 45  -21.0545 26023.6 -03394.3 -07.4311 26244.0
 26 01 2013  18 46  -21.0541 26023.9 -03394.4 -07.4314 26244.3
 26 01 2013  18 47  -21.0540 26024.3 -03394.7 -07.4318 26244.8
 26 01 2013  18 48  -21.0537 26024.4 -03394.7 -07.4319 26244.9
 26 01 2013  18 49  -21.0536 26024.5 -03394.9 -07.4322 26245.0
 26 01 2013  18 50  -21.0539 26024.5 -03394.9 -07.4324 26245.0
 26 01 2013  18 51  -21.0543 26024.6 -03395.1 -07.4326 26245.2
 26 01 2013  18 52  -21.0546 26025.0 -03395.3 -07.4329 26245.5
 26 01 2013  18 53  -21.0553 26025.4 -03395.5 -07.4333 26246.0
 26 01 2013  18 54  -21.0561 26025.8 -03395.6 -07.4335 26246.3
 26 01 2013  18 55  -21.0564 26026.4 -03395.9 -07.4339 26247.0
 26 01 2013  18 56  -21.0573 26027.1 -03396.2 -07.4343 26247.7
 26 01 2013  18 57  -21.0579 26027.6 -03396.4 -07.4345 26248.2
 26 01 2013  18 58  -21.0583 26028.0 -03396.4 -07.4346 26248.7
 26 01 2013  18 59  -21.0588 26028.6 -03396.6 -07.4347 26249.2
 26 01 2013  19 00  -21.0593 26029.0 -03396.7 -07.4348 26249.7
 26 01 2013  19 01  -21.0595 26029.5 -03396.7 -07.4348 26250.2
 26 01 2013  19 02  -21.0598 26030.1 -03396.9 -07.4349 26250.8
 26 01 2013  19 03  -21.0600 26030.9 -03397.0 -07.4350 26251.6
 26 01 2013  19 04  -21.0609 26031.7 -03397.1 -07.4351 26252.4
 26 01 2013  19 05  -21.0614 26032.3 -03397.2 -07.4349 26253.0
 26 01 2013  19 06  -21.0615 26032.9 -03397.1 -07.4347 26253.6
 26 01 2013  19 07  -21.0618 26033.6 -03397.2 -07.4347 26254.3
 26 01 2013  19 08  -21.0621 26034.0 -03397.1 -07.4343 26254.7
 26 01 2013  19 09  -21.0626 26034.6 -03397.1 -07.4341 26255.3
 26 01 2013  19 10  -21.0634 26035.0 -03397.0 -07.4338 26255.7
 26 01 2013  19 11  -21.0634 26035.0 -03396.6 -07.4331 26255.7
 26 01 2013  19 12  -21.0635 26035.3 -03396.4 -07.4325 26255.9
 26 01 2013  19 13  -21.0635 26036.3 -03396.6 -07.4327 26256.9
 26 01 2013  19 14  -21.0641 26036.9 -03396.7 -07.4326 26257.5
 26 01 2013  19 15  -21.0643 26037.2 -03396.5 -07.4321 26257.8
 26 01 2013  19 16  -21.0644 26037.5 -03396.3 -07.4316 26258.1
 26 01 2013  19 17  -21.0639 26037.2 -03395.9 -07.4308 26257.8
 26 01 2013  19 18  -21.0647 26037.2 -03395.6 -07.4303 26257.7
 26 01 2013  19 19  -21.0651 26037.1 -03395.4 -07.4297 26257.6
 26 01 2013  19 20  -21.0650 26037.0 -03395.0 -07.4290 26257.4
 26 01 2013  19 21  -21.0648 26037.3 -03394.9 -07.4286 26257.7
 26 01 2013  19 22  -21.0650 26037.6 -03394.8 -07.4283 26257.9
 26 01 2013  19 23  -21.0647 26037.4 -03394.4 -07.4276 26257.7
 26 01 2013  19 24  -21.0642 26037.4 -03394.2 -07.4270 26257.7
 26 01 2013  19 25  -21.0638 26037.5 -03394.1 -07.4268 26257.7
 26 01 2013  19 26  -21.0632 26037.8 -03394.1 -07.4267 26258.1
 26 01 2013  19 27  -21.0632 26038.5 -03394.2 -07.4268 26258.8
 26 01 2013  19 28  -21.0628 26038.5 -03394.0 -07.4264 26258.8
 26 01 2013  19 29  -21.0631 26038.3 -03393.7 -07.4258 26258.5
 26 01 2013  19 30  -21.0634 26038.2 -03393.5 -07.4254 26258.4
 26 01 2013  19 31  -21.0636 26038.1 -03393.3 -07.4250 26258.3
 26 01 2013  19 32  -21.0637 26037.8 -03393.0 -07.4244 26257.9
 26 01 2013  19 33  -21.0636 26037.1 -03392.6 -07.4238 26257.2
 26 01 2013  19 34  -21.0637 26036.5 -03392.2 -07.4231 26256.6
 26 01 2013  19 35  -21.0632 26035.9 -03391.9 -07.4225 26255.9
 26 01 2013  19 36  -21.0624 26035.1 -03391.4 -07.4217 26255.1
 26 01 2013  19 37  -21.0616 26034.7 -03391.2 -07.4214 26254.6
 26 01 2013  19 38  -21.0610 26034.4 -03391.1 -07.4213 26254.4
 26 01 2013  19 39  -21.0600 26034.2 -03391.0 -07.4211 26254.2
 26 01 2013  19 40  -21.0598 26034.1 -03391.0 -07.4212 26254.0
 26 01 2013  19 41  -21.0601 26033.2 -03390.7 -07.4206 26253.1
 26 01 2013  19 42  -21.0596 26032.4 -03390.3 -07.4201 26252.3
 26 01 2013  19 43  -21.0593 26031.7 -03390.0 -07.4197 26251.5
 26 01 2013  19 44  -21.0594 26031.6 -03390.1 -07.4199 26251.4
 26 01 2013  19 45  -21.0600 26031.9 -03390.3 -07.4203 26251.7
 26 01 2013  19 46  -21.0606 26031.4 -03390.3 -07.4202 26251.3
 26 01 2013  19 47  -21.0608 26030.7 -03390.0 -07.4199 26250.5
 26 01 2013  19 48  -21.0609 26030.8 -03390.1 -07.4200 26250.7
 26 01 2013  19 49  -21.0611 26030.6 -03390.1 -07.4201 26250.5
 26 01 2013  19 50  -21.0606 26030.9 -03390.2 -07.4202 26250.7
 26 01 2013  19 51  -21.0607 26031.0 -03390.3 -07.4204 26250.8
 26 01 2013  19 52  -21.0604 26030.5 -03390.2 -07.4203 26250.3
 26 01 2013  19 53  -21.0606 26030.0 -03390.0 -07.4202 26249.8
 26 01 2013  19 54  -21.0603 26030.1 -03390.2 -07.4204 26249.9
 26 01 2013  19 55  -21.0595 26030.1 -03390.2 -07.4206 26249.9
 26 01 2013  19 56  -21.0586 26029.6 -03390.1 -07.4205 26249.4
 26 01 2013  19 57  -21.0575 26029.7 -03390.3 -07.4208 26249.5
 26 01 2013  19 58  -21.0562 26029.5 -03390.3 -07.4208 26249.3
 26 01 2013  19 59  -21.0561 26029.3 -03390.3 -07.4210 26249.2
 26 01 2013  20 00  -21.0561 26028.9 -03390.3 -07.4211 26248.8
 26 01 2013  20 01  -21.0547 26028.8 -03390.3 -07.4212 26248.7
 26 01 2013  20 02  -21.0534 26028.4 -03390.3 -07.4211 26248.3
 26 01 2013  20 03  -21.0520 26028.3 -03390.4 -07.4214 26248.2
 26 01 2013  20 04  -21.0506 26028.3 -03390.5 -07.4217 26248.2
 26 01 2013  20 05  -21.0488 26027.7 -03390.4 -07.4217 26247.6
 26 01 2013  20 06  -21.0471 26027.2 -03390.4 -07.4217 26247.1
 26 01 2013  20 07  -21.0460 26026.6 -03390.3 -07.4217 26246.5
 26 01 2013  20 08  -21.0451 26026.8 -03390.6 -07.4223 26246.7
 26 01 2013  20 09  -21.0445 26026.0 -03390.6 -07.4224 26246.0
 26 01 2013  20 10  -21.0438 26025.7 -03390.6 -07.4226 26245.7
 26 01 2013  20 11  -21.0439 26026.4 -03391.2 -07.4236 26246.4
 26 01 2013  20 12  -21.0442 26026.6 -03391.5 -07.4243 26246.6
 26 01 2013  20 13  -21.0442 26026.3 -03391.5 -07.4244 26246.3
 26 01 2013  20 14  -21.0435 26025.5 -03391.2 -07.4240 26245.5
 26 01 2013  20 15  -21.0426 26025.4 -03391.2 -07.4240 26245.4
 26 01 2013  20 16  -21.0419 26025.8 -03391.5 -07.4246 26245.9
 26 01 2013  20 17  -21.0413 26026.5 -03392.0 -07.4254 26246.6
 26 01 2013  20 18  -21.0412 26027.3 -03392.5 -07.4263 26247.4
 26 01 2013  20 19  -21.0411 26027.9 -03392.9 -07.4270 26248.1
 26 01 2013  20 20  -21.0408 26028.8 -03393.3 -07.4276 26249.0
 26 01 2013  20 21  -21.0412 26029.6 -03393.8 -07.4284 26249.9
 26 01 2013  20 22  -21.0415 26030.3 -03394.1 -07.4288 26250.6
 26 01 2013  20 23  -21.0415 26031.0 -03394.3 -07.4292 26251.4
 26 01 2013  20 24  -21.0418 26031.8 -03394.6 -07.4296 26252.2
 26 01 2013  20 25  -21.0423 26032.7 -03395.0 -07.4301 26253.1
 26 01 2013  20 26  -21.0428 26033.7 -03395.3 -07.4305 26254.2
 26 01 2013  20 27  -21.0434 26034.6 -03395.6 -07.4309 26255.1
 26 01 2013  20 28  -21.0441 26035.2 -03395.8 -07.4311 26255.7
 26 01 2013  20 29  -21.0450 26035.3 -03395.7 -07.4309 26255.8
 26 01 2013  20 30  -21.0456 26035.5 -03395.5 -07.4306 26256.0
 26 01 2013  20 31  -21.0459 26036.0 -03395.6 -07.4305 26256.4
 26 01 2013  20 32  -21.0459 26036.0 -03395.5 -07.4302 26256.5
 26 01 2013  20 33  -21.0457 26035.7 -03395.1 -07.4295 26256.1
 26 01 2013  20 34  -21.0455 26035.5 -03394.8 -07.4289 26255.9
 26 01 2013  20 35  -21.0453 26035.1 -03394.4 -07.4283 26255.5
 26 01 2013  20 36  -21.0456 26035.2 -03394.4 -07.4281 26255.5
 26 01 2013  20 37  -21.0460 26035.4 -03394.4 -07.4280 26255.7
 26 01 2013  20 38  -21.0461 26035.4 -03394.4 -07.4280 26255.8
 26 01 2013  20 39  -21.0464 26035.6 -03394.4 -07.4280 26256.0
 26 01 2013  20 40  -21.0466 26035.7 -03394.4 -07.4280 26256.1
 26 01 2013  20 41  -21.0462 26035.7 -03394.3 -07.4277 26256.0
 26 01 2013  20 42  -21.0458 26035.4 -03394.1 -07.4274 26255.7
 26 01 2013  20 43  -21.0459 26034.9 -03393.8 -07.4270 26255.2
 26 01 2013  20 44  -21.0459 26034.6 -03393.6 -07.4266 26254.8
 26 01 2013  20 45  -21.0459 26034.1 -03393.4 -07.4263 26254.4
 26 01 2013  20 46  -21.0461 26033.7 -03393.2 -07.4260 26253.9
 26 01 2013  20 47  -21.0462 26033.5 -03393.1 -07.4259 26253.7
 26 01 2013  20 48  -21.0463 26033.1 -03393.0 -07.4257 26253.3
 26 01 2013  20 49  -21.0462 26032.7 -03392.9 -07.4255 26252.9
 26 01 2013  20 50  -21.0466 26031.9 -03392.5 -07.4250 26252.0
 26 01 2013  20 51  -21.0470 26031.3 -03392.2 -07.4245 26251.4
 26 01 2013  20 52  -21.0474 26030.8 -03392.0 -07.4243 26250.9
 26 01 2013  20 53  -21.0481 26030.3 -03391.9 -07.4241 26250.4
 26 01 2013  20 54  -21.0486 26029.7 -03391.7 -07.4239 26249.8
 26 01 2013  20 55  -21.0493 26028.6 -03391.3 -07.4233 26248.6
 26 01 2013  20 56  -21.0500 26027.6 -03390.9 -07.4227 26247.6
 26 01 2013  20 57  -21.0504 26026.8 -03390.6 -07.4223 26246.7
 26 01 2013  20 58  -21.0511 26025.8 -03390.2 -07.4218 26245.7
 26 01 2013  20 59  -21.0515 26025.0 -03390.0 -07.4214 26244.9
 26 01 2013  21 00  -21.0520 26024.3 -03389.8 -07.4213 26244.2
 26 01 2013  21 01  -21.0528 26023.1 -03389.4 -07.4208 26242.9
 26 01 2013  21 02  -21.0536 26021.8 -03389.0 -07.4202 26241.6
 26 01 2013  21 03  -21.0544 26020.4 -03388.5 -07.4195 26240.1
 26 01 2013  21 04  -21.0550 26019.2 -03388.0 -07.4189 26238.8
 26 01 2013  21 05  -21.0554 26018.1 -03387.7 -07.4185 26237.7
 26 01 2013  21 06  -21.0561 26016.9 -03387.4 -07.4181 26236.5
 26 01 2013  21 07  -21.0566 26016.4 -03387.4 -07.4182 26236.0
 26 01 2013  21 08  -21.0567 26016.0 -03387.4 -07.4185 26235.6
 26 01 2013  21 09  -21.0567 26015.1 -03387.3 -07.4185 26234.7
 26 01 2013  21 10  -21.0568 26014.2 -03387.1 -07.4183 26233.8
 26 01 2013  21 11  -21.0568 26013.2 -03386.9 -07.4181 26232.8
 26 01 2013  21 12  -21.0568 26012.3 -03386.8 -07.4180 26231.9
 26 01 2013  21 13  -21.0564 26011.5 -03386.6 -07.4179 26231.0
 26 01 2013  21 14  -21.0560 26010.7 -03386.5 -07.4180 26230.3
 26 01 2013  21 15  -21.0558 26010.2 -03386.6 -07.4182 26229.8
 26 01 2013  21 16  -21.0557 26009.8 -03386.7 -07.4187 26229.4
 26 01 2013  21 17  -21.0553 26009.6 -03386.9 -07.4192 26229.2
 26 01 2013  21 18  -21.0550 26009.3 -03387.1 -07.4197 26228.9
 26 01 2013  21 19  -21.0547 26008.7 -03387.2 -07.4200 26228.4
 26 01 2013  21 20  -21.0548 26008.3 -03387.3 -07.4204 26228.0
 26 01 2013  21 21  -21.0547 26007.9 -03387.4 -07.4207 26227.5
 26 01 2013  21 22  -21.0547 26007.2 -03387.4 -07.4209 26226.8
 26 01 2013  21 23  -21.0545 26006.7 -03387.4 -07.4211 26226.3
 26 01 2013  21 24  -21.0546 26006.3 -03387.6 -07.4215 26226.0
 26 01 2013  21 25  -21.0548 26006.1 -03387.8 -07.4220 26225.8
 26 01 2013  21 26  -21.0548 26005.7 -03388.0 -07.4225 26225.4
 26 01 2013  21 27  -21.0547 26004.8 -03387.8 -07.4224 26224.5
 26 01 2013  21 28  -21.0549 26004.4 -03387.8 -07.4226 26224.2
 26 01 2013  21 29  -21.0554 26004.0 -03387.9 -07.4230 26223.8
 26 01 2013  21 30  -21.0562 26003.7 -03388.1 -07.4234 26223.5
 26 01 2013  21 31  -21.0572 26003.3 -03388.2 -07.4237 26223.1
 26 01 2013  21 32  -21.0583 26002.7 -03388.1 -07.4237 26222.5
 26 01 2013  21 33  -21.0592 26002.1 -03388.1 -07.4238 26221.9
 26 01 2013  21 34  -21.0603 26001.1 -03387.8 -07.4234 26220.9
 26 01 2013  21 35  -21.0610 26000.2 -03387.5 -07.4230 26220.0
 26 01 2013  21 36  -21.0617 25999.5 -03387.3 -07.4228 26219.2
 26 01 2013  21 37  -21.0620 25999.1 -03387.2 -07.4228 26218.8
 26 01 2013  21 38  -21.0622 25999.1 -03387.4 -07.4232 26218.9
 26 01 2013  21 39  -21.0624 25999.5 -03387.8 -07.4240 26219.3
 26 01 2013  21 40  -21.0631 25999.5 -03388.1 -07.4246 26219.3
 26 01 2013  21 41  -21.0636 25999.7 -03388.4 -07.4252 26219.5
 26 01 2013  21 42  -21.0644 25999.5 -03388.6 -07.4256 26219.4
 26 01 2013  21 43  -21.0657 25998.8 -03388.4 -07.4255 26218.7
 26 01 2013  21 44  -21.0665 25998.1 -03388.2 -07.4252 26218.0
 26 01 2013  21 45  -21.0674 25997.3 -03387.9 -07.4248 26217.1
 26 01 2013  21 46  -21.0681 25996.8 -03387.8 -07.4247 26216.6
 26 01 2013  21 47  -21.0684 25996.1 -03387.6 -07.4244 26215.9
 26 01 2013  21 48  -21.0686 25995.4 -03387.3 -07.4241 26215.1
 26 01 2013  21 49  -21.0684 25994.7 -03387.1 -07.4238 26214.5
 26 01 2013  21 50  -21.0676 25994.2 -03386.9 -07.4235 26214.0
 26 01 2013  21 51  -21.0668 25993.6 -03386.8 -07.4234 26213.3
 26 01 2013  21 52  -21.0657 25993.1 -03386.7 -07.4233 26212.8
 26 01 2013  21 53  -21.0641 25992.8 -03386.7 -07.4233 26212.5
 26 01 2013  21 54  -21.0626 25992.9 -03386.9 -07.4239 26212.6
 26 01 2013  21 55  -21.0613 25992.9 -03387.2 -07.4245 26212.7
 26 01 2013  21 56  -21.0603 25993.0 -03387.5 -07.4252 26212.8
 26 01 2013  21 57  -21.0596 25993.1 -03387.9 -07.4260 26213.0
 26 01 2013  21 58  -21.0588 25993.3 -03388.3 -07.4267 26213.2
 26 01 2013  21 59  -21.0581 25992.7 -03388.2 -07.4268 26212.6
 26 01 2013  22 00  -21.0573 25991.8 -03387.9 -07.4264 26211.6
 26 01 2013  22 01  -21.0568 25991.3 -03387.8 -07.4263 26211.2
 26 01 2013  22 02  -21.0567 25991.1 -03387.9 -07.4266 26211.0
 26 01 2013  22 03  -21.0568 25991.4 -03388.3 -07.4272 26211.3
 26 01 2013  22 04  -21.0570 25991.9 -03388.7 -07.4280 26211.8
 26 01 2013  22 05  -21.0577 25992.1 -03389.0 -07.4287 26212.1
 26 01 2013  22 06  -21.0589 25992.0 -03389.2 -07.4291 26212.1
 26 01 2013  22 07  -21.0602 25992.0 -03389.4 -07.4295 26212.0
 26 01 2013  22 08  -21.0614 25991.8 -03389.4 -07.4296 26211.9
 26 01 2013  22 09  -21.0619 25991.8 -03389.5 -07.4297 26211.9
 26 01 2013  22 10  -21.0625 25992.1 -03389.6 -07.4299 26212.2
 26 01 2013  22 11  -21.0630 25992.5 -03389.8 -07.4303 26212.6
 26 01 2013  22 12  -21.0635 25992.7 -03390.0 -07.4306 26212.8
 26 01 2013  22 13  -21.0638 25992.0 -03389.7 -07.4302 26212.1
 26 01 2013  22 14  -21.0640 25990.8 -03389.1 -07.4292 26210.9
 26 01 2013  22 15  -21.0642 25989.6 -03388.5 -07.4282 26209.6
 26 01 2013  22 16  -21.0647 25988.7 -03388.0 -07.4274 26208.6
 26 01 2013  22 17  -21.0652 25987.9 -03387.6 -07.4268 26207.7
 26 01 2013  22 18  -21.0655 25987.3 -03387.4 -07.4265 26207.1
 26 01 2013  22 19  -21.0659 25986.9 -03387.3 -07.4264 26206.7
 26 01 2013  22 20  -21.0662 25986.6 -03387.2 -07.4263 26206.4
 26 01 2013  22 21  -21.0666 25986.6 -03387.3 -07.4266 26206.4
 26 01 2013  22 22  -21.0673 25987.3 -03387.8 -07.4273 26207.2
 26 01 2013  22 23  -21.0679 25988.2 -03388.4 -07.4284 26208.1
 26 01 2013  22 24  -21.0680 25988.7 -03388.7 -07.4290 26208.7
 26 01 2013  22 25  -21.0676 25989.5 -03389.1 -07.4296 26209.5
 26 01 2013  22 26  -21.0666 25990.1 -03389.4 -07.4301 26210.2
 26 01 2013  22 27  -21.0653 25990.7 -03389.7 -07.4306 26210.9
 26 01 2013  22 28  -21.0639 25991.1 -03389.9 -07.4309 26211.3
 26 01 2013  22 29  -21.0628 25991.5 -03390.1 -07.4312 26211.6
 26 01 2013  22 30  -21.0621 25991.7 -03390.3 -07.4315 26211.9
 26 01 2013  22 31  -21.0618 25992.3 -03390.6 -07.4321 26212.5
 26 01 2013  22 32  -21.0618 25992.8 -03391.0 -07.4327 26213.0
 26 01 2013  22 33  -21.0620 25993.3 -03391.3 -07.4332 26213.6
 26 01 2013  22 34  -21.0622 25994.0 -03391.7 -07.4338 26214.4
 26 01 2013  22 35  -21.0621 25995.2 -03392.2 -07.4347 26215.5
 26 01 2013  22 36  -21.0619 25996.4 -03392.8 -07.4356 26216.8
 26 01 2013  22 37  -21.0617 25997.4 -03393.2 -07.4362 26217.9
 26 01 2013  22 38  -21.0613 25998.3 -03393.6 -07.4368 26218.8
 26 01 2013  22 39  -21.0607 25998.5 -03393.6 -07.4369 26219.1
 26 01 2013  22 40  -21.0603 25998.8 -03393.6 -07.4368 26219.4
 26 01 2013  22 41  -21.0597 25999.2 -03393.7 -07.4368 26219.8
 26 01 2013  22 42  -21.0589 25999.8 -03393.9 -07.4370 26220.4
 26 01 2013  22 43  -21.0580 26000.8 -03394.2 -07.4375 26221.4
 26 01 2013  22 44  -21.0571 26001.8 -03394.7 -07.4382 26222.4
 26 01 2013  22 45  -21.0563 26002.4 -03395.0 -07.4386 26223.1
 26 01 2013  22 46  -21.0557 26002.6 -03395.0 -07.4387 26223.3
 26 01 2013  22 47  -21.0551 26002.8 -03395.0 -07.4387 26223.5
 26 01 2013  22 48  -21.0545 26003.0 -03395.1 -07.4387 26223.7
 26 01 2013  22 49  -21.0536 26003.3 -03395.1 -07.4387 26224.0
 26 01 2013  22 50  -21.0527 26003.7 -03395.2 -07.4388 26224.4
 26 01 2013  22 51  -21.0520 26004.0 -03395.3 -07.4390 26224.8
 26 01 2013  22 52  -21.0514 26004.3 -03395.5 -07.4392 26225.0
 26 01 2013  22 53  -21.0507 26004.4 -03395.5 -07.4392 26225.2
 26 01 2013  22 54  -21.0498 26004.6 -03395.5 -07.4392 26225.3
 26 01 2013  22 55  -21.0487 26004.6 -03395.5 -07.4391 26225.3
 26 01 2013  22 56  -21.0473 26004.5 -03395.4 -07.4389 26225.2
 26 01 2013  22 57  -21.0462 26004.8 -03395.5 -07.4391 26225.5
 26 01 2013  22 58  -21.0452 26005.2 -03395.7 -07.4394 26226.0
 26 01 2013  22 59  -21.0443 26005.9 -03396.0 -07.4400 26226.7
 26 01 2013  23 00  -21.0434 26007.0 -03396.6 -07.4409 26227.8
 26 01 2013  23 01  -21.0426 26007.5 -03396.9 -07.4414 26228.4
 26 01 2013  23 02  -21.0419 26008.1 -03397.2 -07.4418 26229.0
 26 01 2013  23 03  -21.0416 26008.1 -03397.2 -07.4419 26229.1
 26 01 2013  23 04  -21.0415 26008.2 -03397.2 -07.4419 26229.2
 26 01 2013  23 05  -21.0415 26008.4 -03397.3 -07.4419 26229.3
 26 01 2013  23 06  -21.0415 26008.5 -03397.3 -07.4420 26229.5
 26 01 2013  23 07  -21.0416 26008.6 -03397.3 -07.4420 26229.5
 26 01 2013  23 08  -21.0416 26008.8 -03397.4 -07.4420 26229.8
 26 01 2013  23 09  -21.0419 26009.0 -03397.4 -07.4421 26229.9
 26 01 2013  23 10  -21.0424 26009.0 -03397.4 -07.4420 26230.0
 26 01 2013  23 11  -21.0428 26009.1 -03397.4 -07.4421 26230.1
 26 01 2013  23 12  -21.0430 26009.2 -03397.4 -07.4419 26230.1
 26 01 2013  23 13  -21.0432 26009.2 -03397.3 -07.4418 26230.1
 26 01 2013  23 14  -21.0434 26009.3 -03397.3 -07.4418 26230.2
 26 01 2013  23 15  -21.0434 26009.3 -03397.3 -07.4417 26230.3
 26 01 2013  23 16  -21.0434 26009.4 -03397.2 -07.4416 26230.3
 26 01 2013  23 17  -21.0435 26009.2 -03397.1 -07.4414 26230.1
 26 01 2013  23 18  -21.0435 26009.0 -03397.0 -07.4411 26229.9
 26 01 2013  23 19  -21.0438 26008.8 -03396.8 -07.4409 26229.7
 26 01 2013  23 20  -21.0442 26008.6 -03396.7 -07.4406 26229.4
 26 01 2013  23 21  -21.0446 26008.1 -03396.5 -07.4403 26229.0
 26 01 2013  23 22  -21.0447 26007.8 -03396.3 -07.4399 26228.6
 26 01 2013  23 23  -21.0447 26007.8 -03396.2 -07.4399 26228.6
 26 01 2013  23 24  -21.0448 26008.0 -03396.3 -07.4400 26228.9
 26 01 2013  23 25  -21.0451 26008.2 -03396.5 -07.4402 26229.1
 26 01 2013  23 26  -21.0457 26008.3 -03396.5 -07.4404 26229.1
 26 01 2013  23 27  -21.0463 26008.1 -03396.4 -07.4402 26228.9
 26 01 2013  23 28  -21.0464 26008.4 -03396.5 -07.4403 26229.2
 26 01 2013  23 29  -21.0463 26008.6 -03396.6 -07.4404 26229.5
 26 01 2013  23 30  -21.0466 26008.7 -03396.7 -07.4406 26229.5
 26 01 2013  23 31  -21.0470 26009.0 -03396.8 -07.4407 26229.9
 26 01 2013  23 32  -21.0475 26009.0 -03396.8 -07.4407 26229.9
 26 01 2013  23 33  -21.0478 26009.3 -03396.9 -07.4408 26230.2
 26 01 2013  23 34  -21.0484 26009.0 -03396.7 -07.4406 26229.9
 26 01 2013  23 35  -21.0488 26008.9 -03396.6 -07.4404 26229.8
 26 01 2013  23 36  -21.0494 26008.7 -03396.4 -07.4401 26229.5
 26 01 2013  23 37  -21.0498 26008.7 -03396.4 -07.4399 26229.5
 26 01 2013  23 38  -21.0501 26009.1 -03396.5 -07.4400 26229.9
 26 01 2013  23 39  -21.0505 26009.4 -03396.6 -07.4402 26230.2
 26 01 2013  23 40  -21.0509 26009.7 -03396.7 -07.4404 26230.6
 26 01 2013  23 41  -21.0511 26009.9 -03396.8 -07.4405 26230.8
 26 01 2013  23 42  -21.0512 26010.1 -03396.8 -07.4404 26230.9
 26 01 2013  23 43  -21.0513 26010.2 -03396.8 -07.4404 26231.1
 26 01 2013  23 44  -21.0515 26010.3 -03396.8 -07.4403 26231.1
 26 01 2013  23 45  -21.0516 26010.3 -03396.7 -07.4402 26231.2
 26 01 2013  23 46  -21.0516 26010.5 -03396.7 -07.4401 26231.3
 26 01 2013  23 47  -21.0516 26010.6 -03396.7 -07.4401 26231.4
 26 01 2013  23 48  -21.0515 26010.7 -03396.7 -07.4400 26231.6
 26 01 2013  23 49  -21.0513 26010.9 -03396.7 -07.4400 26231.7
 26 01 2013  23 50  -21.0510 26010.9 -03396.6 -07.4399 26231.7
 26 01 2013  23 51  -21.0506 26010.9 -03396.5 -07.4397 26231.7
 26 01 2013  23 52  -21.0502 26010.9 -03396.5 -07.4395 26231.7
 26 01 2013  23 53  -21.0499 26010.9 -03396.5 -07.4395 26231.8
 26 01 2013  23 54  -21.0496 26011.1 -03396.5 -07.4396 26231.9
 26 01 2013  23 55  -21.0494 26011.2 -03396.6 -07.4397 26232.0
 26 01 2013  23 56  -21.0490 26011.3 -03396.6 -07.4397 26232.1
 26 01 2013  23 57  -21.0488 26011.4 -03396.6 -07.4397 26232.2
