SAO LUIS EMBRACE-03 <238> 1 Min. Reported data

 DD MM YYYY  HH MM   D(Deg)  H(nT)   Z(nT)   I(Deg)   F(nT)

 26 08 2013  00 00  -21.0322 26012.1 -03478.7 -07.6172 26243.6
 26 08 2013  00 01  -21.0321 26012.1 -03478.7 -07.6172 26243.7
 26 08 2013  00 02  -21.0320 26012.2 -03478.7 -07.6173 26243.7
 26 08 2013  00 03  -21.0320 26012.2 -03478.8 -07.6173 26243.8
 26 08 2013  00 04  -21.0319 26012.2 -03478.8 -07.6174 26243.8
 26 08 2013  00 05  -21.0320 26012.3 -03478.8 -07.6174 26243.9
 26 08 2013  00 06  -21.0320 26012.4 -03478.9 -07.6175 26244.0
 26 08 2013  00 07  -21.0320 26012.4 -03478.9 -07.6175 26244.0
 26 08 2013  00 08  -21.0319 26012.4 -03478.9 -07.6175 26244.0
 26 08 2013  00 09  -21.0318 26012.3 -03478.8 -07.6174 26243.9
 26 08 2013  00 10  -21.0317 26012.3 -03478.9 -07.6174 26243.9
 26 08 2013  00 11  -21.0316 26012.4 -03478.9 -07.6175 26244.0
 26 08 2013  00 12  -21.0315 26012.5 -03478.9 -07.6176 26244.1
 26 08 2013  00 13  -21.0314 26012.6 -03479.0 -07.6176 26244.2
 26 08 2013  00 14  -21.0313 26012.7 -03479.0 -07.6177 26244.3
 26 08 2013  00 15  -21.0313 26012.9 -03479.1 -07.6178 26244.5
 26 08 2013  00 16  -21.0312 26013.2 -03479.2 -07.6179 26244.8
 26 08 2013  00 17  -21.0313 26013.2 -03479.3 -07.6181 26244.9
 26 08 2013  00 18  -21.0314 26013.4 -03479.3 -07.6181 26245.0
 26 08 2013  00 19  -21.0313 26013.5 -03479.3 -07.6182 26245.1
 26 08 2013  00 20  -21.0313 26013.6 -03479.3 -07.6181 26245.2
 26 08 2013  00 21  -21.0312 26013.5 -03479.3 -07.6180 26245.2
 26 08 2013  00 22  -21.0311 26013.4 -03479.2 -07.6179 26245.1
 26 08 2013  00 23  -21.0312 26013.4 -03479.2 -07.6178 26245.1
 26 08 2013  00 24  -21.0314 26013.5 -03479.2 -07.6178 26245.1
 26 08 2013  00 25  -21.0316 26013.6 -03479.2 -07.6179 26245.2
 26 08 2013  00 26  -21.0314 26013.7 -03479.2 -07.6179 26245.3
 26 08 2013  00 27  -21.0312 26013.9 -03479.3 -07.6180 26245.5
 26 08 2013  00 28  -21.0309 26014.3 -03479.5 -07.6183 26245.9
 26 08 2013  00 29  -21.0309 26014.6 -03479.7 -07.6185 26246.3
 26 08 2013  00 30  -21.0309 26014.8 -03479.8 -07.6187 26246.5
 26 08 2013  00 31  -21.0310 26014.9 -03479.8 -07.6187 26246.6
 26 08 2013  00 32  -21.0310 26015.0 -03479.8 -07.6186 26246.7
 26 08 2013  00 33  -21.0310 26014.8 -03479.7 -07.6185 26246.5
 26 08 2013  00 34  -21.0308 26014.6 -03479.5 -07.6181 26246.3
 26 08 2013  00 35  -21.0307 26014.5 -03479.4 -07.6180 26246.1
 26 08 2013  00 36  -21.0307 26014.4 -03479.3 -07.6179 26246.0
 26 08 2013  00 37  -21.0306 26014.5 -03479.3 -07.6178 26246.1
 26 08 2013  00 38  -21.0306 26014.6 -03479.4 -07.6180 26246.2
 26 08 2013  00 39  -21.0306 26014.7 -03479.5 -07.6181 26246.3
 26 08 2013  00 40  -21.0305 26014.8 -03479.5 -07.6182 26246.5
 26 08 2013  00 41  -21.0303 26015.0 -03479.5 -07.6182 26246.6
 26 08 2013  00 42  -21.0299 26015.2 -03479.6 -07.6183 26246.9
 26 08 2013  00 43  -21.0296 26015.4 -03479.7 -07.6185 26247.1
 26 08 2013  00 44  -21.0295 26015.6 -03479.8 -07.6185 26247.3
 26 08 2013  00 45  -21.0294 26015.7 -03479.9 -07.6187 26247.4
 26 08 2013  00 46  -21.0294 26015.9 -03479.9 -07.6188 26247.6
 26 08 2013  00 47  -21.0295 26016.0 -03479.9 -07.6187 26247.7
 26 08 2013  00 48  -21.0297 26015.9 -03479.9 -07.6186 26247.6
 26 08 2013  00 49  -21.0296 26015.7 -03479.7 -07.6184 26247.4
 26 08 2013  00 50  -21.0297 26015.6 -03479.6 -07.6182 26247.2
 26 08 2013  00 51  -21.0297 26015.4 -03479.5 -07.6180 26247.0
 26 08 2013  00 52  -21.0296 26015.3 -03479.4 -07.6178 26247.0
 26 08 2013  00 53  -21.0296 26015.2 -03479.4 -07.6178 26246.9
 26 08 2013  00 54  -21.0295 26015.2 -03479.3 -07.6176 26246.8
 26 08 2013  00 55  -21.0293 26015.1 -03479.3 -07.6176 26246.8
 26 08 2013  00 56  -21.0290 26015.0 -03479.2 -07.6175 26246.7
 26 08 2013  00 57  -21.0287 26014.9 -03479.2 -07.6174 26246.5
 26 08 2013  00 58  -21.0284 26014.7 -03479.1 -07.6172 26246.4
 26 08 2013  00 59  -21.0281 26014.7 -03479.1 -07.6173 26246.3
 26 08 2013  01 00  -21.0279 26014.7 -03479.1 -07.6173 26246.3
 26 08 2013  01 01  -21.0279 26014.7 -03479.1 -07.6173 26246.3
 26 08 2013  01 02  -21.0278 26014.7 -03479.1 -07.6173 26246.3
 26 08 2013  01 03  -21.0277 26014.6 -03479.1 -07.6173 26246.2
 26 08 2013  01 04  -21.0277 26014.5 -03479.1 -07.6173 26246.1
 26 08 2013  01 05  -21.0275 26014.4 -03479.0 -07.6172 26246.0
 26 08 2013  01 06  -21.0274 26014.3 -03479.0 -07.6172 26245.9
 26 08 2013  01 07  -21.0272 26014.3 -03479.0 -07.6172 26245.9
 26 08 2013  01 08  -21.0270 26014.4 -03479.0 -07.6173 26246.0
 26 08 2013  01 09  -21.0268 26014.5 -03479.1 -07.6173 26246.1
 26 08 2013  01 10  -21.0267 26014.4 -03479.1 -07.6173 26246.0
 26 08 2013  01 11  -21.0268 26014.4 -03479.1 -07.6175 26246.0
 26 08 2013  01 12  -21.0269 26014.4 -03479.1 -07.6174 26246.0
 26 08 2013  01 13  -21.0270 26014.4 -03479.2 -07.6175 26246.0
 26 08 2013  01 14  -21.0272 26014.4 -03479.2 -07.6176 26246.1
 26 08 2013  01 15  -21.0272 26014.5 -03479.2 -07.6177 26246.1
 26 08 2013  01 16  -21.0272 26014.7 -03479.3 -07.6178 26246.3
 26 08 2013  01 17  -21.0271 26015.0 -03479.5 -07.6180 26246.7
 26 08 2013  01 18  -21.0270 26015.3 -03479.6 -07.6183 26247.0
 26 08 2013  01 19  -21.0269 26015.6 -03479.8 -07.6185 26247.3
 26 08 2013  01 20  -21.0267 26016.0 -03479.9 -07.6188 26247.7
 26 08 2013  01 21  -21.0265 26016.3 -03480.1 -07.6190 26248.0
 26 08 2013  01 22  -21.0263 26016.5 -03480.2 -07.6191 26248.2
 26 08 2013  01 23  -21.0261 26016.7 -03480.2 -07.6191 26248.4
 26 08 2013  01 24  -21.0257 26016.8 -03480.2 -07.6191 26248.5
 26 08 2013  01 25  -21.0256 26017.0 -03480.3 -07.6192 26248.7
 26 08 2013  01 26  -21.0257 26017.0 -03480.3 -07.6192 26248.7
 26 08 2013  01 27  -21.0257 26016.9 -03480.2 -07.6191 26248.7
 26 08 2013  01 28  -21.0258 26016.9 -03480.2 -07.6189 26248.6
 26 08 2013  01 29  -21.0259 26016.6 -03480.0 -07.6187 26248.4
 26 08 2013  01 30  -21.0260 26016.4 -03479.9 -07.6184 26248.1
 26 08 2013  01 31  -21.0261 26016.1 -03479.7 -07.6181 26247.8
 26 08 2013  01 32  -21.0262 26015.9 -03479.5 -07.6179 26247.5
 26 08 2013  01 33  -21.0262 26015.6 -03479.4 -07.6176 26247.2
 26 08 2013  01 34  -21.0261 26015.2 -03479.2 -07.6173 26246.8
 26 08 2013  01 35  -21.0261 26014.7 -03478.9 -07.6169 26246.3
 26 08 2013  01 36  -21.0262 26014.3 -03478.7 -07.6166 26245.8
 26 08 2013  01 37  -21.0262 26014.0 -03478.6 -07.6165 26245.6
 26 08 2013  01 38  -21.0264 26013.9 -03478.6 -07.6164 26245.5
 26 08 2013  01 39  -21.0265 26013.8 -03478.6 -07.6165 26245.4
 26 08 2013  01 40  -21.0267 26014.0 -03478.7 -07.6166 26245.5
 26 08 2013  01 41  -21.0273 26014.2 -03478.9 -07.6170 26245.8
 26 08 2013  01 42  -21.0278 26014.4 -03479.1 -07.6173 26246.0
 26 08 2013  01 43  -21.0282 26014.5 -03479.1 -07.6174 26246.1
 26 08 2013  01 44  -21.0285 26014.6 -03479.2 -07.6174 26246.2
 26 08 2013  01 45  -21.0285 26014.6 -03479.1 -07.6174 26246.2
 26 08 2013  01 46  -21.0285 26014.6 -03479.2 -07.6174 26246.3
 26 08 2013  01 47  -21.0285 26014.6 -03479.1 -07.6174 26246.2
 26 08 2013  01 48  -21.0284 26014.5 -03479.1 -07.6173 26246.1
 26 08 2013  01 49  -21.0284 26014.3 -03479.0 -07.6172 26245.9
 26 08 2013  01 50  -21.0281 26014.2 -03478.9 -07.6170 26245.8
 26 08 2013  01 51  -21.0276 26014.2 -03478.9 -07.6169 26245.8
 26 08 2013  01 52  -21.0273 26014.3 -03479.0 -07.6171 26245.9
 26 08 2013  01 53  -21.0268 26014.4 -03479.0 -07.6172 26246.0
 26 08 2013  01 54  -21.0265 26014.5 -03479.1 -07.6173 26246.1
 26 08 2013  01 55  -21.0264 26014.4 -03479.1 -07.6174 26246.1
 26 08 2013  01 56  -21.0261 26014.3 -03479.1 -07.6174 26245.9
 26 08 2013  01 57  -21.0263 26014.4 -03479.1 -07.6175 26246.0
 26 08 2013  01 58  -21.0266 26014.4 -03479.2 -07.6176 26246.0
 26 08 2013  01 59  -21.0265 26014.4 -03479.2 -07.6177 26246.0
 26 08 2013  02 00  -21.0263 26014.5 -03479.2 -07.6176 26246.1
 26 08 2013  02 01  -21.0262 26014.6 -03479.3 -07.6177 26246.2
 26 08 2013  02 02  -21.0263 26014.6 -03479.4 -07.6179 26246.3
 26 08 2013  02 03  -21.0261 26014.7 -03479.4 -07.6179 26246.3
 26 08 2013  02 04  -21.0260 26014.8 -03479.4 -07.6179 26246.4
 26 08 2013  02 05  -21.0260 26015.1 -03479.6 -07.6182 26246.7
 26 08 2013  02 06  -21.0261 26015.3 -03479.7 -07.6184 26247.0
 26 08 2013  02 07  -21.0261 26015.6 -03479.8 -07.6186 26247.3
 26 08 2013  02 08  -21.0260 26015.8 -03479.9 -07.6187 26247.5
 26 08 2013  02 09  -21.0259 26016.0 -03479.9 -07.6187 26247.7
 26 08 2013  02 10  -21.0256 26016.2 -03480.0 -07.6189 26248.0
 26 08 2013  02 11  -21.0254 26016.5 -03480.1 -07.6190 26248.2
 26 08 2013  02 12  -21.0251 26016.6 -03480.1 -07.6189 26248.3
 26 08 2013  02 13  -21.0250 26016.6 -03480.1 -07.6189 26248.4
 26 08 2013  02 14  -21.0249 26016.6 -03480.1 -07.6189 26248.3
 26 08 2013  02 15  -21.0250 26016.5 -03480.1 -07.6189 26248.2
 26 08 2013  02 16  -21.0251 26016.4 -03480.0 -07.6187 26248.1
 26 08 2013  02 17  -21.0253 26016.5 -03480.0 -07.6187 26248.2
 26 08 2013  02 18  -21.0255 26016.5 -03480.0 -07.6188 26248.2
 26 08 2013  02 19  -21.0254 26016.7 -03480.1 -07.6188 26248.4
 26 08 2013  02 20  -21.0252 26016.8 -03480.1 -07.6189 26248.5
 26 08 2013  02 21  -21.0251 26016.8 -03480.1 -07.6188 26248.5
 26 08 2013  02 22  -21.0248 26016.8 -03480.1 -07.6188 26248.6
 26 08 2013  02 23  -21.0247 26017.0 -03480.2 -07.6189 26248.7
 26 08 2013  02 24  -21.0246 26017.2 -03480.3 -07.6191 26248.9
 26 08 2013  02 25  -21.0246 26017.1 -03480.2 -07.6190 26248.9
 26 08 2013  02 26  -21.0245 26017.2 -03480.2 -07.6190 26248.9
 26 08 2013  02 27  -21.0244 26017.2 -03480.2 -07.6189 26248.9
 26 08 2013  02 28  -21.0241 26017.2 -03480.2 -07.6189 26249.0
 26 08 2013  02 29  -21.0240 26017.2 -03480.2 -07.6188 26248.9
 26 08 2013  02 30  -21.0238 26017.2 -03480.1 -07.6188 26248.9
 26 08 2013  02 31  -21.0235 26017.2 -03480.1 -07.6187 26248.9
 26 08 2013  02 32  -21.0232 26017.2 -03480.1 -07.6187 26249.0
 26 08 2013  02 33  -21.0228 26017.2 -03480.1 -07.6188 26249.0
 26 08 2013  02 34  -21.0225 26017.4 -03480.2 -07.6189 26249.2
 26 08 2013  02 35  -21.0223 26017.5 -03480.3 -07.6191 26249.3
 26 08 2013  02 36  -21.0223 26017.8 -03480.5 -07.6193 26249.6
 26 08 2013  02 37  -21.0224 26018.1 -03480.6 -07.6195 26249.8
 26 08 2013  02 38  -21.0225 26018.4 -03480.7 -07.6197 26250.2
 26 08 2013  02 39  -21.0226 26018.6 -03480.8 -07.6199 26250.4
 26 08 2013  02 40  -21.0226 26018.6 -03480.8 -07.6199 26250.4
 26 08 2013  02 41  -21.0226 26018.5 -03480.7 -07.6196 26250.3
 26 08 2013  02 42  -21.0227 26018.4 -03480.6 -07.6194 26250.1
 26 08 2013  02 43  -21.0226 26018.4 -03480.5 -07.6193 26250.1
 26 08 2013  02 44  -21.0227 26018.3 -03480.4 -07.6192 26250.1
 26 08 2013  02 45  -21.0228 26018.2 -03480.4 -07.6191 26250.0
 26 08 2013  02 46  -21.0229 26018.1 -03480.3 -07.6190 26249.9
 26 08 2013  02 47  -21.0230 26018.0 -03480.3 -07.6189 26249.8
 26 08 2013  02 48  -21.0233 26017.9 -03480.2 -07.6187 26249.6
 26 08 2013  02 49  -21.0235 26017.9 -03480.2 -07.6187 26249.6
 26 08 2013  02 50  -21.0238 26017.9 -03480.2 -07.6187 26249.6
 26 08 2013  02 51  -21.0240 26017.9 -03480.2 -07.6187 26249.6
 26 08 2013  02 52  -21.0242 26017.8 -03480.1 -07.6186 26249.5
 26 08 2013  02 53  -21.0243 26017.9 -03480.2 -07.6187 26249.6
 26 08 2013  02 54  -21.0244 26018.1 -03480.2 -07.6187 26249.9
 26 08 2013  02 55  -21.0245 26018.4 -03480.3 -07.6189 26250.1
 26 08 2013  02 56  -21.0246 26018.5 -03480.4 -07.6190 26250.3
 26 08 2013  02 57  -21.0244 26018.6 -03480.4 -07.6190 26250.3
 26 08 2013  02 58  -21.0243 26018.5 -03480.4 -07.6189 26250.3
 26 08 2013  02 59  -21.0243 26018.4 -03480.3 -07.6188 26250.1
 26 08 2013  03 00  -21.0242 26018.1 -03480.1 -07.6184 26249.8
 26 08 2013  03 01  -21.0242 26017.9 -03480.0 -07.6182 26249.5
 26 08 2013  03 02  -21.0242 26017.8 -03479.9 -07.6182 26249.5
 26 08 2013  03 03  -21.0242 26017.9 -03480.0 -07.6183 26249.6
 26 08 2013  03 04  -21.0242 26017.9 -03480.0 -07.6183 26249.6
 26 08 2013  03 05  -21.0242 26017.9 -03480.0 -07.6184 26249.6
 26 08 2013  03 06  -21.0242 26018.0 -03480.1 -07.6185 26249.7
 26 08 2013  03 07  -21.0242 26018.1 -03480.2 -07.6186 26249.9
 26 08 2013  03 08  -21.0241 26018.3 -03480.3 -07.6188 26250.1
 26 08 2013  03 09  -21.0242 26018.5 -03480.3 -07.6189 26250.2
 26 08 2013  03 10  -21.0243 26018.6 -03480.4 -07.6190 26250.4
 26 08 2013  03 11  -21.0243 26018.7 -03480.5 -07.6191 26250.5
 26 08 2013  03 12  -21.0242 26018.7 -03480.5 -07.6191 26250.5
 26 08 2013  03 13  -21.0244 26018.6 -03480.4 -07.6190 26250.3
 26 08 2013  03 14  -21.0246 26018.5 -03480.3 -07.6189 26250.2
 26 08 2013  03 15  -21.0250 26018.4 -03480.3 -07.6188 26250.1
 26 08 2013  03 16  -21.0252 26018.3 -03480.2 -07.6187 26250.0
 26 08 2013  03 17  -21.0253 26018.1 -03480.1 -07.6186 26249.8
 26 08 2013  03 18  -21.0254 26018.1 -03480.1 -07.6184 26249.8
 26 08 2013  03 19  -21.0255 26017.9 -03480.0 -07.6183 26249.6
 26 08 2013  03 20  -21.0256 26017.9 -03480.0 -07.6184 26249.6
 26 08 2013  03 21  -21.0254 26017.8 -03480.0 -07.6183 26249.5
 26 08 2013  03 22  -21.0253 26017.6 -03479.9 -07.6181 26249.3
 26 08 2013  03 23  -21.0252 26017.5 -03479.8 -07.6179 26249.2
 26 08 2013  03 24  -21.0250 26017.4 -03479.8 -07.6180 26249.1
 26 08 2013  03 25  -21.0249 26017.4 -03479.8 -07.6180 26249.0
 26 08 2013  03 26  -21.0248 26017.4 -03479.8 -07.6180 26249.1
 26 08 2013  03 27  -21.0249 26017.5 -03479.9 -07.6182 26249.2
 26 08 2013  03 28  -21.0248 26017.6 -03479.9 -07.6183 26249.3
 26 08 2013  03 29  -21.0247 26017.7 -03480.0 -07.6184 26249.4
 26 08 2013  03 30  -21.0247 26017.8 -03480.1 -07.6185 26249.5
 26 08 2013  03 31  -21.0249 26018.0 -03480.2 -07.6187 26249.7
 26 08 2013  03 32  -21.0251 26018.0 -03480.2 -07.6188 26249.7
 26 08 2013  03 33  -21.0250 26018.0 -03480.2 -07.6188 26249.7
 26 08 2013  03 34  -21.0251 26017.9 -03480.1 -07.6186 26249.6
 26 08 2013  03 35  -21.0251 26017.9 -03480.1 -07.6186 26249.6
 26 08 2013  03 36  -21.0253 26017.8 -03480.1 -07.6186 26249.5
 26 08 2013  03 37  -21.0254 26017.8 -03480.1 -07.6185 26249.5
 26 08 2013  03 38  -21.0255 26017.8 -03480.1 -07.6185 26249.5
 26 08 2013  03 39  -21.0256 26017.7 -03480.0 -07.6183 26249.4
 26 08 2013  03 40  -21.0258 26017.6 -03479.9 -07.6182 26249.3
 26 08 2013  03 41  -21.0258 26017.6 -03479.9 -07.6181 26249.2
 26 08 2013  03 42  -21.0259 26017.5 -03479.8 -07.6181 26249.2
 26 08 2013  03 43  -21.0261 26017.4 -03479.8 -07.6181 26249.1
 26 08 2013  03 44  -21.0262 26017.3 -03479.8 -07.6180 26249.0
 26 08 2013  03 45  -21.0260 26017.2 -03479.7 -07.6178 26248.9
 26 08 2013  03 46  -21.0258 26017.2 -03479.7 -07.6178 26248.8
 26 08 2013  03 47  -21.0256 26017.2 -03479.7 -07.6179 26248.9
 26 08 2013  03 48  -21.0254 26017.2 -03479.7 -07.6179 26248.9
 26 08 2013  03 49  -21.0253 26017.3 -03479.8 -07.6180 26249.0
 26 08 2013  03 50  -21.0253 26017.3 -03479.8 -07.6181 26249.0
 26 08 2013  03 51  -21.0253 26017.4 -03479.9 -07.6182 26249.1
 26 08 2013  03 52  -21.0253 26017.3 -03479.8 -07.6181 26249.0
 26 08 2013  03 53  -21.0252 26017.4 -03479.9 -07.6182 26249.1
 26 08 2013  03 54  -21.0251 26017.4 -03479.9 -07.6182 26249.1
 26 08 2013  03 55  -21.0250 26017.5 -03479.9 -07.6183 26249.2
 26 08 2013  03 56  -21.0251 26017.5 -03479.9 -07.6183 26249.2
 26 08 2013  03 57  -21.0252 26017.5 -03480.0 -07.6184 26249.2
 26 08 2013  03 58  -21.0252 26017.6 -03480.0 -07.6184 26249.3
 26 08 2013  03 59  -21.0251 26017.6 -03480.0 -07.6184 26249.4
 26 08 2013  04 00  -21.0249 26017.6 -03480.0 -07.6184 26249.3
 26 08 2013  04 01  -21.0247 26017.6 -03480.0 -07.6184 26249.3
 26 08 2013  04 02  -21.0244 26017.7 -03480.0 -07.6184 26249.4
 26 08 2013  04 03  -21.0242 26017.7 -03480.0 -07.6184 26249.4
 26 08 2013  04 04  -21.0239 26017.8 -03480.1 -07.6185 26249.5
 26 08 2013  04 05  -21.0238 26017.8 -03480.1 -07.6186 26249.5
 26 08 2013  04 06  -21.0237 26017.9 -03480.2 -07.6187 26249.7
 26 08 2013  04 07  -21.0234 26018.0 -03480.2 -07.6187 26249.7
 26 08 2013  04 08  -21.0231 26018.1 -03480.2 -07.6187 26249.8
 26 08 2013  04 09  -21.0228 26018.1 -03480.2 -07.6187 26249.8
 26 08 2013  04 10  -21.0225 26018.2 -03480.3 -07.6188 26250.0
 26 08 2013  04 11  -21.0226 26018.4 -03480.4 -07.6191 26250.2
 26 08 2013  04 12  -21.0228 26018.6 -03480.5 -07.6192 26250.3
 26 08 2013  04 13  -21.0229 26018.7 -03480.5 -07.6193 26250.4
 26 08 2013  04 14  -21.0230 26018.8 -03480.5 -07.6192 26250.6
 26 08 2013  04 15  -21.0230 26018.9 -03480.6 -07.6193 26250.7
 26 08 2013  04 16  -21.0231 26019.0 -03480.6 -07.6194 26250.8
 26 08 2013  04 17  -21.0229 26019.1 -03480.6 -07.6193 26250.8
 26 08 2013  04 18  -21.0225 26019.1 -03480.6 -07.6193 26250.9
 26 08 2013  04 19  -21.0224 26019.1 -03480.6 -07.6192 26250.9
 26 08 2013  04 20  -21.0225 26019.1 -03480.6 -07.6192 26250.9
 26 08 2013  04 21  -21.0225 26019.1 -03480.6 -07.6192 26250.9
 26 08 2013  04 22  -21.0226 26019.0 -03480.5 -07.6191 26250.8
 26 08 2013  04 23  -21.0228 26019.1 -03480.5 -07.6191 26250.8
 26 08 2013  04 24  -21.0230 26019.1 -03480.5 -07.6191 26250.9
 26 08 2013  04 25  -21.0232 26019.1 -03480.5 -07.6191 26250.9
 26 08 2013  04 26  -21.0234 26019.1 -03480.6 -07.6191 26250.9
 26 08 2013  04 27  -21.0235 26019.2 -03480.5 -07.6191 26251.0
 26 08 2013  04 28  -21.0237 26019.3 -03480.6 -07.6191 26251.0
 26 08 2013  04 29  -21.0239 26019.4 -03480.6 -07.6192 26251.2
 26 08 2013  04 30  -21.0241 26019.6 -03480.7 -07.6194 26251.3
 26 08 2013  04 31  -21.0242 26019.7 -03480.7 -07.6194 26251.5
 26 08 2013  04 32  -21.0243 26019.8 -03480.8 -07.6194 26251.6
 26 08 2013  04 33  -21.0244 26019.8 -03480.7 -07.6193 26251.6
 26 08 2013  04 34  -21.0244 26019.8 -03480.7 -07.6193 26251.6
 26 08 2013  04 35  -21.0245 26019.8 -03480.7 -07.6192 26251.5
 26 08 2013  04 36  -21.0246 26019.8 -03480.6 -07.6191 26251.5
 26 08 2013  04 37  -21.0247 26019.7 -03480.6 -07.6191 26251.4
 26 08 2013  04 38  -21.0248 26019.6 -03480.5 -07.6190 26251.4
 26 08 2013  04 39  -21.0248 26019.6 -03480.5 -07.6189 26251.3
 26 08 2013  04 40  -21.0249 26019.6 -03480.4 -07.6188 26251.3
 26 08 2013  04 41  -21.0249 26019.5 -03480.4 -07.6187 26251.3
 26 08 2013  04 42  -21.0249 26019.5 -03480.4 -07.6187 26251.2
 26 08 2013  04 43  -21.0250 26019.5 -03480.4 -07.6186 26251.2
 26 08 2013  04 44  -21.0250 26019.5 -03480.4 -07.6186 26251.2
 26 08 2013  04 45  -21.0249 26019.5 -03480.4 -07.6186 26251.2
 26 08 2013  04 46  -21.0247 26019.6 -03480.4 -07.6186 26251.3
 26 08 2013  04 47  -21.0246 26019.6 -03480.4 -07.6186 26251.4
 26 08 2013  04 48  -21.0244 26019.7 -03480.4 -07.6187 26251.4
 26 08 2013  04 49  -21.0245 26019.7 -03480.5 -07.6188 26251.5
 26 08 2013  04 50  -21.0246 26019.9 -03480.5 -07.6188 26251.6
 26 08 2013  04 51  -21.0248 26019.9 -03480.5 -07.6189 26251.7
 26 08 2013  04 52  -21.0249 26020.0 -03480.6 -07.6190 26251.8
 26 08 2013  04 53  -21.0250 26020.0 -03480.6 -07.6189 26251.8
 26 08 2013  04 54  -21.0250 26020.0 -03480.6 -07.6189 26251.8
 26 08 2013  04 55  -21.0250 26020.1 -03480.6 -07.6189 26251.8
 26 08 2013  04 56  -21.0249 26020.3 -03480.6 -07.6190 26252.0
 26 08 2013  04 57  -21.0249 26020.4 -03480.7 -07.6191 26252.2
 26 08 2013  04 58  -21.0248 26020.5 -03480.7 -07.6192 26252.3
 26 08 2013  04 59  -21.0247 26020.5 -03480.7 -07.6191 26252.3
 26 08 2013  05 00  -21.0246 26020.5 -03480.6 -07.6190 26252.2
 26 08 2013  05 01  -21.0246 26020.4 -03480.6 -07.6189 26252.2
 26 08 2013  05 02  -21.0247 26020.4 -03480.6 -07.6188 26252.1
 26 08 2013  05 03  -21.0247 26020.4 -03480.5 -07.6187 26252.1
 26 08 2013  05 04  -21.0247 26020.3 -03480.5 -07.6187 26252.1
 26 08 2013  05 05  -21.0246 26020.3 -03480.5 -07.6187 26252.0
 26 08 2013  05 06  -21.0245 26020.3 -03480.5 -07.6186 26252.0
 26 08 2013  05 07  -21.0245 26020.2 -03480.4 -07.6186 26251.9
 26 08 2013  05 08  -21.0245 26020.1 -03480.4 -07.6186 26251.9
 26 08 2013  05 09  -21.0245 26020.0 -03480.4 -07.6185 26251.8
 26 08 2013  05 10  -21.0245 26019.9 -03480.3 -07.6185 26251.6
 26 08 2013  05 11  -21.0246 26019.8 -03480.3 -07.6184 26251.5
 26 08 2013  05 12  -21.0246 26019.6 -03480.2 -07.6183 26251.3
 26 08 2013  05 13  -21.0246 26019.5 -03480.1 -07.6182 26251.2
 26 08 2013  05 14  -21.0247 26019.3 -03480.1 -07.6181 26251.0
 26 08 2013  05 15  -21.0248 26019.2 -03480.0 -07.6180 26250.9
 26 08 2013  05 16  -21.0249 26019.1 -03480.0 -07.6179 26250.8
 26 08 2013  05 17  -21.0251 26019.0 -03479.9 -07.6179 26250.7
 26 08 2013  05 18  -21.0252 26018.9 -03479.9 -07.6178 26250.6
 26 08 2013  05 19  -21.0252 26018.8 -03479.9 -07.6178 26250.5
 26 08 2013  05 20  -21.0253 26018.7 -03479.9 -07.6178 26250.4
 26 08 2013  05 21  -21.0253 26018.7 -03479.9 -07.6178 26250.3
 26 08 2013  05 22  -21.0253 26018.5 -03479.8 -07.6177 26250.2
 26 08 2013  05 23  -21.0252 26018.5 -03479.8 -07.6177 26250.2
 26 08 2013  05 24  -21.0250 26018.5 -03479.8 -07.6177 26250.2
 26 08 2013  05 25  -21.0247 26018.6 -03479.8 -07.6178 26250.2
 26 08 2013  05 26  -21.0243 26018.6 -03479.8 -07.6178 26250.3
 26 08 2013  05 27  -21.0238 26018.7 -03480.0 -07.6180 26250.4
 26 08 2013  05 28  -21.0234 26018.8 -03480.0 -07.6181 26250.5
 26 08 2013  05 29  -21.0231 26018.9 -03480.1 -07.6183 26250.6
 26 08 2013  05 30  -21.0228 26019.0 -03480.2 -07.6184 26250.7
 26 08 2013  05 31  -21.0227 26019.1 -03480.3 -07.6185 26250.8
 26 08 2013  05 32  -21.0226 26019.2 -03480.3 -07.6186 26251.0
 26 08 2013  05 33  -21.0226 26019.4 -03480.4 -07.6188 26251.1
 26 08 2013  05 34  -21.0227 26019.5 -03480.5 -07.6190 26251.3
 26 08 2013  05 35  -21.0230 26019.7 -03480.7 -07.6193 26251.5
 26 08 2013  05 36  -21.0233 26019.8 -03480.7 -07.6193 26251.6
 26 08 2013  05 37  -21.0237 26020.0 -03480.8 -07.6195 26251.8
 26 08 2013  05 38  -21.0237 26020.1 -03480.8 -07.6194 26251.8
 26 08 2013  05 39  -21.0237 26020.1 -03480.8 -07.6194 26251.9
 26 08 2013  05 40  -21.0234 26020.0 -03480.7 -07.6192 26251.8
 26 08 2013  05 41  -21.0231 26020.0 -03480.7 -07.6192 26251.8
 26 08 2013  05 42  -21.0229 26020.0 -03480.7 -07.6191 26251.8
 26 08 2013  05 43  -21.0226 26020.0 -03480.7 -07.6191 26251.8
 26 08 2013  05 44  -21.0225 26020.0 -03480.7 -07.6192 26251.8
 26 08 2013  05 45  -21.0224 26020.1 -03480.7 -07.6192 26251.9
 26 08 2013  05 46  -21.0223 26020.0 -03480.7 -07.6192 26251.8
 26 08 2013  05 47  -21.0220 26020.1 -03480.7 -07.6193 26251.8
 26 08 2013  05 48  -21.0218 26020.1 -03480.7 -07.6193 26251.9
 26 08 2013  05 49  -21.0217 26020.0 -03480.7 -07.6193 26251.8
 26 08 2013  05 50  -21.0215 26020.0 -03480.7 -07.6192 26251.8
 26 08 2013  05 51  -21.0215 26020.0 -03480.7 -07.6193 26251.8
 26 08 2013  05 52  -21.0216 26020.0 -03480.8 -07.6194 26251.8
 26 08 2013  05 53  -21.0215 26020.0 -03480.8 -07.6194 26251.8
 26 08 2013  05 54  -21.0215 26020.0 -03480.8 -07.6194 26251.8
 26 08 2013  05 55  -21.0216 26020.0 -03480.8 -07.6194 26251.8
 26 08 2013  05 56  -21.0218 26020.1 -03480.9 -07.6196 26251.9
 26 08 2013  05 57  -21.0220 26020.1 -03480.9 -07.6196 26251.9
 26 08 2013  05 58  -21.0222 26020.1 -03480.9 -07.6196 26251.9
 26 08 2013  05 59  -21.0224 26020.0 -03480.9 -07.6196 26251.8
 26 08 2013  06 00  -21.0226 26020.1 -03480.9 -07.6196 26251.9
 26 08 2013  06 01  -21.0227 26020.1 -03480.9 -07.6196 26251.9
 26 08 2013  06 02  -21.0227 26020.1 -03480.9 -07.6196 26251.9
 26 08 2013  06 03  -21.0228 26020.3 -03481.0 -07.6197 26252.1
 26 08 2013  06 04  -21.0228 26020.3 -03480.9 -07.6196 26252.1
 26 08 2013  06 05  -21.0229 26020.3 -03480.9 -07.6196 26252.1
 26 08 2013  06 06  -21.0229 26020.3 -03480.9 -07.6196 26252.1
 26 08 2013  06 07  -21.0231 26020.3 -03480.9 -07.6196 26252.1
 26 08 2013  06 08  -21.0232 26020.4 -03480.9 -07.6196 26252.2
 26 08 2013  06 09  -21.0233 26020.3 -03480.9 -07.6195 26252.1
 26 08 2013  06 10  -21.0234 26020.4 -03480.9 -07.6195 26252.2
 26 08 2013  06 11  -21.0235 26020.4 -03480.9 -07.6195 26252.2
 26 08 2013  06 12  -21.0235 26020.4 -03480.9 -07.6196 26252.2
 26 08 2013  06 13  -21.0235 26020.4 -03480.9 -07.6196 26252.2
 26 08 2013  06 14  -21.0235 26020.4 -03480.9 -07.6195 26252.2
 26 08 2013  06 15  -21.0234 26020.5 -03480.9 -07.6195 26252.3
 26 08 2013  06 16  -21.0235 26020.5 -03480.9 -07.6196 26252.3
 26 08 2013  06 17  -21.0234 26020.5 -03480.9 -07.6195 26252.3
 26 08 2013  06 18  -21.0233 26020.6 -03480.9 -07.6195 26252.4
 26 08 2013  06 19  -21.0233 26020.7 -03481.0 -07.6196 26252.5
 26 08 2013  06 20  -21.0231 26020.8 -03481.0 -07.6196 26252.6
 26 08 2013  06 21  -21.0232 26020.8 -03481.1 -07.6198 26252.7
 26 08 2013  06 22  -21.0230 26021.0 -03481.1 -07.6199 26252.8
 26 08 2013  06 23  -21.0230 26020.9 -03481.1 -07.6199 26252.7
 26 08 2013  06 24  -21.0229 26021.1 -03481.2 -07.6199 26252.9
 26 08 2013  06 25  -21.0229 26021.0 -03481.2 -07.6199 26252.8
 26 08 2013  06 26  -21.0229 26021.1 -03481.2 -07.6200 26252.9
 26 08 2013  06 27  -21.0227 26021.1 -03481.2 -07.6200 26252.9
 26 08 2013  06 28  -21.0226 26021.1 -03481.2 -07.6200 26252.9
 26 08 2013  06 29  -21.0226 26021.1 -03481.2 -07.6200 26253.0
 26 08 2013  06 30  -21.0225 26021.2 -03481.3 -07.6201 26253.1
 26 08 2013  06 31  -21.0224 26021.3 -03481.3 -07.6201 26253.2
 26 08 2013  06 32  -21.0223 26021.4 -03481.3 -07.6202 26253.2
 26 08 2013  06 33  -21.0220 26021.5 -03481.4 -07.6203 26253.4
 26 08 2013  06 34  -21.0219 26021.7 -03481.5 -07.6205 26253.5
 26 08 2013  06 35  -21.0218 26021.9 -03481.6 -07.6206 26253.8
 26 08 2013  06 36  -21.0220 26022.1 -03481.7 -07.6208 26254.0
 26 08 2013  06 37  -21.0219 26022.3 -03481.8 -07.6209 26254.2
 26 08 2013  06 38  -21.0217 26022.3 -03481.8 -07.6208 26254.2
 26 08 2013  06 39  -21.0218 26022.5 -03481.9 -07.6211 26254.4
 26 08 2013  06 40  -21.0215 26022.9 -03482.0 -07.6212 26254.8
 26 08 2013  06 41  -21.0216 26022.8 -03482.0 -07.6212 26254.7
 26 08 2013  06 42  -21.0214 26023.0 -03482.1 -07.6213 26254.9
 26 08 2013  06 43  -21.0212 26023.1 -03482.0 -07.6212 26255.0
 26 08 2013  06 44  -21.0212 26023.2 -03482.1 -07.6214 26255.1
 26 08 2013  06 45  -21.0210 26023.4 -03482.2 -07.6215 26255.3
 26 08 2013  06 46  -21.0210 26023.3 -03482.2 -07.6214 26255.3
 26 08 2013  06 47  -21.0209 26023.4 -03482.2 -07.6215 26255.4
 26 08 2013  06 48  -21.0208 26023.5 -03482.2 -07.6215 26255.4
 26 08 2013  06 49  -21.0207 26023.4 -03482.1 -07.6214 26255.3
 26 08 2013  06 50  -21.0204 26023.5 -03482.2 -07.6214 26255.4
 26 08 2013  06 51  -21.0203 26023.5 -03482.2 -07.6214 26255.5
 26 08 2013  06 52  -21.0202 26023.6 -03482.2 -07.6215 26255.6
 26 08 2013  06 53  -21.0201 26023.7 -03482.3 -07.6216 26255.6
 26 08 2013  06 54  -21.0200 26023.8 -03482.3 -07.6216 26255.7
 26 08 2013  06 55  -21.0198 26024.0 -03482.4 -07.6217 26255.9
 26 08 2013  06 56  -21.0196 26024.1 -03482.5 -07.6219 26256.1
 26 08 2013  06 57  -21.0195 26024.3 -03482.6 -07.6221 26256.3
 26 08 2013  06 58  -21.0196 26024.3 -03482.6 -07.6221 26256.3
 26 08 2013  06 59  -21.0197 26024.5 -03482.7 -07.6222 26256.5
 26 08 2013  07 00  -21.0197 26024.6 -03482.7 -07.6222 26256.6
 26 08 2013  07 01  -21.0198 26024.7 -03482.8 -07.6223 26256.7
 26 08 2013  07 02  -21.0197 26024.8 -03482.7 -07.6222 26256.8
 26 08 2013  07 03  -21.0197 26024.8 -03482.7 -07.6222 26256.8
 26 08 2013  07 04  -21.0197 26024.9 -03482.7 -07.6222 26256.9
 26 08 2013  07 05  -21.0197 26024.9 -03482.7 -07.6222 26256.9
 26 08 2013  07 06  -21.0198 26024.9 -03482.7 -07.6221 26256.9
 26 08 2013  07 07  -21.0197 26024.9 -03482.6 -07.6220 26256.8
 26 08 2013  07 08  -21.0196 26024.8 -03482.6 -07.6219 26256.8
 26 08 2013  07 09  -21.0194 26024.8 -03482.5 -07.6218 26256.8
 26 08 2013  07 10  -21.0193 26024.7 -03482.5 -07.6217 26256.7
 26 08 2013  07 11  -21.0190 26024.9 -03482.5 -07.6217 26256.8
 26 08 2013  07 12  -21.0187 26024.7 -03482.4 -07.6216 26256.6
 26 08 2013  07 13  -21.0184 26024.8 -03482.5 -07.6216 26256.8
 26 08 2013  07 14  -21.0184 26024.8 -03482.5 -07.6217 26256.8
 26 08 2013  07 15  -21.0183 26024.6 -03482.4 -07.6215 26256.6
 26 08 2013  07 16  -21.0178 26024.5 -03482.3 -07.6213 26256.4
 26 08 2013  07 17  -21.0170 26024.3 -03482.2 -07.6211 26256.2
 26 08 2013  07 18  -21.0162 26024.0 -03482.0 -07.6210 26256.0
 26 08 2013  07 19  -21.0155 26024.0 -03482.0 -07.6209 26255.9
 26 08 2013  07 20  -21.0147 26023.8 -03482.0 -07.6208 26255.7
 26 08 2013  07 21  -21.0140 26023.6 -03481.9 -07.6208 26255.5
 26 08 2013  07 22  -21.0135 26023.6 -03482.0 -07.6210 26255.5
 26 08 2013  07 23  -21.0137 26023.6 -03482.1 -07.6212 26255.5
 26 08 2013  07 24  -21.0142 26023.6 -03482.3 -07.6215 26255.6
 26 08 2013  07 25  -21.0146 26024.0 -03482.5 -07.6219 26255.9
 26 08 2013  07 26  -21.0150 26024.1 -03482.6 -07.6220 26256.1
 26 08 2013  07 27  -21.0151 26024.2 -03482.6 -07.6221 26256.2
 26 08 2013  07 28  -21.0149 26024.3 -03482.6 -07.6220 26256.3
 26 08 2013  07 29  -21.0146 26024.3 -03482.5 -07.6219 26256.2
 26 08 2013  07 30  -21.0144 26024.2 -03482.5 -07.6218 26256.2
 26 08 2013  07 31  -21.0144 26024.4 -03482.6 -07.6219 26256.4
 26 08 2013  07 32  -21.0146 26024.7 -03482.6 -07.6220 26256.7
 26 08 2013  07 33  -21.0148 26024.8 -03482.7 -07.6222 26256.8
 26 08 2013  07 34  -21.0148 26025.0 -03482.7 -07.6221 26257.0
 26 08 2013  07 35  -21.0151 26025.1 -03482.8 -07.6222 26257.1
 26 08 2013  07 36  -21.0151 26025.3 -03482.8 -07.6223 26257.3
 26 08 2013  07 37  -21.0151 26025.2 -03482.8 -07.6222 26257.2
 26 08 2013  07 38  -21.0153 26025.3 -03482.7 -07.6221 26257.3
 26 08 2013  07 39  -21.0155 26025.4 -03482.8 -07.6221 26257.4
 26 08 2013  07 40  -21.0156 26025.5 -03482.7 -07.6221 26257.5
 26 08 2013  07 41  -21.0157 26025.5 -03482.8 -07.6221 26257.5
 26 08 2013  07 42  -21.0157 26025.6 -03482.8 -07.6221 26257.6
 26 08 2013  07 43  -21.0158 26025.7 -03482.8 -07.6222 26257.7
 26 08 2013  07 44  -21.0158 26025.8 -03482.8 -07.6222 26257.8
 26 08 2013  07 45  -21.0158 26025.8 -03482.8 -07.6221 26257.8
 26 08 2013  07 46  -21.0157 26025.8 -03482.8 -07.6221 26257.8
 26 08 2013  07 47  -21.0156 26025.8 -03482.8 -07.6221 26257.8
 26 08 2013  07 48  -21.0155 26025.7 -03482.7 -07.6220 26257.7
 26 08 2013  07 49  -21.0154 26025.7 -03482.7 -07.6220 26257.7
 26 08 2013  07 50  -21.0152 26025.6 -03482.7 -07.6219 26257.6
 26 08 2013  07 51  -21.0150 26025.7 -03482.7 -07.6218 26257.6
 26 08 2013  07 52  -21.0149 26025.6 -03482.7 -07.6219 26257.6
 26 08 2013  07 53  -21.0150 26025.6 -03482.7 -07.6220 26257.6
 26 08 2013  07 54  -21.0151 26025.7 -03482.8 -07.6221 26257.7
 26 08 2013  07 55  -21.0154 26025.9 -03482.9 -07.6223 26257.9
 26 08 2013  07 56  -21.0153 26025.9 -03482.8 -07.6222 26257.9
 26 08 2013  07 57  -21.0152 26025.8 -03482.8 -07.6221 26257.8
 26 08 2013  07 58  -21.0151 26025.7 -03482.7 -07.6219 26257.7
 26 08 2013  07 59  -21.0149 26025.6 -03482.7 -07.6220 26257.6
 26 08 2013  08 00  -21.0147 26025.6 -03482.7 -07.6219 26257.6
 26 08 2013  08 01  -21.0146 26025.7 -03482.7 -07.6219 26257.7
 26 08 2013  08 02  -21.0145 26025.6 -03482.7 -07.6219 26257.6
 26 08 2013  08 03  -21.0143 26025.7 -03482.7 -07.6219 26257.7
 26 08 2013  08 04  -21.0142 26025.7 -03482.7 -07.6218 26257.7
 26 08 2013  08 05  -21.0140 26025.7 -03482.7 -07.6219 26257.7
 26 08 2013  08 06  -21.0137 26025.8 -03482.7 -07.6218 26257.8
 26 08 2013  08 07  -21.0136 26025.8 -03482.7 -07.6218 26257.8
 26 08 2013  08 08  -21.0135 26025.8 -03482.7 -07.6219 26257.8
 26 08 2013  08 09  -21.0132 26025.8 -03482.7 -07.6219 26257.8
 26 08 2013  08 10  -21.0131 26025.7 -03482.7 -07.6219 26257.7
 26 08 2013  08 11  -21.0131 26025.8 -03482.7 -07.6219 26257.8
 26 08 2013  08 12  -21.0131 26025.8 -03482.7 -07.6220 26257.8
 26 08 2013  08 13  -21.0131 26025.9 -03482.8 -07.6221 26257.9
 26 08 2013  08 14  -21.0130 26025.8 -03482.8 -07.6220 26257.8
 26 08 2013  08 15  -21.0129 26026.0 -03482.8 -07.6221 26258.0
 26 08 2013  08 16  -21.0128 26025.8 -03482.7 -07.6219 26257.8
 26 08 2013  08 17  -21.0126 26025.7 -03482.6 -07.6217 26257.7
 26 08 2013  08 18  -21.0123 26025.8 -03482.7 -07.6219 26257.8
 26 08 2013  08 19  -21.0120 26025.8 -03482.7 -07.6218 26257.8
 26 08 2013  08 20  -21.0117 26025.7 -03482.7 -07.6219 26257.7
 26 08 2013  08 21  -21.0115 26025.8 -03482.7 -07.6219 26257.8
 26 08 2013  08 22  -21.0114 26025.9 -03482.8 -07.6221 26257.9
 26 08 2013  08 23  -21.0111 26025.9 -03482.8 -07.6221 26257.9
 26 08 2013  08 24  -21.0109 26025.9 -03482.8 -07.6221 26257.9
 26 08 2013  08 25  -21.0106 26025.9 -03482.8 -07.6221 26257.9
 26 08 2013  08 26  -21.0105 26025.9 -03482.8 -07.6221 26257.9
 26 08 2013  08 27  -21.0102 26025.8 -03482.8 -07.6222 26257.9
 26 08 2013  08 28  -21.0100 26025.9 -03482.9 -07.6222 26257.9
 26 08 2013  08 29  -21.0098 26026.0 -03482.9 -07.6223 26258.0
 26 08 2013  08 30  -21.0095 26025.9 -03482.9 -07.6222 26257.9
 26 08 2013  08 31  -21.0093 26026.0 -03482.9 -07.6223 26258.0
 26 08 2013  08 32  -21.0089 26025.8 -03482.8 -07.6222 26257.8
 26 08 2013  08 33  -21.0087 26025.8 -03482.9 -07.6223 26257.8
 26 08 2013  08 34  -21.0086 26026.0 -03483.0 -07.6224 26258.0
 26 08 2013  08 35  -21.0084 26025.9 -03483.0 -07.6224 26257.9
 26 08 2013  08 36  -21.0082 26025.9 -03483.0 -07.6224 26258.0
 26 08 2013  08 37  -21.0079 26025.8 -03482.9 -07.6223 26257.8
 26 08 2013  08 38  -21.0077 26026.0 -03483.0 -07.6225 26258.0
 26 08 2013  08 39  -21.0076 26025.9 -03482.9 -07.6223 26257.9
 26 08 2013  08 40  -21.0075 26026.3 -03483.2 -07.6228 26258.4
 26 08 2013  08 41  -21.0072 26026.2 -03483.2 -07.6228 26258.2
 26 08 2013  08 42  -21.0069 26026.2 -03483.1 -07.6227 26258.3
 26 08 2013  08 43  -21.0065 26026.0 -03482.9 -07.6223 26258.0
 26 08 2013  08 44  -21.0062 26026.1 -03483.1 -07.6227 26258.1
 26 08 2013  08 45  -21.0058 26026.0 -03483.1 -07.6227 26258.1
 26 08 2013  08 46  -21.0056 26026.1 -03483.1 -07.6227 26258.1
 26 08 2013  08 47  -21.0052 26026.1 -03483.2 -07.6227 26258.2
 26 08 2013  08 48  -21.0048 26026.5 -03483.3 -07.6230 26258.5
 26 08 2013  08 49  -21.0043 26026.3 -03483.3 -07.6230 26258.4
 26 08 2013  08 50  -21.0039 26026.5 -03483.4 -07.6231 26258.6
 26 08 2013  08 51  -21.0033 26026.2 -03483.3 -07.6230 26258.2
 26 08 2013  08 52  -21.0029 26026.3 -03483.4 -07.6232 26258.4
 26 08 2013  08 53  -21.0025 26026.2 -03483.4 -07.6234 26258.2
 26 08 2013  08 54  -21.0021 26026.0 -03483.4 -07.6233 26258.1
 26 08 2013  08 55  -21.0016 26025.9 -03483.4 -07.6234 26258.0
 26 08 2013  08 56  -21.0011 26025.9 -03483.4 -07.6235 26258.0
 26 08 2013  08 57  -21.0006 26025.8 -03483.4 -07.6234 26257.9
 26 08 2013  08 58  -20.9999 26025.6 -03483.4 -07.6235 26257.7
 26 08 2013  08 59  -20.9995 26025.7 -03483.6 -07.6239 26257.8
 26 08 2013  09 00  -20.9987 26025.7 -03483.8 -07.6242 26257.8
 26 08 2013  09 01  -20.9980 26025.6 -03483.8 -07.6244 26257.7
 26 08 2013  09 02  -20.9975 26025.5 -03483.9 -07.6246 26257.6
 26 08 2013  09 03  -20.9971 26025.5 -03484.2 -07.6251 26257.7
 26 08 2013  09 04  -20.9961 26025.5 -03484.4 -07.6256 26257.7
 26 08 2013  09 05  -20.9955 26025.5 -03484.6 -07.6260 26257.7
 26 08 2013  09 06  -20.9948 26025.4 -03484.7 -07.6264 26257.7
 26 08 2013  09 07  -20.9945 26025.3 -03484.9 -07.6268 26257.6
 26 08 2013  09 08  -20.9946 26025.4 -03485.2 -07.6274 26257.7
 26 08 2013  09 09  -20.9943 26025.6 -03485.6 -07.6283 26258.0
 26 08 2013  09 10  -20.9938 26025.4 -03485.7 -07.6285 26257.8
 26 08 2013  09 11  -20.9934 26025.3 -03485.9 -07.6288 26257.7
 26 08 2013  09 12  -20.9933 26025.4 -03486.2 -07.6295 26257.9
 26 08 2013  09 13  -20.9928 26025.1 -03486.3 -07.6298 26257.5
 26 08 2013  09 14  -20.9928 26025.2 -03486.5 -07.6303 26257.7
 26 08 2013  09 15  -20.9928 26025.2 -03486.8 -07.6308 26257.7
 26 08 2013  09 16  -20.9927 26025.2 -03487.0 -07.6313 26257.8
 26 08 2013  09 17  -20.9929 26025.2 -03487.2 -07.6319 26257.8
 26 08 2013  09 18  -20.9926 26025.4 -03487.5 -07.6324 26258.0
 26 08 2013  09 19  -20.9926 26025.3 -03487.7 -07.6328 26257.9
 26 08 2013  09 20  -20.9923 26025.3 -03488.0 -07.6334 26258.0
 26 08 2013  09 21  -20.9922 26025.4 -03488.2 -07.6340 26258.1
 26 08 2013  09 22  -20.9924 26025.5 -03488.5 -07.6344 26258.3
 26 08 2013  09 23  -20.9919 26025.5 -03488.7 -07.6349 26258.3
 26 08 2013  09 24  -20.9920 26025.7 -03488.9 -07.6353 26258.5
 26 08 2013  09 25  -20.9918 26025.7 -03489.1 -07.6356 26258.6
 26 08 2013  09 26  -20.9916 26025.8 -03489.3 -07.6361 26258.7
 26 08 2013  09 27  -20.9916 26025.8 -03489.5 -07.6365 26258.7
 26 08 2013  09 28  -20.9913 26025.8 -03489.6 -07.6368 26258.7
 26 08 2013  09 29  -20.9908 26025.8 -03489.7 -07.6370 26258.7
 26 08 2013  09 30  -20.9903 26025.8 -03489.8 -07.6371 26258.7
 26 08 2013  09 31  -20.9897 26025.8 -03489.8 -07.6372 26258.7
 26 08 2013  09 32  -20.9892 26025.8 -03489.9 -07.6374 26258.8
 26 08 2013  09 33  -20.9891 26025.9 -03490.0 -07.6376 26258.9
 26 08 2013  09 34  -20.9893 26026.1 -03490.2 -07.6380 26259.1
 26 08 2013  09 35  -20.9898 26026.2 -03490.4 -07.6383 26259.2
 26 08 2013  09 36  -20.9905 26026.2 -03490.6 -07.6388 26259.3
 26 08 2013  09 37  -20.9912 26026.1 -03490.7 -07.6391 26259.2
 26 08 2013  09 38  -20.9914 26026.2 -03490.9 -07.6395 26259.2
 26 08 2013  09 39  -20.9914 26026.1 -03491.0 -07.6398 26259.2
 26 08 2013  09 40  -20.9914 26026.2 -03491.2 -07.6401 26259.3
 26 08 2013  09 41  -20.9911 26026.1 -03491.2 -07.6402 26259.3
 26 08 2013  09 42  -20.9912 26026.1 -03491.3 -07.6405 26259.2
 26 08 2013  09 43  -20.9914 26026.1 -03491.4 -07.6406 26259.2
 26 08 2013  09 44  -20.9915 26026.0 -03491.5 -07.6409 26259.2
 26 08 2013  09 45  -20.9917 26026.0 -03491.6 -07.6411 26259.1
 26 08 2013  09 46  -20.9918 26025.9 -03491.7 -07.6413 26259.0
 26 08 2013  09 47  -20.9920 26025.8 -03491.8 -07.6415 26259.0
 26 08 2013  09 48  -20.9923 26025.7 -03491.9 -07.6418 26258.9
 26 08 2013  09 49  -20.9924 26025.6 -03492.0 -07.6419 26258.8
 26 08 2013  09 50  -20.9928 26025.5 -03492.1 -07.6422 26258.8
 26 08 2013  09 51  -20.9933 26025.5 -03492.2 -07.6424 26258.7
 26 08 2013  09 52  -20.9935 26025.4 -03492.3 -07.6426 26258.7
 26 08 2013  09 53  -20.9941 26025.4 -03492.4 -07.6429 26258.7
 26 08 2013  09 54  -20.9942 26025.4 -03492.5 -07.6431 26258.7
 26 08 2013  09 55  -20.9941 26025.3 -03492.5 -07.6431 26258.6
 26 08 2013  09 56  -20.9944 26025.3 -03492.6 -07.6433 26258.6
 26 08 2013  09 57  -20.9944 26025.2 -03492.6 -07.6435 26258.5
 26 08 2013  09 58  -20.9947 26025.2 -03492.7 -07.6437 26258.5
 26 08 2013  09 59  -20.9948 26025.1 -03492.8 -07.6438 26258.5
 26 08 2013  10 00  -20.9949 26025.2 -03492.8 -07.6440 26258.5
 26 08 2013  10 01  -20.9952 26025.2 -03492.9 -07.6442 26258.6
 26 08 2013  10 02  -20.9956 26025.2 -03493.0 -07.6444 26258.5
 26 08 2013  10 03  -20.9960 26025.1 -03493.0 -07.6445 26258.4
 26 08 2013  10 04  -20.9965 26025.1 -03493.1 -07.6446 26258.4
 26 08 2013  10 05  -20.9970 26025.1 -03493.2 -07.6448 26258.4
 26 08 2013  10 06  -20.9974 26025.0 -03493.3 -07.6450 26258.4
 26 08 2013  10 07  -20.9979 26025.1 -03493.4 -07.6452 26258.5
 26 08 2013  10 08  -20.9986 26025.1 -03493.5 -07.6454 26258.5
 26 08 2013  10 09  -20.9990 26025.1 -03493.6 -07.6456 26258.6
 26 08 2013  10 10  -20.9993 26025.2 -03493.6 -07.6456 26258.6
 26 08 2013  10 11  -20.9995 26025.3 -03493.7 -07.6458 26258.7
 26 08 2013  10 12  -20.9999 26025.3 -03493.8 -07.6459 26258.8
 26 08 2013  10 13  -21.0004 26025.3 -03493.8 -07.6461 26258.8
 26 08 2013  10 14  -21.0008 26025.4 -03493.9 -07.6462 26258.9
 26 08 2013  10 15  -21.0010 26025.4 -03493.9 -07.6463 26258.9
 26 08 2013  10 16  -21.0014 26025.6 -03494.0 -07.6464 26259.1
 26 08 2013  10 17  -21.0018 26025.7 -03494.0 -07.6464 26259.2
 26 08 2013  10 18  -21.0022 26025.6 -03494.0 -07.6464 26259.1
 26 08 2013  10 19  -21.0027 26025.7 -03494.0 -07.6464 26259.2
 26 08 2013  10 20  -21.0031 26025.7 -03494.0 -07.6464 26259.2
 26 08 2013  10 21  -21.0033 26025.7 -03494.0 -07.6464 26259.2
 26 08 2013  10 22  -21.0038 26025.7 -03494.0 -07.6464 26259.2
 26 08 2013  10 23  -21.0041 26025.7 -03494.1 -07.6465 26259.2
 26 08 2013  10 24  -21.0045 26025.7 -03494.0 -07.6464 26259.2
 26 08 2013  10 25  -21.0049 26025.8 -03494.0 -07.6464 26259.3
 26 08 2013  10 26  -21.0051 26025.9 -03494.0 -07.6464 26259.4
 26 08 2013  10 27  -21.0054 26025.9 -03494.1 -07.6464 26259.4
 26 08 2013  10 28  -21.0060 26026.1 -03494.1 -07.6465 26259.6
 26 08 2013  10 29  -21.0064 26026.2 -03494.1 -07.6464 26259.7
 26 08 2013  10 30  -21.0065 26026.2 -03494.1 -07.6463 26259.7
 26 08 2013  10 31  -21.0068 26026.3 -03494.0 -07.6463 26259.8
 26 08 2013  10 32  -21.0072 26026.3 -03494.1 -07.6463 26259.8
 26 08 2013  10 33  -21.0075 26026.5 -03494.1 -07.6462 26260.0
 26 08 2013  10 34  -21.0079 26026.6 -03494.1 -07.6462 26260.1
 26 08 2013  10 35  -21.0082 26027.0 -03494.2 -07.6463 26260.5
 26 08 2013  10 36  -21.0083 26027.1 -03494.2 -07.6463 26260.6
 26 08 2013  10 37  -21.0085 26027.4 -03494.2 -07.6463 26260.9
 26 08 2013  10 38  -21.0088 26027.7 -03494.3 -07.6464 26261.2
 26 08 2013  10 39  -21.0090 26027.9 -03494.3 -07.6464 26261.4
 26 08 2013  10 40  -21.0092 26028.0 -03494.3 -07.6463 26261.6
 26 08 2013  10 41  -21.0093 26027.9 -03494.2 -07.6460 26261.3
 26 08 2013  10 42  -21.0094 26027.8 -03494.1 -07.6460 26261.2
 26 08 2013  10 43  -21.0094 26027.8 -03494.1 -07.6459 26261.3
 26 08 2013  10 44  -21.0098 26027.9 -03494.1 -07.6460 26261.4
 26 08 2013  10 45  -21.0103 26027.9 -03494.1 -07.6459 26261.4
 26 08 2013  10 46  -21.0109 26028.1 -03494.2 -07.6460 26261.6
 26 08 2013  10 47  -21.0116 26028.3 -03494.3 -07.6462 26261.8
 26 08 2013  10 48  -21.0121 26028.8 -03494.4 -07.6463 26262.3
 26 08 2013  10 49  -21.0128 26029.0 -03494.5 -07.6464 26262.5
 26 08 2013  10 50  -21.0134 26029.3 -03494.5 -07.6464 26262.9
 26 08 2013  10 51  -21.0139 26029.8 -03494.6 -07.6465 26263.3
 26 08 2013  10 52  -21.0146 26029.9 -03494.5 -07.6463 26263.4
 26 08 2013  10 53  -21.0150 26030.1 -03494.6 -07.6463 26263.7
 26 08 2013  10 54  -21.0156 26030.4 -03494.6 -07.6463 26263.9
 26 08 2013  10 55  -21.0160 26030.6 -03494.6 -07.6462 26264.1
 26 08 2013  10 56  -21.0166 26030.8 -03494.6 -07.6461 26264.4
 26 08 2013  10 57  -21.0172 26031.1 -03494.6 -07.6461 26264.6
 26 08 2013  10 58  -21.0179 26031.4 -03494.6 -07.6460 26264.9
 26 08 2013  10 59  -21.0186 26031.8 -03494.7 -07.6460 26265.3
 26 08 2013  11 00  -21.0190 26032.3 -03494.8 -07.6460 26265.9
 26 08 2013  11 01  -21.0195 26032.9 -03494.9 -07.6461 26266.5
 26 08 2013  11 02  -21.0200 26033.4 -03494.9 -07.6460 26266.9
 26 08 2013  11 03  -21.0204 26033.7 -03494.8 -07.6456 26267.3
 26 08 2013  11 04  -21.0204 26034.1 -03494.7 -07.6454 26267.6
 26 08 2013  11 05  -21.0206 26034.4 -03494.7 -07.6453 26268.0
 26 08 2013  11 06  -21.0210 26034.5 -03494.6 -07.6451 26268.0
 26 08 2013  11 07  -21.0217 26034.8 -03494.6 -07.6449 26268.3
 26 08 2013  11 08  -21.0219 26035.1 -03494.6 -07.6449 26268.6
 26 08 2013  11 09  -21.0223 26035.3 -03494.6 -07.6447 26268.8
 26 08 2013  11 10  -21.0227 26035.4 -03494.5 -07.6445 26268.9
 26 08 2013  11 11  -21.0231 26035.7 -03494.5 -07.6444 26269.1
 26 08 2013  11 12  -21.0234 26035.7 -03494.3 -07.6442 26269.1
 26 08 2013  11 13  -21.0236 26035.8 -03494.3 -07.6441 26269.3
 26 08 2013  11 14  -21.0238 26036.2 -03494.4 -07.6441 26269.6
 26 08 2013  11 15  -21.0241 26036.4 -03494.3 -07.6439 26269.8
 26 08 2013  11 16  -21.0242 26036.3 -03494.2 -07.6437 26269.8
 26 08 2013  11 17  -21.0245 26036.5 -03494.2 -07.6436 26269.9
 26 08 2013  11 18  -21.0245 26036.5 -03494.1 -07.6435 26269.9
 26 08 2013  11 19  -21.0245 26036.6 -03494.1 -07.6434 26270.0
 26 08 2013  11 20  -21.0245 26036.9 -03494.1 -07.6434 26270.3
 26 08 2013  11 21  -21.0249 26036.9 -03494.1 -07.6433 26270.3
 26 08 2013  11 22  -21.0250 26037.0 -03494.1 -07.6432 26270.3
 26 08 2013  11 23  -21.0255 26037.3 -03494.2 -07.6433 26270.7
 26 08 2013  11 24  -21.0257 26037.4 -03494.1 -07.6432 26270.8
 26 08 2013  11 25  -21.0258 26037.6 -03494.1 -07.6431 26271.0
 26 08 2013  11 26  -21.0258 26038.2 -03494.2 -07.6432 26271.6
 26 08 2013  11 27  -21.0260 26038.7 -03494.3 -07.6431 26272.1
 26 08 2013  11 28  -21.0260 26039.1 -03494.3 -07.6430 26272.5
 26 08 2013  11 29  -21.0257 26039.4 -03494.3 -07.6429 26272.8
 26 08 2013  11 30  -21.0258 26039.7 -03494.2 -07.6427 26273.1
 26 08 2013  11 31  -21.0259 26040.1 -03494.2 -07.6427 26273.5
 26 08 2013  11 32  -21.0264 26040.7 -03494.4 -07.6427 26274.1
 26 08 2013  11 33  -21.0265 26041.0 -03494.3 -07.6425 26274.4
 26 08 2013  11 34  -21.0267 26041.2 -03494.2 -07.6424 26274.6
 26 08 2013  11 35  -21.0271 26041.3 -03494.2 -07.6422 26274.7
 26 08 2013  11 36  -21.0270 26041.7 -03494.2 -07.6421 26275.1
 26 08 2013  11 37  -21.0272 26042.2 -03494.3 -07.6421 26275.6
 26 08 2013  11 38  -21.0274 26042.9 -03494.4 -07.6422 26276.3
 26 08 2013  11 39  -21.0280 26043.6 -03494.5 -07.6422 26277.0
 26 08 2013  11 40  -21.0285 26043.9 -03494.4 -07.6419 26277.3
 26 08 2013  11 41  -21.0291 26044.3 -03494.4 -07.6418 26277.7
 26 08 2013  11 42  -21.0291 26045.0 -03494.5 -07.6418 26278.4
 26 08 2013  11 43  -21.0294 26045.7 -03494.5 -07.6416 26279.0
 26 08 2013  11 44  -21.0300 26046.2 -03494.5 -07.6415 26279.6
 26 08 2013  11 45  -21.0302 26046.5 -03494.4 -07.6412 26279.9
 26 08 2013  11 46  -21.0306 26046.9 -03494.3 -07.6409 26280.3
 26 08 2013  11 47  -21.0310 26047.4 -03494.3 -07.6406 26280.7
 26 08 2013  11 48  -21.0314 26047.6 -03494.1 -07.6402 26280.9
 26 08 2013  11 49  -21.0320 26047.6 -03493.9 -07.6398 26280.9
 26 08 2013  11 50  -21.0327 26047.8 -03493.8 -07.6395 26281.0
 26 08 2013  11 51  -21.0333 26048.0 -03493.7 -07.6392 26281.3
 26 08 2013  11 52  -21.0376 26048.0 -03493.4 -07.6385 26281.2
 26 08 2013  11 53  -21.0387 26048.1 -03493.2 -07.6381 26281.3
 26 08 2013  11 54  -21.0394 26048.4 -03493.1 -07.6378 26281.6
 26 08 2013  11 55  -21.0399 26048.7 -03493.0 -07.6375 26281.8
 26 08 2013  11 56  -21.0405 26048.6 -03492.8 -07.6371 26281.8
 26 08 2013  11 57  -21.0412 26048.7 -03492.7 -07.6368 26281.8
 26 08 2013  11 58  -21.0420 26048.7 -03492.6 -07.6365 26281.8
 26 08 2013  11 59  -21.0428 26049.1 -03492.6 -07.6365 26282.2
 26 08 2013  12 00  -21.0436 26049.8 -03492.7 -07.6365 26282.9
 26 08 2013  12 01  -21.0443 26050.4 -03492.7 -07.6364 26283.5
 26 08 2013  12 02  -21.0448 26051.0 -03492.7 -07.6362 26284.1
 26 08 2013  12 03  -21.0451 26051.2 -03492.5 -07.6357 26284.3
 26 08 2013  12 04  -21.0454 26051.5 -03492.3 -07.6353 26284.5
 26 08 2013  12 05  -21.0458 26051.9 -03492.2 -07.6349 26284.9
 26 08 2013  12 06  -21.0460 26052.5 -03492.1 -07.6345 26285.5
 26 08 2013  12 07  -21.0463 26052.8 -03492.0 -07.6340 26285.8
 26 08 2013  12 08  -21.0468 26053.0 -03491.8 -07.6337 26285.9
 26 08 2013  12 09  -21.0476 26053.1 -03491.7 -07.6333 26286.0
 26 08 2013  12 10  -21.0484 26053.4 -03491.6 -07.6331 26286.3
 26 08 2013  12 11  -21.0488 26053.7 -03491.5 -07.6328 26286.7
 26 08 2013  12 12  -21.0489 26054.0 -03491.4 -07.6325 26286.9
 26 08 2013  12 13  -21.0494 26054.4 -03491.3 -07.6322 26287.3
 26 08 2013  12 14  -21.0499 26054.5 -03491.1 -07.6317 26287.4
 26 08 2013  12 15  -21.0505 26054.5 -03490.9 -07.6313 26287.3
 26 08 2013  12 16  -21.0513 26054.6 -03490.7 -07.6309 26287.4
 26 08 2013  12 17  -21.0524 26054.7 -03490.7 -07.6308 26287.5
 26 08 2013  12 18  -21.0530 26054.5 -03490.5 -07.6304 26287.3
 26 08 2013  12 19  -21.0532 26054.5 -03490.2 -07.6298 26287.2
 26 08 2013  12 20  -21.0541 26054.7 -03490.1 -07.6296 26287.5
 26 08 2013  12 21  -21.0551 26054.9 -03490.0 -07.6292 26287.6
 26 08 2013  12 22  -21.0560 26055.0 -03489.8 -07.6287 26287.6
 26 08 2013  12 23  -21.0569 26055.2 -03489.6 -07.6283 26287.9
 26 08 2013  12 24  -21.0580 26055.5 -03489.6 -07.6282 26288.2
 26 08 2013  12 25  -21.0589 26056.1 -03489.5 -07.6278 26288.7
 26 08 2013  12 26  -21.0581 26056.7 -03489.3 -07.6273 26289.3
 26 08 2013  12 27  -21.0567 26057.3 -03489.2 -07.6269 26289.8
 26 08 2013  12 28  -21.0573 26057.4 -03488.9 -07.6262 26290.0
 26 08 2013  12 29  -21.0581 26057.7 -03488.6 -07.6254 26290.2
 26 08 2013  12 30  -21.0584 26057.8 -03488.2 -07.6246 26290.2
 26 08 2013  12 31  -21.0591 26057.7 -03487.8 -07.6237 26290.1
 26 08 2013  12 32  -21.0598 26057.8 -03487.5 -07.6230 26290.1
 26 08 2013  12 33  -21.0604 26057.7 -03487.1 -07.6222 26290.0
 26 08 2013  12 34  -21.0611 26057.6 -03486.7 -07.6214 26289.8
 26 08 2013  12 35  -21.0617 26057.4 -03486.4 -07.6208 26289.6
 26 08 2013  12 36  -21.0623 26057.2 -03486.1 -07.6202 26289.3
 26 08 2013  12 37  -21.0628 26057.1 -03485.9 -07.6198 26289.2
 26 08 2013  12 38  -21.0632 26057.4 -03485.8 -07.6195 26289.5
 26 08 2013  12 39  -21.0635 26057.4 -03485.6 -07.6191 26289.5
 26 08 2013  12 40  -21.0638 26057.3 -03485.4 -07.6186 26289.4
 26 08 2013  12 41  -21.0642 26057.3 -03485.3 -07.6183 26289.4
 26 08 2013  12 42  -21.0646 26057.5 -03485.1 -07.6180 26289.5
 26 08 2013  12 43  -21.0647 26057.8 -03485.1 -07.6177 26289.8
 26 08 2013  12 44  -21.0649 26058.2 -03485.0 -07.6174 26290.2
 26 08 2013  12 45  -21.0652 26058.7 -03485.0 -07.6172 26290.7
 26 08 2013  12 46  -21.0655 26059.1 -03484.9 -07.6170 26291.1
 26 08 2013  12 47  -21.0658 26059.3 -03484.8 -07.6166 26291.3
 26 08 2013  12 48  -21.0660 26059.7 -03484.7 -07.6164 26291.6
 26 08 2013  12 49  -21.0663 26060.2 -03484.7 -07.6162 26292.2
 26 08 2013  12 50  -21.0667 26060.6 -03484.6 -07.6160 26292.6
 26 08 2013  12 51  -21.0670 26061.1 -03484.6 -07.6157 26293.0
 26 08 2013  12 52  -21.0673 26061.7 -03484.5 -07.6155 26293.6
 26 08 2013  12 53  -21.0674 26062.1 -03484.4 -07.6151 26294.0
 26 08 2013  12 54  -21.0676 26062.7 -03484.4 -07.6148 26294.6
 26 08 2013  12 55  -21.0680 26063.2 -03484.3 -07.6145 26295.1
 26 08 2013  12 56  -21.0682 26063.6 -03484.1 -07.6140 26295.5
 26 08 2013  12 57  -21.0683 26064.1 -03484.0 -07.6137 26296.0
 26 08 2013  12 58  -21.0686 26064.5 -03483.9 -07.6133 26296.3
 26 08 2013  12 59  -21.0689 26064.7 -03483.8 -07.6129 26296.5
 26 08 2013  13 00  -21.0693 26064.9 -03483.6 -07.6126 26296.7
 26 08 2013  13 01  -21.0696 26065.2 -03483.6 -07.6123 26297.0
 26 08 2013  13 02  -21.0701 26065.6 -03483.5 -07.6122 26297.3
 26 08 2013  13 03  -21.0706 26065.8 -03483.4 -07.6119 26297.6
 26 08 2013  13 04  -21.0709 26066.3 -03483.5 -07.6118 26298.1
 26 08 2013  13 05  -21.0714 26067.0 -03483.5 -07.6118 26298.7
 26 08 2013  13 06  -21.0716 26067.5 -03483.5 -07.6116 26299.2
 26 08 2013  13 07  -21.0718 26067.9 -03483.5 -07.6114 26299.6
 26 08 2013  13 08  -21.0721 26068.3 -03483.5 -07.6112 26300.0
 26 08 2013  13 09  -21.0724 26068.9 -03483.5 -07.6112 26300.6
 26 08 2013  13 10  -21.0728 26069.5 -03483.6 -07.6111 26301.2
 26 08 2013  13 11  -21.0734 26070.2 -03483.6 -07.6111 26301.9
 26 08 2013  13 12  -21.0740 26071.0 -03483.7 -07.6109 26302.7
 26 08 2013  13 13  -21.0744 26071.5 -03483.6 -07.6106 26303.2
 26 08 2013  13 14  -21.0746 26071.9 -03483.5 -07.6103 26303.6
 26 08 2013  13 15  -21.0752 26072.6 -03483.5 -07.6101 26304.3
 26 08 2013  13 16  -21.0758 26073.4 -03483.6 -07.6100 26305.1
 26 08 2013  13 17  -21.0766 26073.9 -03483.5 -07.6097 26305.6
 26 08 2013  13 18  -21.0771 26074.4 -03483.4 -07.6094 26306.1
 26 08 2013  13 19  -21.0777 26075.2 -03483.4 -07.6092 26306.8
 26 08 2013  13 20  -21.0783 26075.3 -03483.1 -07.6085 26306.9
 26 08 2013  13 21  -21.0791 26076.1 -03483.2 -07.6084 26307.7
 26 08 2013  13 22  -21.0804 26076.0 -03482.8 -07.6076 26307.6
 26 08 2013  13 23  -21.0813 26076.1 -03482.5 -07.6070 26307.7
 26 08 2013  13 24  -21.0823 26075.5 -03482.1 -07.6062 26306.9
 26 08 2013  13 25  -21.0832 26074.6 -03481.6 -07.6053 26306.0
 26 08 2013  13 26  -21.0842 26074.0 -03481.3 -07.6048 26305.3
 26 08 2013  13 27  -21.0852 26073.3 -03481.0 -07.6044 26304.6
 26 08 2013  13 28  -21.0861 26072.7 -03480.8 -07.6043 26304.1
 26 08 2013  13 29  -21.0870 26072.4 -03480.7 -07.6042 26303.7
 26 08 2013  13 30  -21.0880 26072.2 -03480.7 -07.6042 26303.5
 26 08 2013  13 31  -21.0890 26072.0 -03480.7 -07.6042 26303.4
 26 08 2013  13 32  -21.0897 26072.1 -03480.7 -07.6042 26303.4
 26 08 2013  13 33  -21.0903 26072.1 -03480.7 -07.6042 26303.4
 26 08 2013  13 34  -21.0905 26071.8 -03480.6 -07.6040 26303.2
 26 08 2013  13 35  -21.0909 26071.9 -03480.6 -07.6041 26303.3
 26 08 2013  13 36  -21.0917 26072.5 -03480.9 -07.6045 26303.9
 26 08 2013  13 37  -21.0922 26073.3 -03481.1 -07.6047 26304.6
 26 08 2013  13 38  -21.0927 26074.0 -03481.2 -07.6047 26305.4
 26 08 2013  13 39  -21.0931 26074.4 -03481.1 -07.6043 26305.8
 26 08 2013  13 40  -21.0936 26074.7 -03480.9 -07.6039 26306.0
 26 08 2013  13 41  -21.0941 26074.8 -03480.7 -07.6033 26306.1
 26 08 2013  13 42  -21.0948 26074.9 -03480.4 -07.6028 26306.1
 26 08 2013  13 43  -21.0954 26074.9 -03480.2 -07.6023 26306.1
 26 08 2013  13 44  -21.0958 26074.8 -03480.0 -07.6018 26306.0
 26 08 2013  13 45  -21.0963 26074.6 -03479.7 -07.6013 26305.7
 26 08 2013  13 46  -21.0971 26074.3 -03479.5 -07.6009 26305.5
 26 08 2013  13 47  -21.0977 26074.1 -03479.2 -07.6004 26305.2
 26 08 2013  13 48  -21.0985 26073.8 -03479.0 -07.6000 26304.9
 26 08 2013  13 49  -21.0989 26073.5 -03478.7 -07.5995 26304.5
 26 08 2013  13 50  -21.0995 26073.6 -03478.7 -07.5995 26304.6
 26 08 2013  13 51  -21.0999 26073.5 -03478.6 -07.5993 26304.5
 26 08 2013  13 52  -21.1003 26073.4 -03478.5 -07.5990 26304.4
 26 08 2013  13 53  -21.1007 26073.3 -03478.4 -07.5988 26304.3
 26 08 2013  13 54  -21.1011 26073.1 -03478.2 -07.5985 26304.1
 26 08 2013  13 55  -21.1017 26072.8 -03478.0 -07.5981 26303.8
 26 08 2013  13 56  -21.1023 26072.9 -03477.9 -07.5979 26303.8
 26 08 2013  13 57  -21.1032 26073.2 -03477.8 -07.5977 26304.1
 26 08 2013  13 58  -21.1041 26073.4 -03477.8 -07.5975 26304.4
 26 08 2013  13 59  -21.1049 26073.9 -03477.7 -07.5973 26304.8
 26 08 2013  14 00  -21.1054 26074.1 -03477.6 -07.5969 26305.0
 26 08 2013  14 01  -21.1056 26074.2 -03477.4 -07.5964 26305.0
 26 08 2013  14 02  -21.1058 26074.0 -03477.1 -07.5959 26304.8
 26 08 2013  14 03  -21.1059 26073.7 -03476.8 -07.5953 26304.5
 26 08 2013  14 04  -21.1062 26073.5 -03476.6 -07.5949 26304.3
 26 08 2013  14 05  -21.1066 26073.4 -03476.4 -07.5946 26304.2
 26 08 2013  14 06  -21.1069 26073.2 -03476.2 -07.5942 26303.9
 26 08 2013  14 07  -21.1072 26073.1 -03476.1 -07.5939 26303.8
 26 08 2013  14 08  -21.1074 26073.0 -03475.9 -07.5936 26303.7
 26 08 2013  14 09  -21.1079 26072.9 -03475.7 -07.5932 26303.6
 26 08 2013  14 10  -21.1084 26072.9 -03475.6 -07.5930 26303.6
 26 08 2013  14 11  -21.1090 26073.1 -03475.6 -07.5928 26303.7
 26 08 2013  14 12  -21.1098 26073.3 -03475.5 -07.5927 26304.0
 26 08 2013  14 13  -21.1103 26073.5 -03475.4 -07.5924 26304.1
 26 08 2013  14 14  -21.1108 26073.5 -03475.2 -07.5919 26304.1
 26 08 2013  14 15  -21.1113 26073.4 -03475.0 -07.5915 26304.0
 26 08 2013  14 16  -21.1117 26073.5 -03474.9 -07.5912 26304.0
 26 08 2013  14 17  -21.1123 26073.6 -03474.8 -07.5910 26304.1
 26 08 2013  14 18  -21.1128 26073.6 -03474.7 -07.5907 26304.1
 26 08 2013  14 19  -21.1134 26073.7 -03474.6 -07.5904 26304.2
 26 08 2013  14 20  -21.1140 26073.7 -03474.4 -07.5901 26304.2
 26 08 2013  14 21  -21.1143 26073.8 -03474.3 -07.5898 26304.2
 26 08 2013  14 22  -21.1146 26073.7 -03474.1 -07.5894 26304.2
 26 08 2013  14 23  -21.1150 26073.8 -03474.0 -07.5892 26304.3
 26 08 2013  14 24  -21.1153 26074.1 -03474.0 -07.5891 26304.5
 26 08 2013  14 25  -21.1154 26074.3 -03473.9 -07.5889 26304.7
 26 08 2013  14 26  -21.1154 26074.3 -03473.8 -07.5886 26304.7
 26 08 2013  14 27  -21.1154 26074.4 -03473.6 -07.5883 26304.7
 26 08 2013  14 28  -21.1154 26074.5 -03473.6 -07.5881 26304.9
 26 08 2013  14 29  -21.1155 26074.7 -03473.5 -07.5879 26305.0
 26 08 2013  14 30  -21.1154 26074.8 -03473.5 -07.5878 26305.2
 26 08 2013  14 31  -21.1152 26075.1 -03473.5 -07.5877 26305.4
 26 08 2013  14 32  -21.1150 26075.3 -03473.5 -07.5877 26305.7
 26 08 2013  14 33  -21.1147 26075.4 -03473.4 -07.5875 26305.7
 26 08 2013  14 34  -21.1145 26075.4 -03473.3 -07.5874 26305.7
 26 08 2013  14 35  -21.1142 26075.1 -03473.2 -07.5872 26305.4
 26 08 2013  14 36  -21.1140 26075.0 -03473.2 -07.5871 26305.3
 26 08 2013  14 37  -21.1139 26074.9 -03473.2 -07.5872 26305.2
 26 08 2013  14 38  -21.1137 26074.8 -03473.2 -07.5871 26305.1
 26 08 2013  14 39  -21.1136 26074.9 -03473.3 -07.5873 26305.2
 26 08 2013  14 40  -21.1133 26074.7 -03473.2 -07.5873 26305.0
 26 08 2013  14 41  -21.1129 26074.5 -03473.2 -07.5872 26304.8
 26 08 2013  14 42  -21.1124 26074.2 -03473.2 -07.5873 26304.5
 26 08 2013  14 43  -21.1119 26074.1 -03473.2 -07.5874 26304.5
 26 08 2013  14 44  -21.1116 26074.2 -03473.3 -07.5877 26304.5
 26 08 2013  14 45  -21.1113 26074.2 -03473.4 -07.5879 26304.6
 26 08 2013  14 46  -21.1109 26074.4 -03473.5 -07.5880 26304.7
 26 08 2013  14 47  -21.1106 26074.5 -03473.6 -07.5882 26304.9
 26 08 2013  14 48  -21.1104 26074.5 -03473.7 -07.5883 26304.9
 26 08 2013  14 49  -21.1100 26074.6 -03473.7 -07.5884 26305.0
 26 08 2013  14 50  -21.1094 26074.6 -03473.7 -07.5884 26304.9
 26 08 2013  14 51  -21.1089 26074.7 -03473.8 -07.5885 26305.1
 26 08 2013  14 52  -21.1086 26074.9 -03473.9 -07.5887 26305.3
 26 08 2013  14 53  -21.1083 26075.1 -03473.9 -07.5887 26305.5
 26 08 2013  14 54  -21.1077 26075.4 -03474.0 -07.5888 26305.8
 26 08 2013  14 55  -21.1070 26075.3 -03474.0 -07.5887 26305.7
 26 08 2013  14 56  -21.1061 26075.3 -03473.9 -07.5886 26305.7
 26 08 2013  14 57  -21.1054 26075.2 -03473.8 -07.5884 26305.6
 26 08 2013  14 58  -21.1049 26075.2 -03473.8 -07.5884 26305.6
 26 08 2013  14 59  -21.1046 26074.8 -03473.7 -07.5882 26305.2
 26 08 2013  15 00  -21.1045 26074.8 -03473.8 -07.5884 26305.2
 26 08 2013  15 01  -21.1042 26074.7 -03473.7 -07.5884 26305.1
 26 08 2013  15 02  -21.1039 26074.9 -03473.8 -07.5886 26305.3
 26 08 2013  15 03  -21.1036 26075.2 -03474.0 -07.5888 26305.6
 26 08 2013  15 04  -21.1033 26075.4 -03474.1 -07.5889 26305.8
 26 08 2013  15 05  -21.1032 26075.5 -03474.0 -07.5888 26305.9
 26 08 2013  15 06  -21.1034 26075.4 -03474.0 -07.5887 26305.8
 26 08 2013  15 07  -21.1031 26074.8 -03473.6 -07.5881 26305.1
 26 08 2013  15 08  -21.1029 26074.4 -03473.4 -07.5878 26304.7
 26 08 2013  15 09  -21.1028 26074.3 -03473.5 -07.5879 26304.6
 26 08 2013  15 10  -21.1024 26074.2 -03473.5 -07.5880 26304.5
 26 08 2013  15 11  -21.1024 26074.3 -03473.6 -07.5883 26304.6
 26 08 2013  15 12  -21.1023 26074.4 -03473.7 -07.5884 26304.7
 26 08 2013  15 13  -21.1021 26074.3 -03473.7 -07.5885 26304.7
 26 08 2013  15 14  -21.1021 26074.0 -03473.7 -07.5884 26304.4
 26 08 2013  15 15  -21.1018 26073.7 -03473.6 -07.5883 26304.1
 26 08 2013  15 16  -21.1016 26073.4 -03473.5 -07.5883 26303.8
 26 08 2013  15 17  -21.1016 26073.3 -03473.6 -07.5885 26303.7
 26 08 2013  15 18  -21.1018 26073.0 -03473.5 -07.5884 26303.4
 26 08 2013  15 19  -21.1021 26072.8 -03473.5 -07.5884 26303.1
 26 08 2013  15 20  -21.1025 26073.0 -03473.7 -07.5887 26303.4
 26 08 2013  15 21  -21.1029 26072.8 -03473.6 -07.5887 26303.1
 26 08 2013  15 22  -21.1031 26072.4 -03473.5 -07.5885 26302.8
 26 08 2013  15 23  -21.1032 26072.2 -03473.5 -07.5885 26302.5
 26 08 2013  15 24  -21.1031 26071.7 -03473.4 -07.5884 26302.1
 26 08 2013  15 25  -21.1032 26071.9 -03473.5 -07.5886 26302.3
 26 08 2013  15 26  -21.1036 26071.7 -03473.4 -07.5886 26302.1
 26 08 2013  15 27  -21.1039 26071.7 -03473.5 -07.5887 26302.1
 26 08 2013  15 28  -21.1041 26072.1 -03473.6 -07.5889 26302.5
 26 08 2013  15 29  -21.1039 26071.7 -03473.5 -07.5887 26302.1
 26 08 2013  15 30  -21.1038 26071.2 -03473.2 -07.5882 26301.5
 26 08 2013  15 31  -21.1037 26070.9 -03473.1 -07.5882 26301.2
 26 08 2013  15 32  -21.1037 26070.6 -03473.1 -07.5881 26300.9
 26 08 2013  15 33  -21.1038 26070.3 -03472.9 -07.5879 26300.6
 26 08 2013  15 34  -21.1041 26070.3 -03473.0 -07.5881 26300.6
 26 08 2013  15 35  -21.1042 26070.0 -03472.9 -07.5880 26300.3
 26 08 2013  15 36  -21.1043 26069.9 -03472.9 -07.5880 26300.2
 26 08 2013  15 37  -21.1045 26069.8 -03472.9 -07.5880 26300.1
 26 08 2013  15 38  -21.1045 26069.6 -03472.9 -07.5880 26299.9
 26 08 2013  15 39  -21.1046 26069.6 -03472.9 -07.5881 26299.9
 26 08 2013  15 40  -21.1049 26069.6 -03472.9 -07.5880 26299.9
 26 08 2013  15 41  -21.1052 26069.5 -03472.9 -07.5881 26299.8
 26 08 2013  15 42  -21.1055 26069.5 -03473.0 -07.5882 26299.9
 26 08 2013  15 43  -21.1058 26069.6 -03473.0 -07.5882 26299.9
 26 08 2013  15 44  -21.1060 26069.6 -03473.0 -07.5882 26299.9
 26 08 2013  15 45  -21.1063 26069.5 -03472.9 -07.5881 26299.8
 26 08 2013  15 46  -21.1064 26069.2 -03472.8 -07.5880 26299.5
 26 08 2013  15 47  -21.1065 26069.2 -03472.8 -07.5880 26299.5
 26 08 2013  15 48  -21.1070 26069.2 -03472.9 -07.5881 26299.5
 26 08 2013  15 49  -21.1072 26068.9 -03472.8 -07.5880 26299.2
 26 08 2013  15 50  -21.1077 26068.8 -03472.8 -07.5880 26299.1
 26 08 2013  15 51  -21.1081 26068.6 -03472.7 -07.5880 26298.9
 26 08 2013  15 52  -21.1083 26068.2 -03472.6 -07.5878 26298.5
 26 08 2013  15 53  -21.1085 26068.1 -03472.6 -07.5878 26298.4
 26 08 2013  15 54  -21.1086 26067.7 -03472.5 -07.5876 26298.0
 26 08 2013  15 55  -21.1085 26067.2 -03472.3 -07.5875 26297.5
 26 08 2013  15 56  -21.1086 26067.0 -03472.4 -07.5876 26297.2
 26 08 2013  15 57  -21.1087 26066.9 -03472.4 -07.5878 26297.1
 26 08 2013  15 58  -21.1088 26066.5 -03472.3 -07.5877 26296.8
 26 08 2013  15 59  -21.1087 26066.2 -03472.2 -07.5876 26296.4
 26 08 2013  16 00  -21.1090 26065.8 -03472.2 -07.5877 26296.0
 26 08 2013  16 01  -21.1092 26065.7 -03472.3 -07.5878 26296.0
 26 08 2013  16 02  -21.1097 26065.8 -03472.4 -07.5880 26296.1
 26 08 2013  16 03  -21.1101 26065.9 -03472.4 -07.5881 26296.2
 26 08 2013  16 04  -21.1105 26065.9 -03472.5 -07.5882 26296.2
 26 08 2013  16 05  -21.1107 26065.8 -03472.4 -07.5881 26296.1
 26 08 2013  16 06  -21.1104 26065.2 -03472.2 -07.5877 26295.5
 26 08 2013  16 07  -21.1103 26065.0 -03472.2 -07.5877 26295.3
 26 08 2013  16 08  -21.1107 26065.0 -03472.2 -07.5879 26295.3
 26 08 2013  16 09  -21.1112 26064.9 -03472.2 -07.5880 26295.2
 26 08 2013  16 10  -21.1115 26064.9 -03472.2 -07.5880 26295.1
 26 08 2013  16 11  -21.1117 26064.7 -03472.2 -07.5879 26294.9
 26 08 2013  16 12  -21.1116 26064.4 -03472.1 -07.5877 26294.6
 26 08 2013  16 13  -21.1114 26064.1 -03472.0 -07.5877 26294.3
 26 08 2013  16 14  -21.1113 26063.8 -03472.0 -07.5877 26294.0
 26 08 2013  16 15  -21.1112 26063.5 -03472.0 -07.5878 26293.7
 26 08 2013  16 16  -21.1110 26063.3 -03472.0 -07.5879 26293.5
 26 08 2013  16 17  -21.1107 26063.1 -03472.1 -07.5881 26293.3
 26 08 2013  16 18  -21.1104 26062.8 -03472.1 -07.5882 26293.0
 26 08 2013  16 19  -21.1107 26062.6 -03472.2 -07.5885 26292.9
 26 08 2013  16 20  -21.1107 26062.4 -03472.2 -07.5886 26292.7
 26 08 2013  16 21  -21.1109 26062.4 -03472.3 -07.5888 26292.7
 26 08 2013  16 22  -21.1110 26062.1 -03472.3 -07.5888 26292.4
 26 08 2013  16 23  -21.1109 26061.7 -03472.2 -07.5888 26292.0
 26 08 2013  16 24  -21.1106 26061.3 -03472.1 -07.5887 26291.6
 26 08 2013  16 25  -21.1104 26061.1 -03472.1 -07.5888 26291.4
 26 08 2013  16 26  -21.1104 26060.9 -03472.2 -07.5890 26291.2
 26 08 2013  16 27  -21.1104 26060.7 -03472.2 -07.5892 26291.0
 26 08 2013  16 28  -21.1104 26060.7 -03472.4 -07.5895 26291.0
 26 08 2013  16 29  -21.1103 26060.6 -03472.4 -07.5896 26290.9
 26 08 2013  16 30  -21.1103 26060.5 -03472.5 -07.5898 26290.9
 26 08 2013  16 31  -21.1102 26060.6 -03472.6 -07.5901 26291.0
 26 08 2013  16 32  -21.1101 26060.6 -03472.7 -07.5902 26291.0
 26 08 2013  16 33  -21.1103 26060.6 -03472.8 -07.5904 26291.0
 26 08 2013  16 34  -21.1107 26060.8 -03472.9 -07.5905 26291.1
 26 08 2013  16 35  -21.1108 26060.6 -03472.8 -07.5904 26291.0
 26 08 2013  16 36  -21.1105 26060.2 -03472.6 -07.5902 26290.5
 26 08 2013  16 37  -21.1101 26059.8 -03472.5 -07.5901 26290.1
 26 08 2013  16 38  -21.1097 26059.5 -03472.5 -07.5901 26289.8
 26 08 2013  16 39  -21.1095 26059.4 -03472.6 -07.5903 26289.8
 26 08 2013  16 40  -21.1094 26059.4 -03472.7 -07.5905 26289.8
 26 08 2013  16 41  -21.1092 26059.4 -03472.7 -07.5905 26289.7
 26 08 2013  16 42  -21.1091 26059.4 -03472.8 -07.5907 26289.8
 26 08 2013  16 43  -21.1088 26059.2 -03472.8 -07.5907 26289.6
 26 08 2013  16 44  -21.1085 26059.3 -03472.9 -07.5909 26289.7
 26 08 2013  16 45  -21.1082 26059.4 -03472.9 -07.5910 26289.8
 26 08 2013  16 46  -21.1075 26059.2 -03472.8 -07.5908 26289.6
 26 08 2013  16 47  -21.1069 26058.9 -03472.7 -07.5907 26289.3
 26 08 2013  16 48  -21.1066 26058.7 -03472.8 -07.5909 26289.1
 26 08 2013  16 49  -21.1057 26058.5 -03472.7 -07.5908 26288.8
 26 08 2013  16 50  -21.1051 26058.3 -03472.7 -07.5909 26288.7
 26 08 2013  16 51  -21.1041 26058.0 -03472.7 -07.5910 26288.4
 26 08 2013  16 52  -21.1030 26057.7 -03472.7 -07.5911 26288.1
 26 08 2013  16 53  -21.1022 26057.6 -03472.9 -07.5914 26288.0
 26 08 2013  16 54  -21.1015 26057.7 -03473.0 -07.5917 26288.1
 26 08 2013  16 55  -21.1008 26057.7 -03473.1 -07.5918 26288.1
 26 08 2013  16 56  -21.1000 26057.4 -03473.0 -07.5917 26287.8
 26 08 2013  16 57  -21.0991 26057.0 -03472.9 -07.5916 26287.4
 26 08 2013  16 58  -21.0983 26056.7 -03472.8 -07.5916 26287.1
 26 08 2013  16 59  -21.0974 26056.3 -03472.8 -07.5916 26286.7
 26 08 2013  17 00  -21.0966 26056.2 -03472.8 -07.5916 26286.6
 26 08 2013  17 01  -21.0956 26056.0 -03472.8 -07.5917 26286.4
 26 08 2013  17 02  -21.0945 26055.8 -03472.8 -07.5917 26286.2
 26 08 2013  17 03  -21.0933 26055.4 -03472.7 -07.5917 26285.9
 26 08 2013  17 04  -21.0923 26055.1 -03472.7 -07.5918 26285.6
 26 08 2013  17 05  -21.0913 26054.9 -03472.7 -07.5919 26285.3
 26 08 2013  17 06  -21.0901 26054.5 -03472.7 -07.5919 26284.9
 26 08 2013  17 07  -21.0888 26054.1 -03472.6 -07.5918 26284.5
 26 08 2013  17 08  -21.0876 26053.8 -03472.6 -07.5920 26284.2
 26 08 2013  17 09  -21.0866 26053.7 -03472.7 -07.5922 26284.1
 26 08 2013  17 10  -21.0855 26053.4 -03472.7 -07.5923 26283.8
 26 08 2013  17 11  -21.0847 26053.1 -03472.7 -07.5923 26283.6
 26 08 2013  17 12  -21.0833 26052.9 -03472.8 -07.5925 26283.3
 26 08 2013  17 13  -21.0823 26052.7 -03472.7 -07.5925 26283.2
 26 08 2013  17 14  -21.0813 26052.4 -03472.7 -07.5925 26282.8
 26 08 2013  17 15  -21.0803 26052.1 -03472.7 -07.5926 26282.6
 26 08 2013  17 16  -21.0792 26052.0 -03472.7 -07.5926 26282.4
 26 08 2013  17 17  -21.0783 26051.8 -03472.7 -07.5927 26282.3
 26 08 2013  17 18  -21.0775 26051.6 -03472.6 -07.5926 26282.1
 26 08 2013  17 19  -21.0764 26051.4 -03472.6 -07.5926 26281.9
 26 08 2013  17 20  -21.0755 26051.3 -03472.5 -07.5925 26281.7
 26 08 2013  17 21  -21.0743 26051.0 -03472.3 -07.5922 26281.4
 26 08 2013  17 22  -21.0731 26050.6 -03472.2 -07.5921 26281.0
 26 08 2013  17 23  -21.0715 26050.2 -03472.1 -07.5920 26280.5
 26 08 2013  17 24  -21.0702 26050.0 -03472.1 -07.5921 26280.4
 26 08 2013  17 25  -21.0689 26049.9 -03472.2 -07.5923 26280.3
 26 08 2013  17 26  -21.0677 26049.8 -03472.2 -07.5923 26280.2
 26 08 2013  17 27  -21.0668 26049.8 -03472.3 -07.5925 26280.2
 26 08 2013  17 28  -21.0660 26049.8 -03472.4 -07.5926 26280.2
 26 08 2013  17 29  -21.0651 26049.7 -03472.3 -07.5925 26280.1
 26 08 2013  17 30  -21.0642 26049.5 -03472.2 -07.5924 26279.9
 26 08 2013  17 31  -21.0633 26049.2 -03472.1 -07.5922 26279.6
 26 08 2013  17 32  -21.0624 26049.0 -03472.1 -07.5922 26279.4
 26 08 2013  17 33  -21.0616 26048.9 -03472.1 -07.5923 26279.3
 26 08 2013  17 34  -21.0607 26048.7 -03472.0 -07.5922 26279.1
 26 08 2013  17 35  -21.0598 26048.5 -03472.0 -07.5922 26278.9
 26 08 2013  17 36  -21.0585 26048.2 -03471.9 -07.5921 26278.6
 26 08 2013  17 37  -21.0574 26047.9 -03471.9 -07.5921 26278.3
 26 08 2013  17 38  -21.0565 26047.8 -03471.9 -07.5922 26278.1
 26 08 2013  17 39  -21.0555 26047.6 -03471.9 -07.5922 26278.0
 26 08 2013  17 40  -21.0546 26047.4 -03471.8 -07.5922 26277.8
 26 08 2013  17 41  -21.0535 26047.1 -03471.8 -07.5922 26277.5
 26 08 2013  17 42  -21.0524 26046.9 -03471.9 -07.5923 26277.3
 26 08 2013  17 43  -21.0515 26046.7 -03471.8 -07.5924 26277.1
 26 08 2013  17 44  -21.0503 26046.5 -03471.9 -07.5925 26276.8
 26 08 2013  17 45  -21.0492 26046.1 -03471.8 -07.5925 26276.5
 26 08 2013  17 46  -21.0478 26045.5 -03471.7 -07.5925 26275.9
 26 08 2013  17 47  -21.0464 26045.0 -03471.7 -07.5925 26275.3
 26 08 2013  17 48  -21.0454 26044.7 -03471.7 -07.5927 26275.0
 26 08 2013  17 49  -21.0444 26044.4 -03471.8 -07.5929 26274.8
 26 08 2013  17 50  -21.0433 26044.0 -03471.8 -07.5931 26274.3
 26 08 2013  17 51  -21.0421 26043.5 -03471.9 -07.5934 26274.0
 26 08 2013  17 52  -21.0413 26043.3 -03472.1 -07.5938 26273.7
 26 08 2013  17 53  -21.0404 26043.1 -03472.2 -07.5941 26273.5
 26 08 2013  17 54  -21.0396 26042.9 -03472.3 -07.5945 26273.4
 26 08 2013  17 55  -21.0389 26042.5 -03472.4 -07.5947 26273.0
 26 08 2013  17 56  -21.0383 26042.1 -03472.4 -07.5948 26272.6
 26 08 2013  17 57  -21.0375 26041.7 -03472.5 -07.5951 26272.2
 26 08 2013  17 58  -21.0368 26041.4 -03472.6 -07.5955 26271.9
 26 08 2013  17 59  -21.0363 26041.2 -03472.8 -07.5960 26271.8
 26 08 2013  18 00  -21.0360 26041.0 -03472.9 -07.5963 26271.6
 26 08 2013  18 01  -21.0353 26040.7 -03473.0 -07.5966 26271.3
 26 08 2013  18 02  -21.0348 26040.7 -03473.2 -07.5970 26271.3
 26 08 2013  18 03  -21.0344 26040.5 -03473.3 -07.5973 26271.1
 26 08 2013  18 04  -21.0337 26040.3 -03473.4 -07.5976 26270.9
 26 08 2013  18 05  -21.0331 26040.0 -03473.5 -07.5979 26270.7
 26 08 2013  18 06  -21.0326 26039.9 -03473.6 -07.5982 26270.5
 26 08 2013  18 07  -21.0322 26039.8 -03473.8 -07.5986 26270.5
 26 08 2013  18 08  -21.0317 26039.7 -03473.9 -07.5989 26270.4
 26 08 2013  18 09  -21.0314 26039.6 -03474.0 -07.5992 26270.4
 26 08 2013  18 10  -21.0314 26039.8 -03474.2 -07.5995 26270.6
 26 08 2013  18 11  -21.0313 26039.7 -03474.3 -07.5998 26270.5
 26 08 2013  18 12  -21.0310 26039.4 -03474.3 -07.5997 26270.1
 26 08 2013  18 13  -21.0306 26038.9 -03474.2 -07.5997 26269.7
 26 08 2013  18 14  -21.0304 26038.5 -03474.1 -07.5996 26269.3
 26 08 2013  18 15  -21.0302 26038.2 -03474.1 -07.5997 26268.9
 26 08 2013  18 16  -21.0302 26037.9 -03474.0 -07.5996 26268.6
 26 08 2013  18 17  -21.0302 26037.5 -03474.0 -07.5996 26268.2
 26 08 2013  18 18  -21.0301 26037.0 -03473.9 -07.5996 26267.7
 26 08 2013  18 19  -21.0302 26036.6 -03473.8 -07.5995 26267.3
 26 08 2013  18 20  -21.0302 26036.2 -03473.7 -07.5995 26266.9
 26 08 2013  18 21  -21.0299 26035.7 -03473.6 -07.5994 26266.4
 26 08 2013  18 22  -21.0300 26035.1 -03473.6 -07.5994 26265.8
 26 08 2013  18 23  -21.0297 26035.0 -03473.6 -07.5996 26265.7
 26 08 2013  18 24  -21.0296 26034.5 -03473.5 -07.5995 26265.2
 26 08 2013  18 25  -21.0291 26033.9 -03473.4 -07.5994 26264.6
 26 08 2013  18 26  -21.0289 26033.6 -03473.4 -07.5995 26264.2
 26 08 2013  18 27  -21.0287 26033.1 -03473.4 -07.5996 26263.8
 26 08 2013  18 28  -21.0289 26033.0 -03473.4 -07.5997 26263.7
 26 08 2013  18 29  -21.0293 26032.9 -03473.4 -07.5998 26263.6
 26 08 2013  18 30  -21.0296 26032.9 -03473.5 -07.5998 26263.6
 26 08 2013  18 31  -21.0298 26032.8 -03473.5 -07.6000 26263.5
 26 08 2013  18 32  -21.0299 26032.7 -03473.5 -07.6001 26263.4
 26 08 2013  18 33  -21.0301 26032.6 -03473.5 -07.6001 26263.3
 26 08 2013  18 34  -21.0306 26032.5 -03473.6 -07.6002 26263.2
 26 08 2013  18 35  -21.0308 26032.2 -03473.5 -07.6001 26262.9
 26 08 2013  18 36  -21.0303 26031.7 -03473.3 -07.5999 26262.4
 26 08 2013  18 37  -21.0302 26031.3 -03473.3 -07.5999 26262.0
 26 08 2013  18 38  -21.0303 26031.1 -03473.3 -07.6000 26261.8
 26 08 2013  18 39  -21.0303 26030.9 -03473.4 -07.6003 26261.6
 26 08 2013  18 40  -21.0305 26030.8 -03473.5 -07.6006 26261.5
 26 08 2013  18 41  -21.0308 26030.7 -03473.7 -07.6009 26261.5
 26 08 2013  18 42  -21.0311 26030.7 -03473.8 -07.6012 26261.5
 26 08 2013  18 43  -21.0313 26030.7 -03473.9 -07.6014 26261.4
 26 08 2013  18 44  -21.0313 26030.5 -03473.9 -07.6015 26261.3
 26 08 2013  18 45  -21.0312 26030.3 -03474.0 -07.6017 26261.1
 26 08 2013  18 46  -21.0312 26030.0 -03474.0 -07.6019 26260.8
 26 08 2013  18 47  -21.0312 26029.8 -03474.1 -07.6021 26260.6
 26 08 2013  18 48  -21.0314 26029.6 -03474.2 -07.6023 26260.4
 26 08 2013  18 49  -21.0316 26029.6 -03474.3 -07.6027 26260.4
 26 08 2013  18 50  -21.0321 26029.4 -03474.4 -07.6028 26260.2
 26 08 2013  18 51  -21.0325 26029.3 -03474.4 -07.6029 26260.1
 26 08 2013  18 52  -21.0330 26029.1 -03474.4 -07.6029 26260.0
 26 08 2013  18 53  -21.0332 26028.9 -03474.4 -07.6030 26259.8
 26 08 2013  18 54  -21.0336 26028.8 -03474.4 -07.6030 26259.6
 26 08 2013  18 55  -21.0338 26028.6 -03474.4 -07.6031 26259.4
 26 08 2013  18 56  -21.0343 26028.5 -03474.4 -07.6032 26259.4
 26 08 2013  18 57  -21.0348 26028.3 -03474.5 -07.6033 26259.2
 26 08 2013  18 58  -21.0350 26028.1 -03474.4 -07.6033 26259.0
 26 08 2013  18 59  -21.0352 26028.0 -03474.5 -07.6034 26258.9
 26 08 2013  19 00  -21.0354 26027.8 -03474.5 -07.6035 26258.7
 26 08 2013  19 01  -21.0357 26027.7 -03474.5 -07.6037 26258.6
 26 08 2013  19 02  -21.0361 26027.7 -03474.6 -07.6038 26258.6
 26 08 2013  19 03  -21.0364 26027.5 -03474.6 -07.6038 26258.4
 26 08 2013  19 04  -21.0366 26027.2 -03474.5 -07.6038 26258.1
 26 08 2013  19 05  -21.0367 26027.1 -03474.6 -07.6039 26258.0
 26 08 2013  19 06  -21.0370 26027.1 -03474.7 -07.6041 26258.0
 26 08 2013  19 07  -21.0382 26027.0 -03474.6 -07.6040 26257.9
 26 08 2013  19 08  -21.0411 26026.6 -03474.5 -07.6039 26257.5
 26 08 2013  19 09  -21.0419 26026.5 -03474.7 -07.6043 26257.4
 26 08 2013  19 10  -21.0423 26026.5 -03474.8 -07.6045 26257.4
 26 08 2013  19 11  -21.0426 26026.6 -03474.9 -07.6048 26257.6
 26 08 2013  19 12  -21.0432 26027.1 -03475.2 -07.6053 26258.1
 26 08 2013  19 13  -21.0437 26027.5 -03475.4 -07.6056 26258.5
 26 08 2013  19 14  -21.0446 26028.1 -03475.6 -07.6057 26259.1
 26 08 2013  19 15  -21.0454 26028.4 -03475.6 -07.6058 26259.4
 26 08 2013  19 16  -21.0446 26028.6 -03475.5 -07.6055 26259.6
 26 08 2013  19 17  -21.0415 26029.0 -03475.6 -07.6056 26260.0
 26 08 2013  19 18  -21.0420 26028.8 -03475.4 -07.6053 26259.8
 26 08 2013  19 19  -21.0433 26028.8 -03475.4 -07.6051 26259.8
 26 08 2013  19 20  -21.0441 26028.5 -03475.1 -07.6046 26259.5
 26 08 2013  19 21  -21.0442 26027.5 -03474.5 -07.6037 26258.4
 26 08 2013  19 22  -21.0439 26026.1 -03473.8 -07.6025 26256.9
 26 08 2013  19 23  -21.0436 26025.0 -03473.4 -07.6020 26255.8
 26 08 2013  19 24  -21.0432 26023.9 -03473.2 -07.6018 26254.7
 26 08 2013  19 25  -21.0428 26023.0 -03473.1 -07.6018 26253.8
 26 08 2013  19 26  -21.0425 26022.6 -03473.2 -07.6022 26253.3
 26 08 2013  19 27  -21.0424 26022.5 -03473.5 -07.6029 26253.3
 26 08 2013  19 28  -21.0425 26022.4 -03473.7 -07.6035 26253.2
 26 08 2013  19 29  -21.0424 26022.3 -03473.9 -07.6038 26253.1
 26 08 2013  19 30  -21.0424 26022.0 -03474.0 -07.6040 26252.9
 26 08 2013  19 31  -21.0419 26021.7 -03474.0 -07.6042 26252.6
 26 08 2013  19 32  -21.0418 26021.3 -03474.0 -07.6044 26252.2
 26 08 2013  19 33  -21.0416 26021.1 -03474.1 -07.6046 26252.0
 26 08 2013  19 34  -21.0414 26020.9 -03474.2 -07.6049 26251.8
 26 08 2013  19 35  -21.0414 26020.8 -03474.3 -07.6052 26251.7
 26 08 2013  19 36  -21.0413 26020.7 -03474.4 -07.6055 26251.6
 26 08 2013  19 37  -21.0410 26020.5 -03474.5 -07.6056 26251.4
 26 08 2013  19 38  -21.0408 26020.4 -03474.6 -07.6059 26251.4
 26 08 2013  19 39  -21.0408 26020.4 -03474.8 -07.6064 26251.4
 26 08 2013  19 40  -21.0410 26020.5 -03475.0 -07.6067 26251.5
 26 08 2013  19 41  -21.0410 26020.3 -03475.0 -07.6068 26251.3
 26 08 2013  19 42  -21.0410 26020.1 -03475.0 -07.6068 26251.2
 26 08 2013  19 43  -21.0413 26020.0 -03475.0 -07.6069 26251.0
 26 08 2013  19 44  -21.0413 26019.8 -03475.0 -07.6070 26250.8
 26 08 2013  19 45  -21.0413 26019.6 -03475.1 -07.6071 26250.6
 26 08 2013  19 46  -21.0412 26019.4 -03475.1 -07.6072 26250.4
 26 08 2013  19 47  -21.0413 26019.4 -03475.2 -07.6075 26250.4
 26 08 2013  19 48  -21.0417 26019.4 -03475.3 -07.6077 26250.4
 26 08 2013  19 49  -21.0417 26019.2 -03475.3 -07.6079 26250.3
 26 08 2013  19 50  -21.0417 26019.0 -03475.3 -07.6078 26250.1
 26 08 2013  19 51  -21.0417 26018.8 -03475.3 -07.6078 26249.8
 26 08 2013  19 52  -21.0417 26018.6 -03475.3 -07.6080 26249.7
 26 08 2013  19 53  -21.0419 26018.7 -03475.4 -07.6081 26249.8
 26 08 2013  19 54  -21.0421 26018.8 -03475.5 -07.6083 26249.9
 26 08 2013  19 55  -21.0422 26018.8 -03475.6 -07.6085 26249.9
 26 08 2013  19 56  -21.0423 26018.8 -03475.7 -07.6087 26249.9
 26 08 2013  19 57  -21.0423 26018.8 -03475.7 -07.6088 26250.0
 26 08 2013  19 58  -21.0425 26019.0 -03475.8 -07.6089 26250.1
 26 08 2013  19 59  -21.0428 26019.1 -03475.9 -07.6091 26250.3
 26 08 2013  20 00  -21.0429 26019.1 -03475.9 -07.6091 26250.3
 26 08 2013  20 01  -21.0431 26019.1 -03475.9 -07.6091 26250.2
 26 08 2013  20 02  -21.0432 26019.2 -03475.9 -07.6091 26250.3
 26 08 2013  20 03  -21.0431 26019.4 -03476.0 -07.6092 26250.5
 26 08 2013  20 04  -21.0439 26019.5 -03475.9 -07.6090 26250.7
 26 08 2013  20 05  -21.0439 26019.3 -03475.8 -07.6089 26250.5
 26 08 2013  20 06  -21.0437 26019.1 -03475.7 -07.6086 26250.2
 26 08 2013  20 07  -21.0437 26019.1 -03475.7 -07.6086 26250.2
 26 08 2013  20 08  -21.0437 26019.0 -03475.6 -07.6085 26250.1
 26 08 2013  20 09  -21.0435 26018.8 -03475.5 -07.6083 26249.9
 26 08 2013  20 10  -21.0433 26018.7 -03475.5 -07.6084 26249.8
 26 08 2013  20 11  -21.0430 26018.5 -03475.5 -07.6083 26249.6
 26 08 2013  20 12  -21.0426 26018.3 -03475.4 -07.6083 26249.4
 26 08 2013  20 13  -21.0422 26018.3 -03475.4 -07.6083 26249.3
 26 08 2013  20 14  -21.0419 26018.1 -03475.4 -07.6084 26249.2
 26 08 2013  20 15  -21.0414 26017.9 -03475.4 -07.6084 26249.0
 26 08 2013  20 16  -21.0410 26017.9 -03475.5 -07.6085 26249.0
 26 08 2013  20 17  -21.0407 26018.0 -03475.6 -07.6087 26249.1
 26 08 2013  20 18  -21.0405 26018.3 -03475.7 -07.6088 26249.4
 26 08 2013  20 19  -21.0401 26018.2 -03475.7 -07.6089 26249.3
 26 08 2013  20 20  -21.0396 26018.1 -03475.6 -07.6088 26249.2
 26 08 2013  20 21  -21.0391 26018.1 -03475.6 -07.6088 26249.2
 26 08 2013  20 22  -21.0388 26018.2 -03475.6 -07.6088 26249.3
 26 08 2013  20 23  -21.0383 26018.3 -03475.7 -07.6089 26249.4
 26 08 2013  20 24  -21.0380 26018.3 -03475.7 -07.6088 26249.5
 26 08 2013  20 25  -21.0378 26018.3 -03475.7 -07.6088 26249.5
 26 08 2013  20 26  -21.0374 26018.4 -03475.7 -07.6089 26249.6
 26 08 2013  20 27  -21.0372 26018.5 -03475.8 -07.6090 26249.6
 26 08 2013  20 28  -21.0368 26018.6 -03475.8 -07.6091 26249.8
 26 08 2013  20 29  -21.0364 26018.7 -03475.8 -07.6091 26249.8
 26 08 2013  20 30  -21.0360 26018.8 -03475.8 -07.6090 26249.9
 26 08 2013  20 31  -21.0356 26018.9 -03475.8 -07.6090 26250.0
 26 08 2013  20 32  -21.0352 26018.9 -03475.9 -07.6091 26250.1
 26 08 2013  20 33  -21.0351 26019.0 -03475.9 -07.6091 26250.2
 26 08 2013  20 34  -21.0351 26019.1 -03475.9 -07.6091 26250.3
 26 08 2013  20 35  -21.0351 26019.3 -03476.0 -07.6092 26250.4
 26 08 2013  20 36  -21.0349 26019.3 -03476.0 -07.6092 26250.4
 26 08 2013  20 37  -21.0348 26019.3 -03475.9 -07.6090 26250.4
 26 08 2013  20 38  -21.0347 26019.1 -03475.8 -07.6090 26250.3
 26 08 2013  20 39  -21.0346 26019.1 -03475.8 -07.6089 26250.2
 26 08 2013  20 40  -21.0345 26019.0 -03475.8 -07.6089 26250.2
 26 08 2013  20 41  -21.0343 26019.0 -03475.8 -07.6090 26250.1
 26 08 2013  20 42  -21.0340 26018.9 -03475.8 -07.6090 26250.1
 26 08 2013  20 43  -21.0337 26018.8 -03475.8 -07.6090 26250.0
 26 08 2013  20 44  -21.0332 26018.8 -03475.8 -07.6090 26249.9
 26 08 2013  20 45  -21.0328 26018.7 -03475.8 -07.6091 26249.8
 26 08 2013  20 46  -21.0325 26018.6 -03475.8 -07.6091 26249.7
 26 08 2013  20 47  -21.0322 26018.5 -03475.9 -07.6092 26249.7
 26 08 2013  20 48  -21.0319 26018.6 -03476.0 -07.6094 26249.7
 26 08 2013  20 49  -21.0315 26018.6 -03476.0 -07.6094 26249.7
 26 08 2013  20 50  -21.0311 26018.6 -03476.0 -07.6096 26249.7
 26 08 2013  20 51  -21.0308 26018.6 -03476.1 -07.6097 26249.8
 26 08 2013  20 52  -21.0304 26018.7 -03476.2 -07.6099 26249.9
 26 08 2013  20 53  -21.0300 26018.7 -03476.3 -07.6101 26249.9
 26 08 2013  20 54  -21.0297 26018.8 -03476.4 -07.6102 26250.0
 26 08 2013  20 55  -21.0295 26018.9 -03476.4 -07.6103 26250.1
 26 08 2013  20 56  -21.0292 26018.9 -03476.4 -07.6102 26250.1
 26 08 2013  20 57  -21.0289 26019.0 -03476.6 -07.6107 26250.3
 26 08 2013  20 58  -21.0287 26019.1 -03476.7 -07.6109 26250.4
 26 08 2013  20 59  -21.0284 26019.2 -03476.8 -07.6110 26250.5
 26 08 2013  21 00  -21.0282 26019.3 -03476.9 -07.6112 26250.6
 26 08 2013  21 01  -21.0280 26019.4 -03476.9 -07.6112 26250.7
 26 08 2013  21 02  -21.0277 26019.5 -03476.9 -07.6112 26250.8
 26 08 2013  21 03  -21.0274 26019.6 -03477.0 -07.6114 26250.9
 26 08 2013  21 04  -21.0271 26019.7 -03477.1 -07.6114 26251.0
 26 08 2013  21 05  -21.0268 26019.8 -03477.1 -07.6115 26251.1
 26 08 2013  21 06  -21.0264 26019.9 -03477.0 -07.6113 26251.2
 26 08 2013  21 07  -21.0263 26020.1 -03477.3 -07.6118 26251.4
 26 08 2013  21 08  -21.0260 26020.2 -03477.4 -07.6120 26251.5
 26 08 2013  21 09  -21.0257 26020.3 -03477.5 -07.6121 26251.7
 26 08 2013  21 10  -21.0253 26020.4 -03477.5 -07.6122 26251.7
 26 08 2013  21 11  -21.0248 26020.3 -03477.5 -07.6121 26251.7
 26 08 2013  21 12  -21.0243 26020.2 -03477.4 -07.6121 26251.6
 26 08 2013  21 13  -21.0238 26020.1 -03477.4 -07.6121 26251.5
 26 08 2013  21 14  -21.0234 26020.0 -03477.4 -07.6121 26251.3
 26 08 2013  21 15  -21.0229 26020.0 -03477.4 -07.6121 26251.3
 26 08 2013  21 16  -21.0228 26019.8 -03477.4 -07.6121 26251.1
 26 08 2013  21 17  -21.0224 26019.8 -03477.4 -07.6121 26251.2
 26 08 2013  21 18  -21.0222 26019.8 -03477.5 -07.6124 26251.2
 26 08 2013  21 19  -21.0219 26019.8 -03477.6 -07.6126 26251.1
 26 08 2013  21 20  -21.0216 26019.8 -03477.6 -07.6126 26251.1
 26 08 2013  21 21  -21.0215 26019.7 -03477.7 -07.6128 26251.0
 26 08 2013  21 22  -21.0215 26019.5 -03477.7 -07.6128 26250.9
 26 08 2013  21 23  -21.0214 26019.6 -03477.7 -07.6129 26250.9
 26 08 2013  21 24  -21.0213 26019.4 -03477.7 -07.6130 26250.8
 26 08 2013  21 25  -21.0212 26019.4 -03477.7 -07.6129 26250.8
 26 08 2013  21 26  -21.0212 26019.3 -03477.7 -07.6128 26250.7
 26 08 2013  21 27  -21.0211 26019.2 -03477.7 -07.6130 26250.6
 26 08 2013  21 28  -21.0209 26019.2 -03477.8 -07.6131 26250.6
 26 08 2013  21 29  -21.0206 26019.2 -03477.8 -07.6132 26250.6
 26 08 2013  21 30  -21.0206 26019.2 -03477.9 -07.6133 26250.6
 26 08 2013  21 31  -21.0206 26019.3 -03478.0 -07.6135 26250.7
 26 08 2013  21 32  -21.0206 26019.4 -03478.0 -07.6137 26250.8
 26 08 2013  21 33  -21.0202 26019.3 -03478.1 -07.6137 26250.8
 26 08 2013  21 34  -21.0200 26019.4 -03478.1 -07.6137 26250.9
 26 08 2013  21 35  -21.0199 26019.5 -03478.2 -07.6139 26250.9
 26 08 2013  21 36  -21.0200 26019.7 -03478.3 -07.6141 26251.1
 26 08 2013  21 37  -21.0200 26019.8 -03478.4 -07.6143 26251.3
 26 08 2013  21 38  -21.0198 26019.8 -03478.4 -07.6143 26251.3
 26 08 2013  21 39  -21.0193 26019.9 -03478.4 -07.6143 26251.3
 26 08 2013  21 40  -21.0192 26020.2 -03478.6 -07.6146 26251.7
 26 08 2013  21 41  -21.0193 26020.0 -03478.6 -07.6147 26251.5
 26 08 2013  21 42  -21.0193 26019.9 -03478.5 -07.6146 26251.4
 26 08 2013  21 43  -21.0188 26020.3 -03478.7 -07.6148 26251.8
 26 08 2013  21 44  -21.0182 26020.7 -03478.9 -07.6151 26252.2
 26 08 2013  21 45  -21.0181 26020.9 -03479.0 -07.6153 26252.4
 26 08 2013  21 46  -21.0177 26020.9 -03479.1 -07.6154 26252.4
 26 08 2013  21 47  -21.0173 26020.8 -03479.0 -07.6154 26252.4
 26 08 2013  21 48  -21.0172 26021.1 -03479.1 -07.6155 26252.6
 26 08 2013  21 49  -21.0171 26021.4 -03479.3 -07.6158 26253.0
 26 08 2013  21 50  -21.0170 26021.4 -03479.3 -07.6158 26253.0
 26 08 2013  21 51  -21.0167 26021.6 -03479.4 -07.6159 26253.2
 26 08 2013  21 52  -21.0165 26022.0 -03479.6 -07.6162 26253.6
 26 08 2013  21 53  -21.0165 26022.1 -03479.7 -07.6164 26253.8
 26 08 2013  21 54  -21.0166 26022.0 -03479.6 -07.6162 26253.6
 26 08 2013  21 55  -21.0166 26022.0 -03479.5 -07.6161 26253.6
 26 08 2013  21 56  -21.0163 26022.0 -03479.5 -07.6160 26253.6
 26 08 2013  21 57  -21.0164 26022.0 -03479.5 -07.6159 26253.5
 26 08 2013  21 58  -21.0165 26021.9 -03479.4 -07.6160 26253.5
 26 08 2013  21 59  -21.0166 26021.8 -03479.4 -07.6159 26253.4
 26 08 2013  22 00  -21.0169 26021.6 -03479.3 -07.6157 26253.2
 26 08 2013  22 01  -21.0172 26021.5 -03479.2 -07.6156 26253.0
 26 08 2013  22 02  -21.0176 26021.4 -03479.2 -07.6155 26253.0
 26 08 2013  22 03  -21.0180 26021.5 -03479.2 -07.6156 26253.0
 26 08 2013  22 04  -21.0187 26021.4 -03479.2 -07.6155 26252.9
 26 08 2013  22 05  -21.0192 26021.1 -03479.1 -07.6154 26252.7
 26 08 2013  22 06  -21.0197 26021.0 -03479.0 -07.6151 26252.6
 26 08 2013  22 07  -21.0200 26021.1 -03478.9 -07.6151 26252.6
 26 08 2013  22 08  -21.0204 26021.0 -03478.9 -07.6150 26252.5
 26 08 2013  22 09  -21.0205 26020.9 -03478.8 -07.6149 26252.5
 26 08 2013  22 10  -21.0206 26020.8 -03478.7 -07.6147 26252.3
 26 08 2013  22 11  -21.0207 26020.5 -03478.6 -07.6144 26252.0
 26 08 2013  22 12  -21.0209 26020.5 -03478.5 -07.6144 26252.0
 26 08 2013  22 13  -21.0210 26020.5 -03478.5 -07.6144 26252.0
 26 08 2013  22 14  -21.0210 26020.3 -03478.4 -07.6142 26251.8
 26 08 2013  22 15  -21.0209 26020.2 -03478.3 -07.6141 26251.6
 26 08 2013  22 16  -21.0207 26020.1 -03478.3 -07.6140 26251.5
 26 08 2013  22 17  -21.0206 26019.9 -03478.2 -07.6139 26251.3
 26 08 2013  22 18  -21.0207 26019.6 -03478.1 -07.6137 26251.0
 26 08 2013  22 19  -21.0210 26019.3 -03478.0 -07.6136 26250.8
 26 08 2013  22 20  -21.0210 26019.3 -03478.0 -07.6136 26250.8
 26 08 2013  22 21  -21.0209 26019.1 -03478.0 -07.6135 26250.5
 26 08 2013  22 22  -21.0210 26018.8 -03477.8 -07.6133 26250.2
 26 08 2013  22 23  -21.0211 26018.6 -03477.8 -07.6132 26250.0
 26 08 2013  22 24  -21.0212 26018.1 -03477.5 -07.6129 26249.5
 26 08 2013  22 25  -21.0215 26017.8 -03477.4 -07.6128 26249.2
 26 08 2013  22 26  -21.0216 26017.6 -03477.4 -07.6128 26249.0
 26 08 2013  22 27  -21.0217 26017.4 -03477.3 -07.6127 26248.7
 26 08 2013  22 28  -21.0218 26017.4 -03477.3 -07.6127 26248.7
 26 08 2013  22 29  -21.0218 26017.3 -03477.4 -07.6128 26248.7
 26 08 2013  22 30  -21.0218 26017.5 -03477.5 -07.6130 26248.8
 26 08 2013  22 31  -21.0216 26017.7 -03477.6 -07.6133 26249.1
 26 08 2013  22 32  -21.0214 26017.8 -03477.8 -07.6135 26249.2
 26 08 2013  22 33  -21.0212 26018.0 -03477.9 -07.6137 26249.4
 26 08 2013  22 34  -21.0210 26018.3 -03478.1 -07.6140 26249.7
 26 08 2013  22 35  -21.0210 26018.4 -03478.2 -07.6142 26249.9
 26 08 2013  22 36  -21.0210 26018.5 -03478.2 -07.6143 26249.9
 26 08 2013  22 37  -21.0208 26018.6 -03478.3 -07.6144 26250.1
 26 08 2013  22 38  -21.0207 26018.8 -03478.4 -07.6147 26250.3
 26 08 2013  22 39  -21.0205 26019.1 -03478.6 -07.6149 26250.6
 26 08 2013  22 40  -21.0203 26019.2 -03478.7 -07.6151 26250.8
 26 08 2013  22 41  -21.0198 26019.5 -03478.8 -07.6153 26251.0
 26 08 2013  22 42  -21.0195 26019.6 -03478.9 -07.6154 26251.2
 26 08 2013  22 43  -21.0192 26019.8 -03479.0 -07.6155 26251.4
 26 08 2013  22 44  -21.0191 26020.1 -03479.1 -07.6158 26251.7
 26 08 2013  22 45  -21.0192 26020.2 -03479.2 -07.6158 26251.7
 26 08 2013  22 46  -21.0190 26020.3 -03479.2 -07.6160 26251.8
 26 08 2013  22 47  -21.0190 26020.1 -03479.2 -07.6159 26251.7
 26 08 2013  22 48  -21.0193 26019.7 -03479.0 -07.6156 26251.3
 26 08 2013  22 49  -21.0195 26019.3 -03478.8 -07.6152 26250.8
 26 08 2013  22 50  -21.0197 26019.0 -03478.6 -07.6149 26250.5
 26 08 2013  22 51  -21.0197 26018.7 -03478.5 -07.6148 26250.2
 26 08 2013  22 52  -21.0196 26018.5 -03478.3 -07.6145 26249.9
 26 08 2013  22 53  -21.0194 26018.4 -03478.3 -07.6144 26249.8
 26 08 2013  22 54  -21.0191 26018.5 -03478.3 -07.6146 26249.9
 26 08 2013  22 55  -21.0190 26018.5 -03478.4 -07.6147 26250.0
 26 08 2013  22 56  -21.0190 26018.6 -03478.5 -07.6149 26250.1
 26 08 2013  22 57  -21.0190 26018.7 -03478.6 -07.6151 26250.2
 26 08 2013  22 58  -21.0192 26018.6 -03478.7 -07.6152 26250.2
 26 08 2013  22 59  -21.0193 26018.7 -03478.7 -07.6152 26250.2
 26 08 2013  23 00  -21.0190 26018.9 -03478.8 -07.6154 26250.4
 26 08 2013  23 01  -21.0189 26018.9 -03478.8 -07.6154 26250.4
 26 08 2013  23 02  -21.0187 26018.9 -03478.8 -07.6154 26250.4
 26 08 2013  23 03  -21.0186 26018.9 -03478.8 -07.6154 26250.4
 26 08 2013  23 04  -21.0184 26018.9 -03478.8 -07.6155 26250.4
 26 08 2013  23 05  -21.0183 26018.9 -03478.8 -07.6155 26250.4
 26 08 2013  23 06  -21.0181 26018.8 -03478.8 -07.6154 26250.3
 26 08 2013  23 07  -21.0181 26018.6 -03478.8 -07.6154 26250.2
 26 08 2013  23 08  -21.0181 26018.5 -03478.7 -07.6153 26250.0
 26 08 2013  23 09  -21.0182 26018.3 -03478.6 -07.6152 26249.8
 26 08 2013  23 10  -21.0184 26018.0 -03478.5 -07.6151 26249.5
 26 08 2013  23 11  -21.0185 26017.9 -03478.5 -07.6151 26249.4
 26 08 2013  23 12  -21.0186 26017.8 -03478.4 -07.6150 26249.2
 26 08 2013  23 13  -21.0187 26017.7 -03478.4 -07.6149 26249.1
 26 08 2013  23 14  -21.0186 26017.7 -03478.4 -07.6150 26249.2
 26 08 2013  23 15  -21.0187 26017.7 -03478.5 -07.6151 26249.2
 26 08 2013  23 16  -21.0189 26017.7 -03478.5 -07.6151 26249.2
 26 08 2013  23 17  -21.0190 26017.7 -03478.5 -07.6152 26249.2
 26 08 2013  23 18  -21.0191 26017.8 -03478.6 -07.6153 26249.3
 26 08 2013  23 19  -21.0194 26017.9 -03478.7 -07.6154 26249.4
 26 08 2013  23 20  -21.0195 26017.9 -03478.7 -07.6154 26249.4
 26 08 2013  23 21  -21.0196 26017.8 -03478.7 -07.6154 26249.3
 26 08 2013  23 22  -21.0199 26017.8 -03478.7 -07.6155 26249.3
 26 08 2013  23 23  -21.0201 26017.7 -03478.6 -07.6154 26249.2
 26 08 2013  23 24  -21.0204 26017.5 -03478.6 -07.6153 26249.0
 26 08 2013  23 25  -21.0207 26017.4 -03478.5 -07.6152 26248.9
 26 08 2013  23 26  -21.0209 26017.3 -03478.4 -07.6151 26248.8
 26 08 2013  23 27  -21.0210 26017.3 -03478.4 -07.6150 26248.8
 26 08 2013  23 28  -21.0209 26017.2 -03478.4 -07.6150 26248.7
 26 08 2013  23 29  -21.0209 26017.4 -03478.4 -07.6151 26248.9
 26 08 2013  23 30  -21.0207 26017.4 -03478.5 -07.6152 26248.9
 26 08 2013  23 31  -21.0207 26017.4 -03478.5 -07.6152 26248.9
 26 08 2013  23 32  -21.0206 26017.4 -03478.5 -07.6152 26248.9
 26 08 2013  23 33  -21.0205 26017.4 -03478.5 -07.6153 26249.0
 26 08 2013  23 34  -21.0207 26017.5 -03478.5 -07.6153 26249.0
 26 08 2013  23 35  -21.0205 26017.4 -03478.5 -07.6152 26248.9
 26 08 2013  23 36  -21.0205 26017.2 -03478.4 -07.6151 26248.7
 26 08 2013  23 37  -21.0205 26017.2 -03478.4 -07.6151 26248.7
 26 08 2013  23 38  -21.0205 26017.2 -03478.4 -07.6151 26248.7
 26 08 2013  23 39  -21.0205 26017.0 -03478.3 -07.6150 26248.5
 26 08 2013  23 40  -21.0204 26016.6 -03478.2 -07.6147 26248.1
 26 08 2013  23 41  -21.0205 26016.1 -03477.9 -07.6143 26247.5
 26 08 2013  23 42  -21.0207 26015.6 -03477.7 -07.6140 26247.0
 26 08 2013  23 43  -21.0207 26015.5 -03477.6 -07.6139 26246.9
 26 08 2013  23 44  -21.0206 26015.4 -03477.7 -07.6140 26246.8
 26 08 2013  23 45  -21.0207 26015.4 -03477.7 -07.6141 26246.9
 26 08 2013  23 46  -21.0208 26015.5 -03477.8 -07.6142 26246.9
 26 08 2013  23 47  -21.0210 26015.5 -03477.9 -07.6144 26247.0
 26 08 2013  23 48  -21.0211 26015.7 -03478.0 -07.6145 26247.1
 26 08 2013  23 49  -21.0212 26015.8 -03478.1 -07.6148 26247.3
 26 08 2013  23 50  -21.0214 26015.9 -03478.1 -07.6149 26247.3
 26 08 2013  23 51  -21.0217 26016.0 -03478.2 -07.6150 26247.5
 26 08 2013  23 52  -21.0217 26016.0 -03478.2 -07.6150 26247.5
 26 08 2013  23 53  -21.0217 26016.0 -03478.2 -07.6150 26247.5
 26 08 2013  23 54  -21.0216 26016.1 -03478.3 -07.6151 26247.6
 26 08 2013  23 55  -21.0215 26016.3 -03478.3 -07.6152 26247.8
 26 08 2013  23 56  -21.0216 26016.3 -03478.4 -07.6153 26247.8
 26 08 2013  23 57  -21.0217 26016.5 -03478.4 -07.6153 26248.0
