SAO LUIS EMBRACE-03 <296> 1 Min. Reported data

 DD MM YYYY  HH MM   D(Deg)  H(nT)   Z(nT)   I(Deg)   F(nT)

 23 10 2013  00 00  -21.0090 26020.0 -03497.8 -07.6562 26254.1
 23 10 2013  00 01  -21.0091 26019.9 -03497.7 -07.6561 26253.9
 23 10 2013  00 02  -21.0093 26019.7 -03497.6 -07.6559 26253.7
 23 10 2013  00 03  -21.0092 26019.5 -03497.6 -07.6559 26253.5
 23 10 2013  00 04  -21.0091 26019.3 -03497.5 -07.6558 26253.3
 23 10 2013  00 05  -21.0090 26019.1 -03497.4 -07.6557 26253.1
 23 10 2013  00 06  -21.0088 26019.1 -03497.4 -07.6556 26253.1
 23 10 2013  00 07  -21.0086 26019.2 -03497.5 -07.6557 26253.2
 23 10 2013  00 08  -21.0084 26019.3 -03497.6 -07.6560 26253.4
 23 10 2013  00 09  -21.0082 26019.5 -03497.7 -07.6562 26253.6
 23 10 2013  00 10  -21.0080 26019.8 -03497.9 -07.6565 26253.8
 23 10 2013  00 11  -21.0078 26020.0 -03498.0 -07.6567 26254.1
 23 10 2013  00 12  -21.0075 26020.3 -03498.2 -07.6570 26254.4
 23 10 2013  00 13  -21.0072 26020.5 -03498.3 -07.6572 26254.6
 23 10 2013  00 14  -21.0070 26020.8 -03498.4 -07.6574 26254.9
 23 10 2013  00 15  -21.0068 26021.1 -03498.6 -07.6576 26255.2
 23 10 2013  00 16  -21.0067 26021.2 -03498.7 -07.6577 26255.4
 23 10 2013  00 17  -21.0066 26021.3 -03498.7 -07.6577 26255.4
 23 10 2013  00 18  -21.0065 26021.3 -03498.7 -07.6577 26255.5
 23 10 2013  00 19  -21.0066 26021.4 -03498.7 -07.6577 26255.5
 23 10 2013  00 20  -21.0066 26021.3 -03498.6 -07.6576 26255.5
 23 10 2013  00 21  -21.0065 26021.3 -03498.6 -07.6575 26255.5
 23 10 2013  00 22  -21.0065 26021.4 -03498.6 -07.6575 26255.5
 23 10 2013  00 23  -21.0065 26021.4 -03498.6 -07.6575 26255.5
 23 10 2013  00 24  -21.0066 26021.4 -03498.6 -07.6575 26255.5
 23 10 2013  00 25  -21.0066 26021.5 -03498.6 -07.6575 26255.6
 23 10 2013  00 26  -21.0067 26021.6 -03498.7 -07.6576 26255.8
 23 10 2013  00 27  -21.0067 26021.6 -03498.7 -07.6576 26255.8
 23 10 2013  00 28  -21.0067 26021.7 -03498.7 -07.6576 26255.9
 23 10 2013  00 29  -21.0066 26021.7 -03498.6 -07.6575 26255.8
 23 10 2013  00 30  -21.0065 26021.8 -03498.7 -07.6575 26255.9
 23 10 2013  00 31  -21.0064 26021.8 -03498.7 -07.6575 26256.0
 23 10 2013  00 32  -21.0062 26022.0 -03498.7 -07.6576 26256.1
 23 10 2013  00 33  -21.0061 26022.2 -03498.8 -07.6577 26256.4
 23 10 2013  00 34  -21.0060 26022.3 -03498.8 -07.6578 26256.5
 23 10 2013  00 35  -21.0059 26022.4 -03498.9 -07.6578 26256.5
 23 10 2013  00 36  -21.0058 26022.5 -03498.9 -07.6579 26256.7
 23 10 2013  00 37  -21.0057 26022.5 -03498.9 -07.6579 26256.7
 23 10 2013  00 38  -21.0056 26022.6 -03498.9 -07.6579 26256.8
 23 10 2013  00 39  -21.0055 26022.6 -03498.9 -07.6579 26256.8
 23 10 2013  00 40  -21.0054 26022.6 -03498.9 -07.6578 26256.7
 23 10 2013  00 41  -21.0053 26022.5 -03498.8 -07.6577 26256.7
 23 10 2013  00 42  -21.0053 26022.4 -03498.8 -07.6577 26256.6
 23 10 2013  00 43  -21.0052 26022.3 -03498.7 -07.6575 26256.5
 23 10 2013  00 44  -21.0052 26022.2 -03498.7 -07.6574 26256.4
 23 10 2013  00 45  -21.0051 26022.2 -03498.7 -07.6574 26256.4
 23 10 2013  00 46  -21.0051 26022.2 -03498.7 -07.6574 26256.4
 23 10 2013  00 47  -21.0051 26022.3 -03498.7 -07.6574 26256.5
 23 10 2013  00 48  -21.0051 26022.4 -03498.7 -07.6576 26256.5
 23 10 2013  00 49  -21.0051 26022.5 -03498.8 -07.6576 26256.6
 23 10 2013  00 50  -21.0052 26022.6 -03498.9 -07.6578 26256.8
 23 10 2013  00 51  -21.0052 26022.7 -03498.9 -07.6579 26256.9
 23 10 2013  00 52  -21.0053 26022.8 -03499.0 -07.6580 26257.0
 23 10 2013  00 53  -21.0053 26022.9 -03499.0 -07.6580 26257.1
 23 10 2013  00 54  -21.0052 26023.0 -03499.1 -07.6581 26257.1
 23 10 2013  00 55  -21.0050 26023.0 -03499.1 -07.6581 26257.2
 23 10 2013  00 56  -21.0050 26023.0 -03499.1 -07.6580 26257.2
 23 10 2013  00 57  -21.0049 26022.9 -03499.0 -07.6579 26257.1
 23 10 2013  00 58  -21.0044 26022.9 -03498.9 -07.6578 26257.1
 23 10 2013  00 59  -21.0041 26022.7 -03498.8 -07.6577 26256.9
 23 10 2013  01 00  -21.0039 26022.5 -03498.8 -07.6575 26256.7
 23 10 2013  01 01  -21.0038 26022.5 -03498.7 -07.6575 26256.6
 23 10 2013  01 02  -21.0035 26022.5 -03498.8 -07.6576 26256.7
 23 10 2013  01 03  -21.0032 26022.5 -03498.8 -07.6576 26256.6
 23 10 2013  01 04  -21.0031 26022.5 -03498.8 -07.6576 26256.6
 23 10 2013  01 05  -21.0029 26022.5 -03498.8 -07.6577 26256.7
 23 10 2013  01 06  -21.0027 26022.6 -03498.9 -07.6578 26256.8
 23 10 2013  01 07  -21.0026 26022.5 -03498.9 -07.6578 26256.7
 23 10 2013  01 08  -21.0025 26022.3 -03498.8 -07.6577 26256.4
 23 10 2013  01 09  -21.0024 26022.0 -03498.7 -07.6575 26256.1
 23 10 2013  01 10  -21.0021 26021.7 -03498.5 -07.6573 26255.8
 23 10 2013  01 11  -21.0019 26021.4 -03498.4 -07.6571 26255.5
 23 10 2013  01 12  -21.0017 26021.1 -03498.3 -07.6569 26255.2
 23 10 2013  01 13  -21.0015 26020.7 -03498.1 -07.6567 26254.8
 23 10 2013  01 14  -21.0015 26020.5 -03498.1 -07.6567 26254.6
 23 10 2013  01 15  -21.0015 26020.5 -03498.1 -07.6567 26254.6
 23 10 2013  01 16  -21.0017 26020.6 -03498.2 -07.6570 26254.7
 23 10 2013  01 17  -21.0018 26020.7 -03498.4 -07.6572 26254.8
 23 10 2013  01 18  -21.0020 26020.8 -03498.5 -07.6575 26255.0
 23 10 2013  01 19  -21.0020 26021.0 -03498.6 -07.6576 26255.1
 23 10 2013  01 20  -21.0020 26021.0 -03498.7 -07.6578 26255.1
 23 10 2013  01 21  -21.0021 26021.0 -03498.7 -07.6578 26255.1
 23 10 2013  01 22  -21.0022 26021.0 -03498.7 -07.6578 26255.1
 23 10 2013  01 23  -21.0024 26021.1 -03498.8 -07.6579 26255.2
 23 10 2013  01 24  -21.0025 26021.1 -03498.8 -07.6580 26255.3
 23 10 2013  01 25  -21.0025 26021.2 -03498.8 -07.6581 26255.3
 23 10 2013  01 26  -21.0024 26021.2 -03498.8 -07.6581 26255.4
 23 10 2013  01 27  -21.0022 26021.3 -03498.9 -07.6581 26255.5
 23 10 2013  01 28  -21.0020 26021.4 -03498.9 -07.6582 26255.6
 23 10 2013  01 29  -21.0018 26021.5 -03498.9 -07.6582 26255.7
 23 10 2013  01 30  -21.0018 26021.6 -03499.0 -07.6584 26255.8
 23 10 2013  01 31  -21.0016 26021.7 -03499.1 -07.6585 26255.9
 23 10 2013  01 32  -21.0014 26021.8 -03499.2 -07.6586 26256.0
 23 10 2013  01 33  -21.0014 26021.9 -03499.2 -07.6588 26256.2
 23 10 2013  01 34  -21.0015 26022.0 -03499.3 -07.6589 26256.3
 23 10 2013  01 35  -21.0016 26022.1 -03499.3 -07.6589 26256.4
 23 10 2013  01 36  -21.0016 26022.1 -03499.3 -07.6589 26256.4
 23 10 2013  01 37  -21.0015 26022.0 -03499.3 -07.6589 26256.2
 23 10 2013  01 38  -21.0014 26021.9 -03499.2 -07.6587 26256.1
 23 10 2013  01 39  -21.0014 26021.9 -03499.2 -07.6587 26256.1
 23 10 2013  01 40  -21.0013 26021.9 -03499.2 -07.6587 26256.1
 23 10 2013  01 41  -21.0013 26022.0 -03499.2 -07.6587 26256.2
 23 10 2013  01 42  -21.0013 26022.0 -03499.3 -07.6588 26256.2
 23 10 2013  01 43  -21.0012 26022.0 -03499.3 -07.6589 26256.2
 23 10 2013  01 44  -21.0012 26021.9 -03499.3 -07.6589 26256.2
 23 10 2013  01 45  -21.0011 26022.0 -03499.3 -07.6589 26256.2
 23 10 2013  01 46  -21.0011 26022.1 -03499.4 -07.6590 26256.3
 23 10 2013  01 47  -21.0011 26022.2 -03499.4 -07.6591 26256.5
 23 10 2013  01 48  -21.0012 26022.4 -03499.5 -07.6592 26256.6
 23 10 2013  01 49  -21.0014 26022.4 -03499.6 -07.6594 26256.6
 23 10 2013  01 50  -21.0015 26022.4 -03499.6 -07.6594 26256.6
 23 10 2013  01 51  -21.0016 26022.3 -03499.6 -07.6594 26256.5
 23 10 2013  01 52  -21.0018 26022.1 -03499.5 -07.6592 26256.3
 23 10 2013  01 53  -21.0019 26021.9 -03499.4 -07.6591 26256.2
 23 10 2013  01 54  -21.0020 26021.8 -03499.4 -07.6591 26256.1
 23 10 2013  01 55  -21.0019 26021.7 -03499.3 -07.6589 26255.9
 23 10 2013  01 56  -21.0019 26021.6 -03499.3 -07.6589 26255.8
 23 10 2013  01 57  -21.0020 26021.6 -03499.3 -07.6591 26255.8
 23 10 2013  01 58  -21.0021 26021.7 -03499.4 -07.6592 26255.9
 23 10 2013  01 59  -21.0022 26021.8 -03499.5 -07.6593 26256.0
 23 10 2013  02 00  -21.0023 26021.8 -03499.5 -07.6594 26256.0
 23 10 2013  02 01  -21.0023 26021.7 -03499.5 -07.6594 26256.0
 23 10 2013  02 02  -21.0023 26021.7 -03499.6 -07.6595 26256.0
 23 10 2013  02 03  -21.0023 26021.8 -03499.6 -07.6595 26256.1
 23 10 2013  02 04  -21.0025 26021.9 -03499.7 -07.6597 26256.2
 23 10 2013  02 05  -21.0025 26022.0 -03499.7 -07.6598 26256.3
 23 10 2013  02 06  -21.0026 26022.0 -03499.8 -07.6599 26256.3
 23 10 2013  02 07  -21.0028 26022.1 -03499.8 -07.6599 26256.4
 23 10 2013  02 08  -21.0029 26022.1 -03499.8 -07.6599 26256.4
 23 10 2013  02 09  -21.0029 26022.1 -03499.7 -07.6598 26256.4
 23 10 2013  02 10  -21.0029 26022.0 -03499.7 -07.6597 26256.3
 23 10 2013  02 11  -21.0029 26022.0 -03499.7 -07.6597 26256.3
 23 10 2013  02 12  -21.0029 26021.9 -03499.6 -07.6596 26256.2
 23 10 2013  02 13  -21.0029 26021.9 -03499.6 -07.6596 26256.1
 23 10 2013  02 14  -21.0030 26021.9 -03499.6 -07.6596 26256.2
 23 10 2013  02 15  -21.0030 26022.0 -03499.7 -07.6597 26256.3
 23 10 2013  02 16  -21.0030 26022.1 -03499.7 -07.6598 26256.4
 23 10 2013  02 17  -21.0031 26022.1 -03499.7 -07.6598 26256.3
 23 10 2013  02 18  -21.0032 26022.0 -03499.7 -07.6597 26256.3
 23 10 2013  02 19  -21.0032 26021.9 -03499.7 -07.6597 26256.2
 23 10 2013  02 20  -21.0032 26021.9 -03499.6 -07.6596 26256.2
 23 10 2013  02 21  -21.0034 26022.0 -03499.7 -07.6596 26256.2
 23 10 2013  02 22  -21.0035 26021.9 -03499.6 -07.6596 26256.2
 23 10 2013  02 23  -21.0036 26022.0 -03499.6 -07.6596 26256.2
 23 10 2013  02 24  -21.0034 26022.0 -03499.6 -07.6596 26256.2
 23 10 2013  02 25  -21.0035 26021.8 -03499.6 -07.6595 26256.1
 23 10 2013  02 26  -21.0037 26021.8 -03499.5 -07.6594 26256.1
 23 10 2013  02 27  -21.0037 26021.7 -03499.5 -07.6595 26256.0
 23 10 2013  02 28  -21.0037 26021.7 -03499.5 -07.6594 26255.9
 23 10 2013  02 29  -21.0037 26021.7 -03499.5 -07.6593 26255.9
 23 10 2013  02 30  -21.0038 26021.6 -03499.4 -07.6593 26255.8
 23 10 2013  02 31  -21.0039 26021.6 -03499.4 -07.6593 26255.8
 23 10 2013  02 32  -21.0039 26021.6 -03499.5 -07.6593 26255.9
 23 10 2013  02 33  -21.0039 26021.6 -03499.5 -07.6594 26255.9
 23 10 2013  02 34  -21.0039 26021.7 -03499.5 -07.6595 26255.9
 23 10 2013  02 35  -21.0039 26021.7 -03499.6 -07.6596 26256.0
 23 10 2013  02 36  -21.0039 26021.8 -03499.6 -07.6596 26256.0
 23 10 2013  02 37  -21.0039 26021.9 -03499.6 -07.6597 26256.1
 23 10 2013  02 38  -21.0039 26021.9 -03499.7 -07.6597 26256.2
 23 10 2013  02 39  -21.0038 26021.9 -03499.7 -07.6597 26256.2
 23 10 2013  02 40  -21.0038 26021.9 -03499.6 -07.6597 26256.1
 23 10 2013  02 41  -21.0036 26021.8 -03499.6 -07.6596 26256.1
 23 10 2013  02 42  -21.0036 26021.9 -03499.6 -07.6596 26256.2
 23 10 2013  02 43  -21.0035 26021.9 -03499.6 -07.6595 26256.1
 23 10 2013  02 44  -21.0033 26021.9 -03499.6 -07.6595 26256.1
 23 10 2013  02 45  -21.0032 26021.9 -03499.6 -07.6595 26256.1
 23 10 2013  02 46  -21.0031 26021.8 -03499.6 -07.6596 26256.1
 23 10 2013  02 47  -21.0030 26021.9 -03499.6 -07.6596 26256.1
 23 10 2013  02 48  -21.0029 26021.9 -03499.6 -07.6596 26256.1
 23 10 2013  02 49  -21.0028 26021.9 -03499.6 -07.6596 26256.1
 23 10 2013  02 50  -21.0027 26021.9 -03499.6 -07.6596 26256.2
 23 10 2013  02 51  -21.0027 26022.0 -03499.7 -07.6596 26256.2
 23 10 2013  02 52  -21.0026 26022.0 -03499.7 -07.6597 26256.3
 23 10 2013  02 53  -21.0026 26022.0 -03499.7 -07.6597 26256.3
 23 10 2013  02 54  -21.0025 26022.1 -03499.7 -07.6598 26256.4
 23 10 2013  02 55  -21.0025 26022.0 -03499.7 -07.6598 26256.3
 23 10 2013  02 56  -21.0024 26022.0 -03499.7 -07.6597 26256.2
 23 10 2013  02 57  -21.0023 26022.0 -03499.7 -07.6596 26256.3
 23 10 2013  02 58  -21.0022 26022.0 -03499.6 -07.6596 26256.3
 23 10 2013  02 59  -21.0021 26021.9 -03499.6 -07.6596 26256.2
 23 10 2013  03 00  -21.0020 26021.9 -03499.6 -07.6594 26256.2
 23 10 2013  03 01  -21.0018 26021.9 -03499.6 -07.6595 26256.2
 23 10 2013  03 02  -21.0018 26021.9 -03499.6 -07.6595 26256.2
 23 10 2013  03 03  -21.0017 26021.8 -03499.6 -07.6595 26256.1
 23 10 2013  03 04  -21.0016 26021.8 -03499.5 -07.6595 26256.1
 23 10 2013  03 05  -21.0015 26021.7 -03499.5 -07.6594 26256.0
 23 10 2013  03 06  -21.0013 26021.7 -03499.4 -07.6593 26255.9
 23 10 2013  03 07  -21.0013 26021.6 -03499.4 -07.6593 26255.8
 23 10 2013  03 08  -21.0013 26021.5 -03499.4 -07.6593 26255.8
 23 10 2013  03 09  -21.0012 26021.5 -03499.5 -07.6594 26255.8
 23 10 2013  03 10  -21.0012 26021.5 -03499.5 -07.6594 26255.8
 23 10 2013  03 11  -21.0010 26021.5 -03499.4 -07.6593 26255.7
 23 10 2013  03 12  -21.0010 26021.5 -03499.5 -07.6593 26255.7
 23 10 2013  03 13  -21.0009 26021.4 -03499.5 -07.6594 26255.7
 23 10 2013  03 14  -21.0007 26021.4 -03499.4 -07.6593 26255.7
 23 10 2013  03 15  -21.0007 26021.3 -03499.4 -07.6593 26255.6
 23 10 2013  03 16  -21.0007 26021.2 -03499.4 -07.6594 26255.5
 23 10 2013  03 17  -21.0007 26021.1 -03499.4 -07.6593 26255.4
 23 10 2013  03 18  -21.0006 26021.0 -03499.4 -07.6593 26255.3
 23 10 2013  03 19  -21.0005 26020.9 -03499.3 -07.6592 26255.2
 23 10 2013  03 20  -21.0005 26020.8 -03499.3 -07.6592 26255.1
 23 10 2013  03 21  -21.0003 26020.6 -03499.2 -07.6591 26254.9
 23 10 2013  03 22  -21.0001 26020.6 -03499.2 -07.6592 26254.8
 23 10 2013  03 23  -21.0000 26020.5 -03499.3 -07.6593 26254.7
 23 10 2013  03 24  -21.0000 26020.3 -03499.3 -07.6593 26254.6
 23 10 2013  03 25  -20.9999 26020.2 -03499.3 -07.6593 26254.5
 23 10 2013  03 26  -20.9999 26020.2 -03499.3 -07.6593 26254.4
 23 10 2013  03 27  -21.0000 26020.1 -03499.3 -07.6594 26254.4
 23 10 2013  03 28  -21.0001 26020.1 -03499.4 -07.6595 26254.4
 23 10 2013  03 29  -21.0003 26020.1 -03499.4 -07.6597 26254.3
 23 10 2013  03 30  -21.0007 26020.2 -03499.5 -07.6598 26254.4
 23 10 2013  03 31  -21.0009 26020.3 -03499.6 -07.6599 26254.6
 23 10 2013  03 32  -21.0010 26020.3 -03499.6 -07.6601 26254.6
 23 10 2013  03 33  -21.0013 26020.4 -03499.7 -07.6602 26254.7
 23 10 2013  03 34  -21.0014 26020.5 -03499.7 -07.6602 26254.8
 23 10 2013  03 35  -21.0015 26020.4 -03499.8 -07.6603 26254.7
 23 10 2013  03 36  -21.0016 26020.5 -03499.8 -07.6603 26254.8
 23 10 2013  03 37  -21.0017 26020.5 -03499.8 -07.6604 26254.8
 23 10 2013  03 38  -21.0017 26020.5 -03499.8 -07.6604 26254.8
 23 10 2013  03 39  -21.0016 26020.5 -03499.8 -07.6604 26254.8
 23 10 2013  03 40  -21.0016 26020.5 -03499.8 -07.6604 26254.8
 23 10 2013  03 41  -21.0017 26020.4 -03499.8 -07.6605 26254.8
 23 10 2013  03 42  -21.0017 26020.5 -03499.9 -07.6605 26254.8
 23 10 2013  03 43  -21.0018 26020.5 -03499.9 -07.6606 26254.8
 23 10 2013  03 44  -21.0018 26020.5 -03499.9 -07.6607 26254.9
 23 10 2013  03 45  -21.0019 26020.6 -03500.0 -07.6608 26254.9
 23 10 2013  03 46  -21.0020 26020.7 -03500.0 -07.6609 26255.0
 23 10 2013  03 47  -21.0020 26020.8 -03500.1 -07.6610 26255.2
 23 10 2013  03 48  -21.0020 26020.9 -03500.2 -07.6611 26255.2
 23 10 2013  03 49  -21.0019 26021.0 -03500.3 -07.6612 26255.4
 23 10 2013  03 50  -21.0019 26021.2 -03500.3 -07.6614 26255.6
 23 10 2013  03 51  -21.0019 26021.4 -03500.4 -07.6615 26255.7
 23 10 2013  03 52  -21.0020 26021.5 -03500.5 -07.6617 26255.9
 23 10 2013  03 53  -21.0019 26021.7 -03500.6 -07.6618 26256.1
 23 10 2013  03 54  -21.0017 26021.8 -03500.6 -07.6618 26256.2
 23 10 2013  03 55  -21.0013 26021.8 -03500.6 -07.6617 26256.2
 23 10 2013  03 56  -21.0009 26021.8 -03500.5 -07.6616 26256.2
 23 10 2013  03 57  -21.0003 26021.7 -03500.4 -07.6614 26256.0
 23 10 2013  03 58  -20.9997 26021.5 -03500.3 -07.6612 26255.9
 23 10 2013  03 59  -20.9992 26021.3 -03500.2 -07.6611 26255.6
 23 10 2013  04 00  -20.9986 26021.1 -03500.1 -07.6610 26255.4
 23 10 2013  04 01  -20.9982 26020.8 -03500.0 -07.6608 26255.1
 23 10 2013  04 02  -20.9980 26020.5 -03500.0 -07.6608 26254.9
 23 10 2013  04 03  -20.9978 26020.5 -03499.9 -07.6607 26254.8
 23 10 2013  04 04  -20.9977 26020.5 -03500.0 -07.6609 26254.8
 23 10 2013  04 05  -20.9977 26020.5 -03500.1 -07.6610 26254.8
 23 10 2013  04 06  -20.9978 26020.5 -03500.2 -07.6611 26254.9
 23 10 2013  04 07  -20.9979 26020.5 -03500.2 -07.6612 26254.8
 23 10 2013  04 08  -20.9980 26020.4 -03500.2 -07.6612 26254.7
 23 10 2013  04 09  -20.9981 26020.3 -03500.2 -07.6613 26254.6
 23 10 2013  04 10  -20.9983 26020.2 -03500.2 -07.6613 26254.6
 23 10 2013  04 11  -20.9986 26020.2 -03500.2 -07.6613 26254.6
 23 10 2013  04 12  -20.9985 26020.1 -03500.1 -07.6612 26254.4
 23 10 2013  04 13  -20.9988 26020.1 -03500.1 -07.6611 26254.4
 23 10 2013  04 14  -20.9989 26019.9 -03500.0 -07.6610 26254.2
 23 10 2013  04 15  -20.9988 26019.9 -03500.0 -07.6610 26254.2
 23 10 2013  04 16  -20.9986 26019.7 -03499.9 -07.6608 26254.0
 23 10 2013  04 17  -20.9986 26019.6 -03499.8 -07.6607 26253.9
 23 10 2013  04 18  -20.9984 26019.4 -03499.8 -07.6607 26253.8
 23 10 2013  04 19  -20.9982 26019.3 -03499.7 -07.6606 26253.6
 23 10 2013  04 20  -20.9985 26019.2 -03499.8 -07.6607 26253.5
 23 10 2013  04 21  -20.9985 26019.2 -03499.8 -07.6607 26253.5
 23 10 2013  04 22  -20.9986 26019.1 -03499.7 -07.6606 26253.4
 23 10 2013  04 23  -20.9985 26018.9 -03499.7 -07.6605 26253.2
 23 10 2013  04 24  -20.9986 26018.8 -03499.6 -07.6605 26253.1
 23 10 2013  04 25  -20.9987 26018.7 -03499.6 -07.6604 26253.0
 23 10 2013  04 26  -20.9987 26018.6 -03499.5 -07.6603 26252.9
 23 10 2013  04 27  -20.9988 26018.5 -03499.5 -07.6603 26252.7
 23 10 2013  04 28  -20.9989 26018.3 -03499.4 -07.6602 26252.6
 23 10 2013  04 29  -20.9990 26018.2 -03499.4 -07.6602 26252.5
 23 10 2013  04 30  -20.9990 26018.2 -03499.4 -07.6602 26252.5
 23 10 2013  04 31  -20.9992 26018.3 -03499.4 -07.6603 26252.5
 23 10 2013  04 32  -20.9992 26018.2 -03499.5 -07.6604 26252.5
 23 10 2013  04 33  -20.9992 26018.3 -03499.5 -07.6603 26252.6
 23 10 2013  04 34  -20.9991 26018.3 -03499.5 -07.6604 26252.6
 23 10 2013  04 35  -20.9987 26018.3 -03499.5 -07.6604 26252.6
 23 10 2013  04 36  -20.9987 26018.3 -03499.5 -07.6604 26252.6
 23 10 2013  04 37  -20.9989 26018.4 -03499.6 -07.6605 26252.7
 23 10 2013  04 38  -20.9989 26018.5 -03499.7 -07.6607 26252.8
 23 10 2013  04 39  -20.9984 26018.7 -03499.8 -07.6608 26253.0
 23 10 2013  04 40  -20.9991 26018.6 -03499.8 -07.6609 26252.9
 23 10 2013  04 41  -20.9988 26018.4 -03499.7 -07.6607 26252.7
 23 10 2013  04 42  -20.9985 26018.8 -03499.8 -07.6610 26253.1
 23 10 2013  04 43  -20.9984 26018.5 -03499.7 -07.6608 26252.8
 23 10 2013  04 44  -20.9982 26018.7 -03499.8 -07.6609 26253.0
 23 10 2013  04 45  -20.9981 26018.7 -03499.8 -07.6609 26253.0
 23 10 2013  04 46  -20.9978 26018.8 -03499.8 -07.6610 26253.1
 23 10 2013  04 47  -20.9978 26018.7 -03499.8 -07.6610 26253.0
 23 10 2013  04 48  -20.9979 26018.7 -03499.9 -07.6610 26253.0
 23 10 2013  04 49  -20.9978 26018.8 -03500.0 -07.6613 26253.2
 23 10 2013  04 50  -20.9978 26018.6 -03499.9 -07.6611 26253.0
 23 10 2013  04 51  -20.9975 26018.8 -03500.0 -07.6613 26253.2
 23 10 2013  04 52  -20.9977 26018.5 -03499.9 -07.6612 26252.8
 23 10 2013  04 53  -20.9978 26018.6 -03499.9 -07.6612 26253.0
 23 10 2013  04 54  -20.9977 26018.6 -03499.9 -07.6612 26252.9
 23 10 2013  04 55  -20.9977 26018.3 -03499.8 -07.6611 26252.7
 23 10 2013  04 56  -20.9977 26018.3 -03499.8 -07.6610 26252.6
 23 10 2013  04 57  -20.9976 26018.1 -03499.7 -07.6610 26252.4
 23 10 2013  04 58  -20.9979 26018.0 -03499.8 -07.6610 26252.4
 23 10 2013  04 59  -20.9980 26017.8 -03499.6 -07.6608 26252.1
 23 10 2013  05 00  -20.9980 26017.8 -03499.7 -07.6609 26252.1
 23 10 2013  05 01  -20.9981 26017.7 -03499.7 -07.6609 26252.0
 23 10 2013  05 02  -20.9981 26017.6 -03499.6 -07.6608 26251.9
 23 10 2013  05 03  -20.9982 26017.5 -03499.6 -07.6609 26251.8
 23 10 2013  05 04  -20.9984 26017.4 -03499.6 -07.6608 26251.7
 23 10 2013  05 05  -20.9983 26017.1 -03499.5 -07.6607 26251.4
 23 10 2013  05 06  -20.9984 26017.0 -03499.5 -07.6607 26251.3
 23 10 2013  05 07  -20.9988 26017.0 -03499.6 -07.6609 26251.3
 23 10 2013  05 08  -20.9993 26016.8 -03499.5 -07.6608 26251.1
 23 10 2013  05 09  -20.9996 26017.1 -03499.6 -07.6610 26251.4
 23 10 2013  05 10  -20.9998 26016.9 -03499.6 -07.6610 26251.2
 23 10 2013  05 11  -21.0000 26017.0 -03499.6 -07.6610 26251.3
 23 10 2013  05 12  -21.0000 26017.2 -03499.7 -07.6612 26251.6
 23 10 2013  05 13  -21.0002 26017.1 -03499.7 -07.6611 26251.4
 23 10 2013  05 14  -21.0001 26017.2 -03499.7 -07.6611 26251.5
 23 10 2013  05 15  -21.0007 26017.2 -03499.8 -07.6613 26251.5
 23 10 2013  05 16  -21.0008 26017.7 -03500.0 -07.6616 26252.1
 23 10 2013  05 17  -21.0011 26017.7 -03500.1 -07.6618 26252.1
 23 10 2013  05 18  -21.0006 26018.1 -03500.2 -07.6619 26252.5
 23 10 2013  05 19  -21.0012 26018.0 -03500.2 -07.6619 26252.4
 23 10 2013  05 20  -21.0010 26018.5 -03500.4 -07.6622 26252.9
 23 10 2013  05 21  -21.0012 26018.3 -03500.3 -07.6621 26252.7
 23 10 2013  05 22  -21.0011 26018.7 -03500.4 -07.6622 26253.1
 23 10 2013  05 23  -21.0015 26019.2 -03500.7 -07.6626 26253.6
 23 10 2013  05 24  -21.0021 26019.1 -03500.6 -07.6626 26253.5
 23 10 2013  05 25  -21.0018 26019.4 -03500.7 -07.6626 26253.8
 23 10 2013  05 26  -21.0018 26019.2 -03500.6 -07.6625 26253.6
 23 10 2013  05 27  -21.0018 26019.4 -03500.6 -07.6625 26253.9
 23 10 2013  05 28  -21.0016 26020.2 -03501.0 -07.6630 26254.6
 23 10 2013  05 29  -21.0024 26020.4 -03501.1 -07.6632 26254.8
 23 10 2013  05 30  -21.0025 26020.4 -03501.0 -07.6630 26254.8
 23 10 2013  05 31  -21.0018 26020.8 -03501.2 -07.6633 26255.3
 23 10 2013  05 32  -21.0017 26020.7 -03501.1 -07.6630 26255.2
 23 10 2013  05 33  -21.0008 26020.8 -03501.1 -07.6631 26255.3
 23 10 2013  05 34  -21.0004 26020.4 -03500.9 -07.6627 26254.9
 23 10 2013  05 35  -20.9996 26021.5 -03501.2 -07.6632 26256.0
 23 10 2013  05 36  -20.9999 26021.4 -03501.4 -07.6635 26255.9
 23 10 2013  05 37  -20.9997 26020.9 -03501.1 -07.6630 26255.3
 23 10 2013  05 38  -20.9986 26021.5 -03501.3 -07.6633 26256.0
 23 10 2013  05 39  -20.9986 26021.9 -03501.5 -07.6637 26256.4
 23 10 2013  05 40  -20.9986 26021.5 -03501.4 -07.6635 26256.0
 23 10 2013  05 41  -20.9981 26021.4 -03501.3 -07.6633 26255.9
 23 10 2013  05 42  -20.9982 26021.5 -03501.3 -07.6633 26256.0
 23 10 2013  05 43  -20.9985 26021.6 -03501.3 -07.6634 26256.1
 23 10 2013  05 44  -20.9989 26021.4 -03501.3 -07.6634 26255.9
 23 10 2013  05 45  -20.9988 26021.3 -03501.2 -07.6633 26255.8
 23 10 2013  05 46  -20.9987 26021.4 -03501.2 -07.6632 26255.8
 23 10 2013  05 47  -20.9987 26021.1 -03501.1 -07.6630 26255.6
 23 10 2013  05 48  -20.9985 26021.2 -03501.0 -07.6629 26255.6
 23 10 2013  05 49  -20.9982 26021.0 -03501.0 -07.6628 26255.5
 23 10 2013  05 50  -20.9979 26020.9 -03500.9 -07.6626 26255.3
 23 10 2013  05 51  -20.9977 26020.7 -03500.9 -07.6626 26255.1
 23 10 2013  05 52  -20.9973 26020.7 -03500.9 -07.6626 26255.2
 23 10 2013  05 53  -20.9970 26020.7 -03500.8 -07.6626 26255.1
 23 10 2013  05 54  -20.9967 26020.7 -03500.9 -07.6626 26255.1
 23 10 2013  05 55  -20.9966 26020.5 -03500.8 -07.6626 26255.0
 23 10 2013  05 56  -20.9963 26020.5 -03500.8 -07.6626 26255.0
 23 10 2013  05 57  -20.9961 26020.5 -03500.9 -07.6627 26255.0
 23 10 2013  05 58  -20.9959 26020.5 -03500.9 -07.6627 26255.0
 23 10 2013  05 59  -20.9959 26020.5 -03500.9 -07.6627 26254.9
 23 10 2013  06 00  -20.9959 26020.8 -03501.1 -07.6630 26255.2
 23 10 2013  06 01  -20.9959 26020.7 -03501.0 -07.6630 26255.1
 23 10 2013  06 02  -20.9962 26020.7 -03501.1 -07.6631 26255.1
 23 10 2013  06 03  -20.9964 26020.7 -03501.1 -07.6631 26255.2
 23 10 2013  06 04  -20.9964 26020.8 -03501.1 -07.6632 26255.3
 23 10 2013  06 05  -20.9966 26020.7 -03501.1 -07.6631 26255.2
 23 10 2013  06 06  -20.9967 26020.8 -03501.1 -07.6632 26255.3
 23 10 2013  06 07  -20.9967 26020.7 -03501.1 -07.6631 26255.2
 23 10 2013  06 08  -20.9969 26020.7 -03501.0 -07.6630 26255.2
 23 10 2013  06 09  -20.9971 26020.7 -03501.1 -07.6630 26255.2
 23 10 2013  06 10  -20.9974 26020.7 -03501.0 -07.6630 26255.2
 23 10 2013  06 11  -20.9976 26020.6 -03501.0 -07.6629 26255.1
 23 10 2013  06 12  -20.9980 26020.6 -03501.0 -07.6629 26255.0
 23 10 2013  06 13  -20.9981 26020.6 -03500.9 -07.6628 26255.0
 23 10 2013  06 14  -20.9984 26020.4 -03500.9 -07.6627 26254.8
 23 10 2013  06 15  -20.9986 26020.4 -03500.9 -07.6627 26254.8
 23 10 2013  06 16  -20.9989 26020.2 -03500.7 -07.6625 26254.6
 23 10 2013  06 17  -20.9994 26020.2 -03500.7 -07.6625 26254.7
 23 10 2013  06 18  -20.9998 26020.3 -03500.8 -07.6625 26254.7
 23 10 2013  06 19  -20.9998 26020.3 -03500.7 -07.6625 26254.7
 23 10 2013  06 20  -21.0002 26020.1 -03500.6 -07.6622 26254.5
 23 10 2013  06 21  -21.0004 26020.1 -03500.6 -07.6622 26254.5
 23 10 2013  06 22  -21.0006 26019.9 -03500.5 -07.6620 26254.3
 23 10 2013  06 23  -21.0005 26019.8 -03500.4 -07.6619 26254.2
 23 10 2013  06 24  -21.0006 26019.7 -03500.3 -07.6618 26254.1
 23 10 2013  06 25  -21.0008 26019.5 -03500.3 -07.6617 26253.9
 23 10 2013  06 26  -21.0009 26019.4 -03500.2 -07.6615 26253.7
 23 10 2013  06 27  -21.0011 26019.3 -03500.1 -07.6615 26253.7
 23 10 2013  06 28  -21.0011 26019.2 -03500.1 -07.6615 26253.6
 23 10 2013  06 29  -21.0012 26019.0 -03500.1 -07.6614 26253.4
 23 10 2013  06 30  -21.0011 26018.8 -03499.9 -07.6611 26253.2
 23 10 2013  06 31  -21.0009 26018.6 -03499.8 -07.6610 26252.9
 23 10 2013  06 32  -21.0008 26018.4 -03499.8 -07.6609 26252.7
 23 10 2013  06 33  -21.0006 26018.2 -03499.7 -07.6608 26252.5
 23 10 2013  06 34  -21.0006 26018.0 -03499.7 -07.6608 26252.4
 23 10 2013  06 35  -21.0011 26017.9 -03499.7 -07.6609 26252.3
 23 10 2013  06 36  -21.0016 26017.9 -03499.8 -07.6610 26252.3
 23 10 2013  06 37  -21.0019 26017.9 -03499.8 -07.6612 26252.2
 23 10 2013  06 38  -21.0021 26017.8 -03499.8 -07.6611 26252.2
 23 10 2013  06 39  -21.0023 26017.7 -03499.7 -07.6611 26252.0
 23 10 2013  06 40  -21.0024 26017.6 -03499.7 -07.6610 26251.9
 23 10 2013  06 41  -21.0024 26017.4 -03499.6 -07.6608 26251.7
 23 10 2013  06 42  -21.0028 26017.3 -03499.6 -07.6608 26251.6
 23 10 2013  06 43  -21.0028 26017.0 -03499.5 -07.6607 26251.3
 23 10 2013  06 44  -21.0032 26017.0 -03499.5 -07.6607 26251.3
 23 10 2013  06 45  -21.0035 26016.8 -03499.4 -07.6607 26251.1
 23 10 2013  06 46  -21.0037 26016.7 -03499.4 -07.6606 26251.0
 23 10 2013  06 47  -21.0038 26016.7 -03499.4 -07.6607 26251.0
 23 10 2013  06 48  -21.0039 26016.7 -03499.5 -07.6608 26251.0
 23 10 2013  06 49  -21.0040 26016.7 -03499.5 -07.6609 26251.1
 23 10 2013  06 50  -21.0043 26016.7 -03499.5 -07.6609 26251.0
 23 10 2013  06 51  -21.0045 26016.6 -03499.6 -07.6610 26250.9
 23 10 2013  06 52  -21.0046 26016.6 -03499.5 -07.6609 26250.9
 23 10 2013  06 53  -21.0049 26016.5 -03499.6 -07.6610 26250.9
 23 10 2013  06 54  -21.0054 26016.4 -03499.5 -07.6609 26250.8
 23 10 2013  06 55  -21.0059 26016.4 -03499.5 -07.6610 26250.7
 23 10 2013  06 56  -21.0064 26016.5 -03499.6 -07.6611 26250.8
 23 10 2013  06 57  -21.0068 26016.6 -03499.6 -07.6611 26250.9
 23 10 2013  06 58  -21.0073 26016.6 -03499.6 -07.6612 26250.9
 23 10 2013  06 59  -21.0078 26016.7 -03499.7 -07.6612 26251.0
 23 10 2013  07 00  -21.0083 26016.7 -03499.7 -07.6612 26251.0
 23 10 2013  07 01  -21.0088 26016.8 -03499.7 -07.6612 26251.1
 23 10 2013  07 02  -21.0094 26016.7 -03499.6 -07.6610 26251.0
 23 10 2013  07 03  -21.0100 26016.7 -03499.6 -07.6611 26251.1
 23 10 2013  07 04  -21.0105 26016.7 -03499.6 -07.6611 26251.1
 23 10 2013  07 05  -21.0109 26016.8 -03499.6 -07.6610 26251.1
 23 10 2013  07 06  -21.0112 26016.8 -03499.6 -07.6610 26251.2
 23 10 2013  07 07  -21.0114 26016.9 -03499.5 -07.6609 26251.2
 23 10 2013  07 08  -21.0116 26016.8 -03499.5 -07.6608 26251.1
 23 10 2013  07 09  -21.0117 26016.7 -03499.4 -07.6606 26251.0
 23 10 2013  07 10  -21.0120 26016.7 -03499.4 -07.6606 26251.0
 23 10 2013  07 11  -21.0122 26016.7 -03499.4 -07.6606 26251.0
 23 10 2013  07 12  -21.0123 26016.7 -03499.4 -07.6606 26251.0
 23 10 2013  07 13  -21.0123 26016.6 -03499.3 -07.6604 26250.9
 23 10 2013  07 14  -21.0123 26016.6 -03499.3 -07.6604 26250.9
 23 10 2013  07 15  -21.0122 26016.6 -03499.3 -07.6604 26250.8
 23 10 2013  07 16  -21.0120 26016.5 -03499.3 -07.6604 26250.8
 23 10 2013  07 17  -21.0119 26016.5 -03499.3 -07.6604 26250.8
 23 10 2013  07 18  -21.0118 26016.6 -03499.3 -07.6605 26250.9
 23 10 2013  07 19  -21.0117 26016.6 -03499.3 -07.6605 26250.9
 23 10 2013  07 20  -21.0116 26016.6 -03499.4 -07.6606 26250.9
 23 10 2013  07 21  -21.0115 26016.5 -03499.4 -07.6607 26250.8
 23 10 2013  07 22  -21.0114 26016.5 -03499.4 -07.6607 26250.8
 23 10 2013  07 23  -21.0111 26016.5 -03499.4 -07.6607 26250.8
 23 10 2013  07 24  -21.0110 26016.5 -03499.4 -07.6608 26250.8
 23 10 2013  07 25  -21.0108 26016.5 -03499.5 -07.6609 26250.8
 23 10 2013  07 26  -21.0107 26016.5 -03499.5 -07.6610 26250.8
 23 10 2013  07 27  -21.0105 26016.5 -03499.6 -07.6611 26250.8
 23 10 2013  07 28  -21.0104 26016.5 -03499.6 -07.6610 26250.8
 23 10 2013  07 29  -21.0103 26016.5 -03499.6 -07.6612 26250.8
 23 10 2013  07 30  -21.0101 26016.5 -03499.7 -07.6613 26250.8
 23 10 2013  07 31  -21.0100 26016.4 -03499.7 -07.6614 26250.8
 23 10 2013  07 32  -21.0098 26016.4 -03499.7 -07.6615 26250.7
 23 10 2013  07 33  -21.0098 26016.4 -03499.8 -07.6616 26250.7
 23 10 2013  07 34  -21.0097 26016.4 -03499.8 -07.6617 26250.7
 23 10 2013  07 35  -21.0096 26016.4 -03499.9 -07.6618 26250.8
 23 10 2013  07 36  -21.0094 26016.4 -03499.9 -07.6618 26250.7
 23 10 2013  07 37  -21.0093 26016.3 -03499.9 -07.6619 26250.7
 23 10 2013  07 38  -21.0091 26016.3 -03500.0 -07.6620 26250.6
 23 10 2013  07 39  -21.0088 26016.3 -03500.1 -07.6622 26250.7
 23 10 2013  07 40  -21.0086 26016.2 -03500.1 -07.6623 26250.6
 23 10 2013  07 41  -21.0085 26016.3 -03500.2 -07.6625 26250.7
 23 10 2013  07 42  -21.0084 26016.2 -03500.2 -07.6626 26250.6
 23 10 2013  07 43  -21.0082 26016.2 -03500.3 -07.6627 26250.6
 23 10 2013  07 44  -21.0081 26016.1 -03500.3 -07.6628 26250.5
 23 10 2013  07 45  -21.0080 26016.1 -03500.4 -07.6629 26250.5
 23 10 2013  07 46  -21.0077 26016.0 -03500.4 -07.6630 26250.4
 23 10 2013  07 47  -21.0076 26015.9 -03500.5 -07.6632 26250.3
 23 10 2013  07 48  -21.0075 26015.8 -03500.5 -07.6632 26250.2
 23 10 2013  07 49  -21.0074 26015.8 -03500.5 -07.6633 26250.3
 23 10 2013  07 50  -21.0074 26015.7 -03500.6 -07.6634 26250.2
 23 10 2013  07 51  -21.0073 26015.7 -03500.6 -07.6635 26250.1
 23 10 2013  07 52  -21.0073 26015.6 -03500.6 -07.6637 26250.0
 23 10 2013  07 53  -21.0073 26015.5 -03500.7 -07.6637 26250.0
 23 10 2013  07 54  -21.0072 26015.5 -03500.7 -07.6639 26250.0
 23 10 2013  07 55  -21.0071 26015.5 -03500.8 -07.6639 26249.9
 23 10 2013  07 56  -21.0070 26015.4 -03500.8 -07.6640 26249.9
 23 10 2013  07 57  -21.0069 26015.4 -03500.8 -07.6640 26249.9
 23 10 2013  07 58  -21.0068 26015.4 -03500.9 -07.6642 26249.8
 23 10 2013  07 59  -21.0068 26015.2 -03500.9 -07.6642 26249.7
 23 10 2013  08 00  -21.0067 26015.2 -03500.9 -07.6643 26249.7
 23 10 2013  08 01  -21.0067 26015.2 -03500.9 -07.6644 26249.7
 23 10 2013  08 02  -21.0066 26015.2 -03501.0 -07.6645 26249.7
 23 10 2013  08 03  -21.0066 26015.1 -03501.0 -07.6646 26249.6
 23 10 2013  08 04  -21.0065 26015.0 -03501.0 -07.6647 26249.5
 23 10 2013  08 05  -21.0064 26015.0 -03501.1 -07.6647 26249.6
 23 10 2013  08 06  -21.0063 26015.1 -03501.2 -07.6649 26249.7
 23 10 2013  08 07  -21.0063 26015.1 -03501.2 -07.6650 26249.6
 23 10 2013  08 08  -21.0062 26015.0 -03501.2 -07.6650 26249.5
 23 10 2013  08 09  -21.0059 26014.9 -03501.2 -07.6650 26249.5
 23 10 2013  08 10  -21.0057 26015.1 -03501.3 -07.6652 26249.6
 23 10 2013  08 11  -21.0057 26015.2 -03501.4 -07.6653 26249.7
 23 10 2013  08 12  -21.0057 26015.2 -03501.5 -07.6655 26249.8
 23 10 2013  08 13  -21.0055 26015.2 -03501.5 -07.6655 26249.8
 23 10 2013  08 14  -21.0054 26015.2 -03501.4 -07.6655 26249.7
 23 10 2013  08 15  -21.0053 26015.1 -03501.4 -07.6655 26249.7
 23 10 2013  08 16  -21.0051 26015.0 -03501.4 -07.6654 26249.6
 23 10 2013  08 17  -21.0048 26014.9 -03501.3 -07.6653 26249.4
 23 10 2013  08 18  -21.0045 26014.8 -03501.3 -07.6652 26249.4
 23 10 2013  08 19  -21.0042 26014.7 -03501.2 -07.6651 26249.3
 23 10 2013  08 20  -21.0038 26014.7 -03501.2 -07.6650 26249.2
 23 10 2013  08 21  -21.0034 26014.6 -03501.1 -07.6650 26249.1
 23 10 2013  08 22  -21.0030 26014.5 -03501.1 -07.6649 26249.0
 23 10 2013  08 23  -21.0026 26014.4 -03501.1 -07.6650 26249.0
 23 10 2013  08 24  -21.0022 26014.4 -03501.1 -07.6650 26249.0
 23 10 2013  08 25  -21.0017 26014.4 -03501.2 -07.6651 26248.9
 23 10 2013  08 26  -21.0012 26014.4 -03501.2 -07.6653 26248.9
 23 10 2013  08 27  -21.0006 26014.3 -03501.3 -07.6654 26248.9
 23 10 2013  08 28  -21.0002 26014.3 -03501.4 -07.6656 26248.9
 23 10 2013  08 29  -20.9996 26014.2 -03501.5 -07.6658 26248.8
 23 10 2013  08 30  -20.9990 26014.1 -03501.6 -07.6661 26248.7
 23 10 2013  08 31  -20.9983 26013.9 -03501.7 -07.6663 26248.6
 23 10 2013  08 32  -20.9977 26013.8 -03501.8 -07.6666 26248.4
 23 10 2013  08 33  -20.9971 26013.7 -03501.9 -07.6670 26248.3
 23 10 2013  08 34  -20.9964 26013.6 -03502.1 -07.6674 26248.2
 23 10 2013  08 35  -20.9958 26013.5 -03502.3 -07.6678 26248.2
 23 10 2013  08 36  -20.9952 26013.4 -03502.5 -07.6684 26248.2
 23 10 2013  08 37  -20.9949 26013.4 -03502.7 -07.6688 26248.1
 23 10 2013  08 38  -20.9944 26013.4 -03503.0 -07.6694 26248.2
 23 10 2013  08 39  -20.9942 26013.3 -03503.2 -07.6699 26248.1
 23 10 2013  08 40  -20.9939 26013.3 -03503.4 -07.6702 26248.1
 23 10 2013  08 41  -20.9938 26013.2 -03503.8 -07.6712 26248.1
 23 10 2013  08 42  -20.9937 26013.2 -03504.1 -07.6718 26248.1
 23 10 2013  08 43  -20.9936 26013.2 -03504.4 -07.6724 26248.2
 23 10 2013  08 44  -20.9936 26013.2 -03504.6 -07.6729 26248.2
 23 10 2013  08 45  -20.9936 26013.2 -03504.9 -07.6736 26248.3
 23 10 2013  08 46  -20.9936 26013.2 -03505.2 -07.6742 26248.3
 23 10 2013  08 47  -20.9939 26013.3 -03505.4 -07.6747 26248.4
 23 10 2013  08 48  -20.9942 26013.3 -03505.7 -07.6752 26248.5
 23 10 2013  08 49  -20.9945 26013.4 -03506.0 -07.6758 26248.6
 23 10 2013  08 50  -20.9949 26013.4 -03506.2 -07.6763 26248.7
 23 10 2013  08 51  -20.9953 26013.5 -03506.4 -07.6768 26248.8
 23 10 2013  08 52  -20.9957 26013.5 -03506.6 -07.6772 26248.8
 23 10 2013  08 53  -20.9960 26013.6 -03506.8 -07.6776 26248.9
 23 10 2013  08 54  -20.9964 26013.6 -03507.0 -07.6780 26249.0
 23 10 2013  08 55  -20.9967 26013.6 -03507.1 -07.6782 26248.9
 23 10 2013  08 56  -20.9972 26013.7 -03507.4 -07.6788 26249.0
 23 10 2013  08 57  -20.9976 26013.7 -03507.6 -07.6793 26249.1
 23 10 2013  08 58  -20.9981 26013.6 -03507.7 -07.6796 26249.1
 23 10 2013  08 59  -20.9985 26013.7 -03508.0 -07.6800 26249.2
 23 10 2013  09 00  -20.9990 26013.6 -03508.1 -07.6804 26249.1
 23 10 2013  09 01  -20.9993 26013.7 -03508.3 -07.6808 26249.2
 23 10 2013  09 02  -21.0002 26013.7 -03508.5 -07.6811 26249.2
 23 10 2013  09 03  -21.0007 26013.7 -03508.6 -07.6814 26249.2
 23 10 2013  09 04  -21.0014 26013.8 -03508.8 -07.6818 26249.4
 23 10 2013  09 05  -21.0022 26013.8 -03509.0 -07.6822 26249.4
 23 10 2013  09 06  -21.0028 26013.9 -03509.1 -07.6825 26249.5
 23 10 2013  09 07  -21.0031 26014.0 -03509.3 -07.6828 26249.6
 23 10 2013  09 08  -21.0037 26014.2 -03509.5 -07.6832 26249.8
 23 10 2013  09 09  -21.0047 26014.3 -03509.6 -07.6835 26249.9
 23 10 2013  09 10  -21.0054 26014.3 -03509.7 -07.6837 26250.0
 23 10 2013  09 11  -21.0061 26014.3 -03509.8 -07.6838 26250.0
 23 10 2013  09 12  -21.0070 26014.4 -03509.7 -07.6835 26250.1
 23 10 2013  09 13  -21.0080 26014.7 -03510.0 -07.6842 26250.4
 23 10 2013  09 14  -21.0087 26015.0 -03510.2 -07.6845 26250.7
 23 10 2013  09 15  -21.0096 26015.1 -03510.4 -07.6848 26250.9
 23 10 2013  09 16  -21.0101 26015.1 -03510.4 -07.6849 26250.9
 23 10 2013  09 17  -21.0103 26015.2 -03510.5 -07.6850 26250.9
 23 10 2013  09 18  -21.0107 26015.2 -03510.5 -07.6851 26251.0
 23 10 2013  09 19  -21.0109 26015.4 -03510.7 -07.6854 26251.2
 23 10 2013  09 20  -21.0112 26015.5 -03510.8 -07.6856 26251.3
 23 10 2013  09 21  -21.0119 26015.8 -03511.0 -07.6859 26251.6
 23 10 2013  09 22  -21.0125 26016.1 -03511.1 -07.6862 26252.0
 23 10 2013  09 23  -21.0130 26016.4 -03511.3 -07.6864 26252.2
 23 10 2013  09 24  -21.0135 26016.7 -03511.4 -07.6866 26252.6
 23 10 2013  09 25  -21.0145 26016.9 -03511.5 -07.6868 26252.8
 23 10 2013  09 26  -21.0147 26017.2 -03511.6 -07.6868 26253.1
 23 10 2013  09 27  -21.0154 26017.5 -03511.7 -07.6870 26253.4
 23 10 2013  09 28  -21.0165 26017.7 -03511.8 -07.6872 26253.7
 23 10 2013  09 29  -21.0170 26017.8 -03511.9 -07.6873 26253.8
 23 10 2013  09 30  -21.0173 26017.9 -03511.8 -07.6872 26253.9
 23 10 2013  09 31  -21.0180 26018.1 -03511.9 -07.6872 26254.1
 23 10 2013  09 32  -21.0190 26018.3 -03512.0 -07.6873 26254.3
 23 10 2013  09 33  -21.0195 26018.3 -03512.0 -07.6873 26254.3
 23 10 2013  09 34  -21.0196 26018.3 -03511.9 -07.6872 26254.3
 23 10 2013  09 35  -21.0206 26018.5 -03512.0 -07.6873 26254.4
 23 10 2013  09 36  -21.0214 26018.6 -03512.0 -07.6873 26254.5
 23 10 2013  09 37  -21.0218 26018.5 -03512.0 -07.6873 26254.5
 23 10 2013  09 38  -21.0221 26018.4 -03511.9 -07.6872 26254.3
 23 10 2013  09 39  -21.0223 26018.2 -03511.9 -07.6871 26254.2
 23 10 2013  09 40  -21.0225 26018.0 -03511.8 -07.6871 26253.9
 23 10 2013  09 41  -21.0229 26017.8 -03511.8 -07.6872 26253.7
 23 10 2013  09 42  -21.0231 26017.7 -03511.9 -07.6873 26253.7
 23 10 2013  09 43  -21.0235 26017.6 -03512.0 -07.6875 26253.6
 23 10 2013  09 44  -21.0240 26017.6 -03512.1 -07.6878 26253.6
 23 10 2013  09 45  -21.0246 26017.6 -03512.2 -07.6881 26253.6
 23 10 2013  09 46  -21.0248 26017.5 -03512.2 -07.6881 26253.5
 23 10 2013  09 47  -21.0250 26017.3 -03512.3 -07.6883 26253.3
 23 10 2013  09 48  -21.0252 26017.2 -03512.4 -07.6885 26253.2
 23 10 2013  09 49  -21.0251 26017.0 -03512.4 -07.6886 26253.0
 23 10 2013  09 50  -21.0250 26016.9 -03512.5 -07.6889 26252.9
 23 10 2013  09 51  -21.0259 26016.8 -03512.6 -07.6892 26252.9
 23 10 2013  09 52  -21.0265 26016.8 -03512.8 -07.6896 26252.9
 23 10 2013  09 53  -21.0273 26016.5 -03512.9 -07.6898 26252.6
 23 10 2013  09 54  -21.0272 26017.1 -03513.2 -07.6904 26253.2
 23 10 2013  09 55  -21.0282 26017.1 -03513.3 -07.6907 26253.2
 23 10 2013  09 56  -21.0285 26017.3 -03513.5 -07.6909 26253.5
 23 10 2013  09 57  -21.0297 26017.2 -03513.5 -07.6909 26253.3
 23 10 2013  09 58  -21.0301 26017.2 -03513.5 -07.6910 26253.4
 23 10 2013  09 59  -21.0305 26017.7 -03513.7 -07.6914 26253.9
 23 10 2013  10 00  -21.0311 26017.9 -03513.8 -07.6915 26254.1
 23 10 2013  10 01  -21.0317 26017.9 -03513.9 -07.6916 26254.1
 23 10 2013  10 02  -21.0321 26017.9 -03513.9 -07.6917 26254.1
 23 10 2013  10 03  -21.0325 26018.0 -03514.0 -07.6918 26254.2
 23 10 2013  10 04  -21.0332 26018.1 -03514.1 -07.6920 26254.4
 23 10 2013  10 05  -21.0334 26018.3 -03514.2 -07.6922 26254.6
 23 10 2013  10 06  -21.0338 26018.2 -03514.2 -07.6923 26254.4
 23 10 2013  10 07  -21.0342 26018.0 -03514.2 -07.6922 26254.2
 23 10 2013  10 08  -21.0345 26018.3 -03514.3 -07.6925 26254.5
 23 10 2013  10 09  -21.0356 26018.6 -03514.6 -07.6929 26254.9
 23 10 2013  10 10  -21.0359 26018.9 -03514.7 -07.6931 26255.3
 23 10 2013  10 11  -21.0361 26019.3 -03514.9 -07.6933 26255.7
 23 10 2013  10 12  -21.0368 26019.5 -03514.9 -07.6934 26255.8
 23 10 2013  10 13  -21.0371 26019.6 -03515.0 -07.6934 26256.0
 23 10 2013  10 14  -21.0378 26019.8 -03515.0 -07.6935 26256.2
 23 10 2013  10 15  -21.0384 26020.2 -03515.1 -07.6936 26256.5
 23 10 2013  10 16  -21.0391 26020.5 -03515.2 -07.6936 26256.8
 23 10 2013  10 17  -21.0401 26020.9 -03515.3 -07.6937 26257.3
 23 10 2013  10 18  -21.0407 26021.4 -03515.4 -07.6938 26257.8
 23 10 2013  10 19  -21.0414 26021.9 -03515.5 -07.6938 26258.3
 23 10 2013  10 20  -21.0421 26022.3 -03515.5 -07.6938 26258.7
 23 10 2013  10 21  -21.0422 26022.6 -03515.4 -07.6936 26259.0
 23 10 2013  10 22  -21.0431 26022.7 -03515.4 -07.6934 26259.1
 23 10 2013  10 23  -21.0442 26022.6 -03515.2 -07.6931 26259.0
 23 10 2013  10 24  -21.0443 26022.8 -03515.2 -07.6929 26259.1
 23 10 2013  10 25  -21.0450 26022.7 -03515.1 -07.6928 26259.1
 23 10 2013  10 26  -21.0458 26022.8 -03515.1 -07.6928 26259.2
 23 10 2013  10 27  -21.0461 26022.9 -03515.0 -07.6926 26259.2
 23 10 2013  10 28  -21.0459 26023.3 -03515.1 -07.6927 26259.6
 23 10 2013  10 29  -21.0464 26023.4 -03515.1 -07.6926 26259.7
 23 10 2013  10 30  -21.0471 26023.8 -03515.2 -07.6927 26260.2
 23 10 2013  10 31  -21.0478 26024.2 -03515.4 -07.6929 26260.6
 23 10 2013  10 32  -21.0484 26024.6 -03515.4 -07.6930 26261.0
 23 10 2013  10 33  -21.0488 26024.7 -03515.4 -07.6930 26261.1
 23 10 2013  10 34  -21.0494 26024.9 -03515.4 -07.6929 26261.3
 23 10 2013  10 35  -21.0495 26025.3 -03515.5 -07.6930 26261.6
 23 10 2013  10 36  -21.0497 26025.5 -03515.5 -07.6929 26261.9
 23 10 2013  10 37  -21.0500 26025.7 -03515.5 -07.6929 26262.1
 23 10 2013  10 38  -21.0500 26026.1 -03515.5 -07.6928 26262.4
 23 10 2013  10 39  -21.0508 26026.5 -03515.6 -07.6929 26262.8
 23 10 2013  10 40  -21.0515 26026.7 -03515.6 -07.6928 26263.1
 23 10 2013  10 41  -21.0519 26027.0 -03515.6 -07.6926 26263.4
 23 10 2013  10 42  -21.0524 26027.4 -03515.6 -07.6925 26263.7
 23 10 2013  10 43  -21.0528 26027.8 -03515.6 -07.6925 26264.2
 23 10 2013  10 44  -21.0534 26028.1 -03515.6 -07.6923 26264.4
 23 10 2013  10 45  -21.0539 26028.4 -03515.6 -07.6921 26264.8
 23 10 2013  10 46  -21.0544 26028.8 -03515.5 -07.6920 26265.1
 23 10 2013  10 47  -21.0549 26029.2 -03515.5 -07.6918 26265.6
 23 10 2013  10 48  -21.0553 26029.7 -03515.5 -07.6916 26266.0
 23 10 2013  10 49  -21.0559 26030.3 -03515.4 -07.6914 26266.6
 23 10 2013  10 50  -21.0566 26030.8 -03515.4 -07.6912 26267.1
 23 10 2013  10 51  -21.0571 26031.3 -03515.3 -07.6908 26267.6
 23 10 2013  10 52  -21.0576 26031.8 -03515.2 -07.6905 26268.0
 23 10 2013  10 53  -21.0581 26032.2 -03515.1 -07.6901 26268.4
 23 10 2013  10 54  -21.0584 26032.5 -03515.0 -07.6897 26268.8
 23 10 2013  10 55  -21.0587 26032.8 -03514.8 -07.6893 26269.0
 23 10 2013  10 56  -21.0591 26033.1 -03514.7 -07.6889 26269.3
 23 10 2013  10 57  -21.0592 26033.4 -03514.6 -07.6886 26269.5
 23 10 2013  10 58  -21.0594 26033.7 -03514.5 -07.6884 26269.9
 23 10 2013  10 59  -21.0595 26034.1 -03514.5 -07.6882 26270.2
 23 10 2013  11 00  -21.0597 26034.3 -03514.4 -07.6878 26270.4
 23 10 2013  11 01  -21.0599 26034.6 -03514.3 -07.6875 26270.7
 23 10 2013  11 02  -21.0602 26035.0 -03514.2 -07.6874 26271.1
 23 10 2013  11 03  -21.0603 26035.4 -03514.2 -07.6871 26271.5
 23 10 2013  11 04  -21.0605 26035.7 -03514.1 -07.6869 26271.8
 23 10 2013  11 05  -21.0607 26036.1 -03514.1 -07.6867 26272.2
 23 10 2013  11 06  -21.0611 26036.5 -03514.0 -07.6865 26272.5
 23 10 2013  11 07  -21.0614 26036.9 -03514.0 -07.6862 26273.0
 23 10 2013  11 08  -21.0615 26037.2 -03513.9 -07.6859 26273.3
 23 10 2013  11 09  -21.0615 26037.5 -03513.8 -07.6856 26273.5
 23 10 2013  11 10  -21.0616 26037.9 -03513.7 -07.6853 26273.9
 23 10 2013  11 11  -21.0616 26038.3 -03513.6 -07.6850 26274.3
 23 10 2013  11 12  -21.0619 26038.7 -03513.5 -07.6847 26274.6
 23 10 2013  11 13  -21.0620 26038.9 -03513.3 -07.6843 26274.9
 23 10 2013  11 14  -21.0623 26039.3 -03513.2 -07.6840 26275.2
 23 10 2013  11 15  -21.0625 26039.7 -03513.2 -07.6837 26275.6
 23 10 2013  11 16  -21.0628 26040.0 -03513.1 -07.6835 26275.9
 23 10 2013  11 17  -21.0635 26040.1 -03513.0 -07.6833 26276.0
 23 10 2013  11 18  -21.0649 26040.3 -03513.2 -07.6836 26276.2
 23 10 2013  11 19  -21.0658 26040.7 -03513.4 -07.6840 26276.7
 23 10 2013  11 20  -21.0661 26041.0 -03513.5 -07.6841 26276.9
 23 10 2013  11 21  -21.0664 26041.5 -03513.5 -07.6840 26277.4
 23 10 2013  11 22  -21.0666 26042.2 -03513.6 -07.6839 26278.1
 23 10 2013  11 23  -21.0661 26042.8 -03513.4 -07.6834 26278.7
 23 10 2013  11 24  -21.0653 26043.3 -03513.2 -07.6827 26279.1
 23 10 2013  11 25  -21.0646 26043.5 -03512.8 -07.6818 26279.4
 23 10 2013  11 26  -21.0639 26043.9 -03512.5 -07.6811 26279.7
 23 10 2013  11 27  -21.0632 26044.2 -03512.3 -07.6806 26280.0
 23 10 2013  11 28  -21.0628 26044.6 -03512.2 -07.6801 26280.3
 23 10 2013  11 29  -21.0626 26045.0 -03512.1 -07.6798 26280.8
 23 10 2013  11 30  -21.0623 26045.6 -03512.0 -07.6794 26281.3
 23 10 2013  11 31  -21.0619 26046.4 -03512.0 -07.6791 26282.1
 23 10 2013  11 32  -21.0616 26047.1 -03511.9 -07.6789 26282.8
 23 10 2013  11 33  -21.0615 26047.6 -03511.7 -07.6783 26283.3
 23 10 2013  11 34  -21.0616 26048.1 -03511.6 -07.6779 26283.8
 23 10 2013  11 35  -21.0615 26048.9 -03511.6 -07.6776 26284.5
 23 10 2013  11 36  -21.0616 26049.7 -03511.5 -07.6773 26285.3
 23 10 2013  11 37  -21.0616 26050.3 -03511.4 -07.6768 26285.9
 23 10 2013  11 38  -21.0612 26050.9 -03511.2 -07.6763 26286.5
 23 10 2013  11 39  -21.0611 26051.3 -03511.0 -07.6756 26286.9
 23 10 2013  11 40  -21.0612 26051.7 -03510.8 -07.6751 26287.2
 23 10 2013  11 41  -21.0612 26051.9 -03510.6 -07.6746 26287.4
 23 10 2013  11 42  -21.0613 26051.9 -03510.3 -07.6740 26287.3
 23 10 2013  11 43  -21.0613 26051.9 -03510.1 -07.6735 26287.3
 23 10 2013  11 44  -21.0613 26051.9 -03509.9 -07.6732 26287.3
 23 10 2013  11 45  -21.0613 26052.0 -03509.8 -07.6729 26287.4
 23 10 2013  11 46  -21.0612 26052.2 -03509.7 -07.6726 26287.6
 23 10 2013  11 47  -21.0610 26052.6 -03509.7 -07.6725 26288.0
 23 10 2013  11 48  -21.0609 26053.1 -03509.7 -07.6723 26288.4
 23 10 2013  11 49  -21.0610 26053.6 -03509.7 -07.6721 26288.9
 23 10 2013  11 50  -21.0608 26054.2 -03509.6 -07.6718 26289.5
 23 10 2013  11 51  -21.0607 26054.9 -03509.6 -07.6716 26290.2
 23 10 2013  11 52  -21.0605 26055.6 -03509.6 -07.6713 26290.9
 23 10 2013  11 53  -21.0604 26056.3 -03509.5 -07.6710 26291.6
 23 10 2013  11 54  -21.0604 26056.8 -03509.4 -07.6706 26292.1
 23 10 2013  11 55  -21.0600 26057.2 -03509.2 -07.6700 26292.4
 23 10 2013  11 56  -21.0596 26057.5 -03509.0 -07.6695 26292.7
 23 10 2013  11 57  -21.0593 26058.0 -03508.9 -07.6691 26293.2
 23 10 2013  11 58  -21.0591 26058.5 -03508.8 -07.6687 26293.6
 23 10 2013  11 59  -21.0589 26058.8 -03508.6 -07.6683 26293.9
 23 10 2013  12 00  -21.0583 26059.0 -03508.4 -07.6678 26294.1
 23 10 2013  12 01  -21.0578 26059.0 -03508.1 -07.6671 26294.1
 23 10 2013  12 02  -21.0573 26059.0 -03507.9 -07.6666 26294.0
 23 10 2013  12 03  -21.0567 26059.4 -03507.8 -07.6664 26294.4
 23 10 2013  12 04  -21.0563 26060.0 -03507.9 -07.6663 26295.1
 23 10 2013  12 05  -21.0563 26060.6 -03507.9 -07.6661 26295.7
 23 10 2013  12 06  -21.0564 26060.9 -03507.7 -07.6656 26295.9
 23 10 2013  12 07  -21.0562 26061.1 -03507.5 -07.6652 26296.1
 23 10 2013  12 08  -21.0556 26061.4 -03507.3 -07.6648 26296.3
 23 10 2013  12 09  -21.0552 26061.5 -03507.2 -07.6644 26296.4
 23 10 2013  12 10  -21.0547 26061.7 -03507.0 -07.6641 26296.6
 23 10 2013  12 11  -21.0545 26061.7 -03506.9 -07.6637 26296.6
 23 10 2013  12 12  -21.0543 26061.8 -03506.7 -07.6633 26296.7
 23 10 2013  12 13  -21.0538 26062.0 -03506.6 -07.6630 26296.8
 23 10 2013  12 14  -21.0532 26062.3 -03506.5 -07.6627 26297.1
 23 10 2013  12 15  -21.0524 26062.5 -03506.4 -07.6624 26297.3
 23 10 2013  12 16  -21.0516 26062.8 -03506.3 -07.6621 26297.6
 23 10 2013  12 17  -21.0510 26063.2 -03506.2 -07.6619 26298.0
 23 10 2013  12 18  -21.0504 26063.7 -03506.2 -07.6617 26298.5
 23 10 2013  12 19  -21.0497 26063.9 -03506.1 -07.6614 26298.6
 23 10 2013  12 20  -21.0488 26064.0 -03506.0 -07.6612 26298.8
 23 10 2013  12 21  -21.0480 26064.2 -03505.9 -07.6609 26298.9
 23 10 2013  12 22  -21.0471 26064.3 -03505.8 -07.6606 26299.0
 23 10 2013  12 23  -21.0463 26064.5 -03505.8 -07.6605 26299.2
 23 10 2013  12 24  -21.0455 26064.7 -03505.7 -07.6603 26299.4
 23 10 2013  12 25  -21.0448 26065.0 -03505.7 -07.6602 26299.6
 23 10 2013  12 26  -21.0442 26065.3 -03505.7 -07.6601 26300.0
 23 10 2013  12 27  -21.0437 26065.4 -03505.6 -07.6599 26300.0
 23 10 2013  12 28  -21.0434 26065.5 -03505.6 -07.6597 26300.2
 23 10 2013  12 29  -21.0429 26065.9 -03505.6 -07.6597 26300.5
 23 10 2013  12 30  -21.0426 26066.1 -03505.5 -07.6595 26300.7
 23 10 2013  12 31  -21.0423 26066.1 -03505.4 -07.6593 26300.8
 23 10 2013  12 32  -21.0420 26066.1 -03505.3 -07.6591 26300.8
 23 10 2013  12 33  -21.0414 26066.1 -03505.2 -07.6589 26300.7
 23 10 2013  12 34  -21.0411 26066.2 -03505.2 -07.6588 26300.9
 23 10 2013  12 35  -21.0408 26066.4 -03505.3 -07.6589 26301.0
 23 10 2013  12 36  -21.0407 26066.4 -03505.3 -07.6589 26301.0
 23 10 2013  12 37  -21.0405 26066.6 -03505.3 -07.6589 26301.2
 23 10 2013  12 38  -21.0401 26066.9 -03505.4 -07.6590 26301.5
 23 10 2013  12 39  -21.0395 26066.9 -03505.4 -07.6589 26301.5
 23 10 2013  12 40  -21.0390 26067.0 -03505.4 -07.6589 26301.6
 23 10 2013  12 41  -21.0388 26067.2 -03505.4 -07.6590 26301.8
 23 10 2013  12 42  -21.0385 26067.6 -03505.6 -07.6592 26302.2
 23 10 2013  12 43  -21.0381 26068.0 -03505.6 -07.6592 26302.7
 23 10 2013  12 44  -21.0376 26068.3 -03505.7 -07.6592 26303.0
 23 10 2013  12 45  -21.0371 26068.7 -03505.7 -07.6592 26303.3
 23 10 2013  12 46  -21.0367 26068.9 -03505.7 -07.6591 26303.6
 23 10 2013  12 47  -21.0363 26069.3 -03505.8 -07.6592 26304.0
 23 10 2013  12 48  -21.0358 26069.7 -03505.9 -07.6592 26304.3
 23 10 2013  12 49  -21.0355 26069.9 -03505.9 -07.6591 26304.6
 23 10 2013  12 50  -21.0351 26070.1 -03505.8 -07.6590 26304.8
 23 10 2013  12 51  -21.0346 26070.4 -03505.9 -07.6590 26305.1
 23 10 2013  12 52  -21.0340 26070.6 -03505.9 -07.6590 26305.3
 23 10 2013  12 53  -21.0335 26070.8 -03505.9 -07.6590 26305.5
 23 10 2013  12 54  -21.0329 26070.8 -03505.9 -07.6589 26305.5
 23 10 2013  12 55  -21.0324 26071.0 -03505.9 -07.6588 26305.6
 23 10 2013  12 56  -21.0321 26071.2 -03505.9 -07.6588 26305.9
 23 10 2013  12 57  -21.0320 26071.3 -03505.9 -07.6588 26306.0
 23 10 2013  12 58  -21.0318 26071.3 -03505.8 -07.6586 26306.0
 23 10 2013  12 59  -21.0316 26071.2 -03505.7 -07.6585 26305.9
 23 10 2013  13 00  -21.0314 26071.1 -03505.7 -07.6583 26305.8
 23 10 2013  13 01  -21.0312 26071.1 -03505.7 -07.6584 26305.7
 23 10 2013  13 02  -21.0307 26071.2 -03505.8 -07.6586 26305.9
 23 10 2013  13 03  -21.0303 26071.4 -03505.9 -07.6588 26306.1
 23 10 2013  13 04  -21.0299 26071.6 -03506.1 -07.6591 26306.3
 23 10 2013  13 05  -21.0295 26071.7 -03506.1 -07.6591 26306.3
 23 10 2013  13 06  -21.0291 26071.6 -03506.0 -07.6589 26306.3
 23 10 2013  13 07  -21.0285 26071.7 -03505.9 -07.6588 26306.3
 23 10 2013  13 08  -21.0277 26071.8 -03506.0 -07.6588 26306.5
 23 10 2013  13 09  -21.0271 26071.9 -03506.0 -07.6588 26306.6
 23 10 2013  13 10  -21.0264 26072.2 -03506.1 -07.6589 26306.9
 23 10 2013  13 11  -21.0257 26072.3 -03506.1 -07.6590 26307.0
 23 10 2013  13 12  -21.0252 26072.7 -03506.3 -07.6592 26307.4
 23 10 2013  13 13  -21.0247 26073.1 -03506.4 -07.6593 26307.8
 23 10 2013  13 14  -21.0241 26073.4 -03506.5 -07.6595 26308.1
 23 10 2013  13 15  -21.0236 26073.8 -03506.6 -07.6596 26308.5
 23 10 2013  13 16  -21.0231 26074.0 -03506.7 -07.6597 26308.8
 23 10 2013  13 17  -21.0226 26074.2 -03506.7 -07.6598 26309.0
 23 10 2013  13 18  -21.0222 26074.4 -03506.8 -07.6599 26309.2
 23 10 2013  13 19  -21.0219 26074.7 -03506.9 -07.6600 26309.5
 23 10 2013  13 20  -21.0215 26074.9 -03507.0 -07.6601 26309.7
 23 10 2013  13 21  -21.0212 26075.2 -03507.0 -07.6601 26310.0
 23 10 2013  13 22  -21.0211 26075.6 -03507.2 -07.6604 26310.4
 23 10 2013  13 23  -21.0210 26076.1 -03507.4 -07.6606 26310.9
 23 10 2013  13 24  -21.0210 26076.5 -03507.4 -07.6606 26311.3
 23 10 2013  13 25  -21.0211 26076.9 -03507.6 -07.6607 26311.8
 23 10 2013  13 26  -21.0212 26077.4 -03507.6 -07.6607 26312.3
 23 10 2013  13 27  -21.0214 26077.8 -03507.7 -07.6607 26312.7
 23 10 2013  13 28  -21.0215 26078.1 -03507.6 -07.6606 26312.9
 23 10 2013  13 29  -21.0218 26078.2 -03507.6 -07.6604 26313.0
 23 10 2013  13 30  -21.0221 26078.3 -03507.5 -07.6602 26313.2
 23 10 2013  13 31  -21.0223 26078.6 -03507.5 -07.6601 26313.4
 23 10 2013  13 32  -21.0225 26078.6 -03507.4 -07.6599 26313.4
 23 10 2013  13 33  -21.0226 26078.6 -03507.3 -07.6597 26313.4
 23 10 2013  13 34  -21.0227 26078.8 -03507.3 -07.6596 26313.6
 23 10 2013  13 35  -21.0228 26078.9 -03507.2 -07.6594 26313.7
 23 10 2013  13 36  -21.0229 26079.0 -03507.1 -07.6592 26313.8
 23 10 2013  13 37  -21.0230 26079.1 -03507.1 -07.6590 26313.9
 23 10 2013  13 38  -21.0231 26079.1 -03506.9 -07.6588 26313.8
 23 10 2013  13 39  -21.0233 26079.1 -03506.8 -07.6586 26313.8
 23 10 2013  13 40  -21.0234 26079.3 -03506.8 -07.6585 26314.0
 23 10 2013  13 41  -21.0236 26079.6 -03506.8 -07.6583 26314.3
 23 10 2013  13 42  -21.0238 26080.0 -03506.7 -07.6581 26314.7
 23 10 2013  13 43  -21.0238 26080.2 -03506.6 -07.6577 26314.9
 23 10 2013  13 44  -21.0239 26080.1 -03506.3 -07.6572 26314.7
 23 10 2013  13 45  -21.0240 26080.1 -03506.2 -07.6568 26314.8
 23 10 2013  13 46  -21.0241 26080.3 -03506.0 -07.6564 26314.9
 23 10 2013  13 47  -21.0245 26080.6 -03505.9 -07.6561 26315.1
 23 10 2013  13 48  -21.0248 26080.8 -03505.8 -07.6557 26315.3
 23 10 2013  13 49  -21.0250 26081.2 -03505.7 -07.6555 26315.7
 23 10 2013  13 50  -21.0251 26081.5 -03505.5 -07.6550 26316.0
 23 10 2013  13 51  -21.0251 26081.3 -03505.2 -07.6543 26315.8
 23 10 2013  13 52  -21.0247 26081.1 -03504.9 -07.6538 26315.6
 23 10 2013  13 53  -21.0245 26081.0 -03504.7 -07.6534 26315.4
 23 10 2013  13 54  -21.0246 26081.2 -03504.6 -07.6532 26315.6
 23 10 2013  13 55  -21.0246 26081.6 -03504.6 -07.6530 26316.0
 23 10 2013  13 56  -21.0247 26081.8 -03504.6 -07.6529 26316.2
 23 10 2013  13 57  -21.0247 26082.1 -03504.5 -07.6526 26316.5
 23 10 2013  13 58  -21.0247 26082.5 -03504.4 -07.6524 26316.9
 23 10 2013  13 59  -21.0247 26082.9 -03504.4 -07.6522 26317.2
 23 10 2013  14 00  -21.0248 26083.1 -03504.3 -07.6519 26317.5
 23 10 2013  14 01  -21.0249 26083.3 -03504.2 -07.6516 26317.6
 23 10 2013  14 02  -21.0249 26083.4 -03504.0 -07.6512 26317.7
 23 10 2013  14 03  -21.0248 26083.5 -03503.9 -07.6508 26317.8
 23 10 2013  14 04  -21.0247 26083.7 -03503.7 -07.6505 26317.9
 23 10 2013  14 05  -21.0248 26083.8 -03503.6 -07.6502 26318.1
 23 10 2013  14 06  -21.0249 26084.0 -03503.5 -07.6500 26318.2
 23 10 2013  14 07  -21.0252 26084.1 -03503.4 -07.6497 26318.3
 23 10 2013  14 08  -21.0253 26084.0 -03503.2 -07.6493 26318.2
 23 10 2013  14 09  -21.0254 26084.0 -03503.1 -07.6490 26318.2
 23 10 2013  14 10  -21.0255 26084.0 -03502.9 -07.6486 26318.2
 23 10 2013  14 11  -21.0257 26084.2 -03502.8 -07.6485 26318.3
 23 10 2013  14 12  -21.0259 26084.5 -03502.9 -07.6484 26318.6
 23 10 2013  14 13  -21.0260 26084.6 -03502.7 -07.6481 26318.7
 23 10 2013  14 14  -21.0262 26084.6 -03502.6 -07.6477 26318.7
 23 10 2013  14 15  -21.0263 26084.8 -03502.5 -07.6476 26318.9
 23 10 2013  14 16  -21.0263 26084.9 -03502.4 -07.6472 26319.0
 23 10 2013  14 17  -21.0262 26084.8 -03502.2 -07.6468 26318.9
 23 10 2013  14 18  -21.0261 26084.9 -03502.0 -07.6464 26318.9
 23 10 2013  14 19  -21.0261 26085.1 -03501.9 -07.6463 26319.1
 23 10 2013  14 20  -21.0262 26085.1 -03501.8 -07.6460 26319.1
 23 10 2013  14 21  -21.0263 26085.2 -03501.7 -07.6458 26319.2
 23 10 2013  14 22  -21.0264 26085.1 -03501.6 -07.6456 26319.1
 23 10 2013  14 23  -21.0265 26085.2 -03501.5 -07.6454 26319.2
 23 10 2013  14 24  -21.0267 26085.3 -03501.5 -07.6452 26319.3
 23 10 2013  14 25  -21.0267 26085.4 -03501.4 -07.6449 26319.3
 23 10 2013  14 26  -21.0267 26085.4 -03501.3 -07.6447 26319.3
 23 10 2013  14 27  -21.0264 26085.3 -03501.2 -07.6445 26319.2
 23 10 2013  14 28  -21.0264 26085.6 -03501.2 -07.6445 26319.5
 23 10 2013  14 29  -21.0264 26085.8 -03501.2 -07.6444 26319.7
 23 10 2013  14 30  -21.0263 26086.1 -03501.2 -07.6443 26320.0
 23 10 2013  14 31  -21.0262 26086.1 -03501.1 -07.6440 26320.0
 23 10 2013  14 32  -21.0259 26086.0 -03500.9 -07.6438 26319.9
 23 10 2013  14 33  -21.0256 26085.8 -03500.7 -07.6435 26319.7
 23 10 2013  14 34  -21.0253 26085.6 -03500.7 -07.6433 26319.5
 23 10 2013  14 35  -21.0251 26085.8 -03500.7 -07.6434 26319.6
 23 10 2013  14 36  -21.0251 26086.0 -03500.8 -07.6435 26319.8
 23 10 2013  14 37  -21.0250 26086.2 -03500.8 -07.6436 26320.0
 23 10 2013  14 38  -21.0250 26086.3 -03500.9 -07.6437 26320.2
 23 10 2013  14 39  -21.0250 26086.5 -03500.9 -07.6436 26320.4
 23 10 2013  14 40  -21.0248 26086.6 -03500.8 -07.6435 26320.5
 23 10 2013  14 41  -21.0246 26086.4 -03500.7 -07.6431 26320.3
 23 10 2013  14 42  -21.0242 26086.1 -03500.5 -07.6428 26320.0
 23 10 2013  14 43  -21.0238 26085.7 -03500.3 -07.6426 26319.5
 23 10 2013  14 44  -21.0233 26085.4 -03500.2 -07.6425 26319.2
 23 10 2013  14 45  -21.0229 26085.0 -03500.2 -07.6425 26318.8
 23 10 2013  14 46  -21.0224 26084.7 -03500.2 -07.6426 26318.5
 23 10 2013  14 47  -21.0218 26084.4 -03500.2 -07.6427 26318.2
 23 10 2013  14 48  -21.0214 26084.3 -03500.2 -07.6428 26318.1
 23 10 2013  14 49  -21.0209 26084.2 -03500.3 -07.6430 26318.0
 23 10 2013  14 50  -21.0206 26084.0 -03500.3 -07.6430 26317.8
 23 10 2013  14 51  -21.0199 26083.9 -03500.3 -07.6431 26317.7
 23 10 2013  14 52  -21.0194 26083.8 -03500.3 -07.6431 26317.6
 23 10 2013  14 53  -21.0190 26083.7 -03500.3 -07.6430 26317.5
 23 10 2013  14 54  -21.0186 26083.7 -03500.3 -07.6431 26317.5
 23 10 2013  14 55  -21.0183 26083.8 -03500.3 -07.6432 26317.6
 23 10 2013  14 56  -21.0179 26083.8 -03500.3 -07.6431 26317.6
 23 10 2013  14 57  -21.0175 26083.7 -03500.2 -07.6429 26317.5
 23 10 2013  14 58  -21.0169 26083.5 -03500.1 -07.6427 26317.3
 23 10 2013  14 59  -21.0164 26083.5 -03500.0 -07.6426 26317.3
 23 10 2013  15 00  -21.0159 26083.4 -03499.9 -07.6423 26317.2
 23 10 2013  15 01  -21.0151 26083.1 -03499.7 -07.6421 26316.9
 23 10 2013  15 02  -21.0145 26083.0 -03499.6 -07.6419 26316.8
 23 10 2013  15 03  -21.0139 26082.9 -03499.6 -07.6417 26316.6
 23 10 2013  15 04  -21.0134 26082.8 -03499.4 -07.6415 26316.5
 23 10 2013  15 05  -21.0129 26082.6 -03499.3 -07.6412 26316.3
 23 10 2013  15 06  -21.0125 26082.7 -03499.2 -07.6411 26316.3
 23 10 2013  15 07  -21.0121 26082.6 -03499.1 -07.6409 26316.3
 23 10 2013  15 08  -21.0117 26082.6 -03499.0 -07.6407 26316.2
 23 10 2013  15 09  -21.0113 26082.5 -03498.9 -07.6405 26316.2
 23 10 2013  15 10  -21.0109 26082.5 -03498.8 -07.6403 26316.1
 23 10 2013  15 11  -21.0105 26082.6 -03498.7 -07.6401 26316.2
 23 10 2013  15 12  -21.0101 26082.6 -03498.6 -07.6398 26316.2
 23 10 2013  15 13  -21.0096 26082.6 -03498.5 -07.6395 26316.2
 23 10 2013  15 14  -21.0089 26082.7 -03498.4 -07.6394 26316.3
 23 10 2013  15 15  -21.0084 26082.7 -03498.3 -07.6390 26316.2
 23 10 2013  15 16  -21.0078 26082.5 -03498.1 -07.6387 26316.0
 23 10 2013  15 17  -21.0072 26082.5 -03498.0 -07.6384 26316.0
 23 10 2013  15 18  -21.0070 26082.3 -03497.9 -07.6383 26315.8
 23 10 2013  15 19  -21.0067 26082.3 -03497.8 -07.6381 26315.8
 23 10 2013  15 20  -21.0066 26082.5 -03497.8 -07.6381 26316.0
 23 10 2013  15 21  -21.0064 26082.6 -03497.8 -07.6380 26316.1
 23 10 2013  15 22  -21.0061 26082.6 -03497.7 -07.6378 26316.1
 23 10 2013  15 23  -21.0059 26082.8 -03497.6 -07.6376 26316.3
 23 10 2013  15 24  -21.0059 26082.9 -03497.5 -07.6373 26316.3
 23 10 2013  15 25  -21.0058 26082.9 -03497.4 -07.6371 26316.3
 23 10 2013  15 26  -21.0058 26082.9 -03497.3 -07.6368 26316.3
 23 10 2013  15 27  -21.0057 26082.7 -03497.1 -07.6365 26316.1
 23 10 2013  15 28  -21.0057 26082.6 -03496.9 -07.6362 26316.0
 23 10 2013  15 29  -21.0061 26082.6 -03496.9 -07.6360 26316.0
 23 10 2013  15 30  -21.0064 26082.5 -03496.7 -07.6357 26315.9
 23 10 2013  15 31  -21.0065 26082.3 -03496.5 -07.6353 26315.6
 23 10 2013  15 32  -21.0066 26082.0 -03496.3 -07.6350 26315.3
 23 10 2013  15 33  -21.0064 26081.6 -03496.1 -07.6347 26314.9
 23 10 2013  15 34  -21.0063 26081.3 -03496.0 -07.6345 26314.5
 23 10 2013  15 35  -21.0063 26080.9 -03495.9 -07.6344 26314.2
 23 10 2013  15 36  -21.0062 26080.5 -03495.8 -07.6342 26313.8
 23 10 2013  15 37  -21.0061 26080.3 -03495.7 -07.6342 26313.5
 23 10 2013  15 38  -21.0061 26080.0 -03495.7 -07.6342 26313.2
 23 10 2013  15 39  -21.0061 26079.7 -03495.6 -07.6342 26312.9
 23 10 2013  15 40  -21.0060 26079.4 -03495.6 -07.6341 26312.6
 23 10 2013  15 41  -21.0058 26079.1 -03495.5 -07.6342 26312.4
 23 10 2013  15 42  -21.0057 26079.1 -03495.6 -07.6344 26312.3
 23 10 2013  15 43  -21.0056 26079.1 -03495.7 -07.6345 26312.3
 23 10 2013  15 44  -21.0056 26078.9 -03495.7 -07.6347 26312.1
 23 10 2013  15 45  -21.0057 26078.5 -03495.7 -07.6347 26311.8
 23 10 2013  15 46  -21.0056 26078.1 -03495.6 -07.6346 26311.4
 23 10 2013  15 47  -21.0055 26077.9 -03495.6 -07.6347 26311.1
 23 10 2013  15 48  -21.0054 26077.6 -03495.5 -07.6346 26310.8
 23 10 2013  15 49  -21.0052 26077.3 -03495.5 -07.6346 26310.6
 23 10 2013  15 50  -21.0049 26077.2 -03495.5 -07.6347 26310.4
 23 10 2013  15 51  -21.0047 26077.0 -03495.5 -07.6348 26310.3
 23 10 2013  15 52  -21.0046 26076.7 -03495.5 -07.6347 26309.9
 23 10 2013  15 53  -21.0043 26076.6 -03495.5 -07.6348 26309.8
 23 10 2013  15 54  -21.0043 26076.6 -03495.6 -07.6349 26309.9
 23 10 2013  15 55  -21.0041 26076.6 -03495.5 -07.6349 26309.8
 23 10 2013  15 56  -21.0037 26076.5 -03495.5 -07.6348 26309.7
 23 10 2013  15 57  -21.0032 26076.5 -03495.4 -07.6347 26309.7
 23 10 2013  15 58  -21.0029 26076.5 -03495.4 -07.6347 26309.8
 23 10 2013  15 59  -21.0025 26076.6 -03495.5 -07.6347 26309.8
 23 10 2013  16 00  -21.0021 26076.7 -03495.5 -07.6347 26310.0
 23 10 2013  16 01  -21.0016 26076.9 -03495.4 -07.6346 26310.1
 23 10 2013  16 02  -21.0010 26076.9 -03495.4 -07.6344 26310.1
 23 10 2013  16 03  -21.0006 26076.9 -03495.3 -07.6342 26310.1
 23 10 2013  16 04  -21.0001 26076.9 -03495.2 -07.6340 26310.1
 23 10 2013  16 05  -20.9995 26076.9 -03495.1 -07.6339 26310.1
 23 10 2013  16 06  -20.9992 26076.9 -03495.1 -07.6339 26310.1
 23 10 2013  16 07  -20.9987 26076.8 -03495.0 -07.6337 26309.9
 23 10 2013  16 08  -20.9981 26076.5 -03494.9 -07.6335 26309.6
 23 10 2013  16 09  -20.9973 26076.0 -03494.7 -07.6332 26309.1
 23 10 2013  16 10  -20.9967 26075.3 -03494.4 -07.6329 26308.4
 23 10 2013  16 11  -20.9961 26074.7 -03494.3 -07.6328 26307.8
 23 10 2013  16 12  -20.9957 26074.2 -03494.3 -07.6328 26307.3
 23 10 2013  16 13  -20.9951 26073.6 -03494.2 -07.6328 26306.7
 23 10 2013  16 14  -20.9945 26073.1 -03494.2 -07.6330 26306.2
 23 10 2013  16 15  -20.9939 26072.8 -03494.2 -07.6331 26305.9
 23 10 2013  16 16  -20.9934 26072.6 -03494.3 -07.6333 26305.7
 23 10 2013  16 17  -20.9930 26072.4 -03494.3 -07.6335 26305.5
 23 10 2013  16 18  -20.9925 26072.1 -03494.3 -07.6335 26305.2
 23 10 2013  16 19  -20.9921 26071.8 -03494.2 -07.6335 26304.9
 23 10 2013  16 20  -20.9917 26071.3 -03494.1 -07.6333 26304.4
 23 10 2013  16 21  -20.9911 26070.8 -03493.9 -07.6331 26303.9
 23 10 2013  16 22  -20.9906 26070.3 -03493.8 -07.6331 26303.4
 23 10 2013  16 23  -20.9898 26069.7 -03493.7 -07.6330 26302.8
 23 10 2013  16 24  -20.9891 26069.7 -03493.9 -07.6335 26302.8
 23 10 2013  16 25  -20.9888 26070.1 -03494.3 -07.6341 26303.3
 23 10 2013  16 26  -20.9888 26070.6 -03494.5 -07.6345 26303.7
 23 10 2013  16 27  -20.9885 26070.9 -03494.6 -07.6346 26304.0
 23 10 2013  16 28  -20.9881 26071.0 -03494.7 -07.6346 26304.2
 23 10 2013  16 29  -20.9875 26071.0 -03494.6 -07.6344 26304.1
 23 10 2013  16 30  -20.9871 26070.9 -03494.5 -07.6344 26304.1
 23 10 2013  16 31  -20.9867 26070.8 -03494.5 -07.6343 26303.9
 23 10 2013  16 32  -20.9864 26070.6 -03494.5 -07.6343 26303.8
 23 10 2013  16 33  -20.9863 26070.6 -03494.5 -07.6344 26303.7
 23 10 2013  16 34  -20.9861 26070.5 -03494.5 -07.6343 26303.7
 23 10 2013  16 35  -20.9858 26070.4 -03494.3 -07.6341 26303.5
 23 10 2013  16 36  -20.9855 26069.8 -03494.1 -07.6337 26303.0
 23 10 2013  16 37  -20.9852 26069.3 -03493.8 -07.6332 26302.4
 23 10 2013  16 38  -20.9849 26068.6 -03493.5 -07.6329 26301.7
 23 10 2013  16 39  -20.9844 26067.9 -03493.3 -07.6327 26300.9
 23 10 2013  16 40  -20.9839 26067.4 -03493.3 -07.6326 26300.4
 23 10 2013  16 41  -20.9834 26066.5 -03493.0 -07.6324 26299.5
 23 10 2013  16 42  -20.9830 26066.3 -03493.1 -07.6325 26299.3
 23 10 2013  16 43  -20.9829 26065.3 -03492.8 -07.6322 26298.3
 23 10 2013  16 44  -20.9831 26065.2 -03492.9 -07.6326 26298.2
 23 10 2013  16 45  -20.9829 26065.1 -03493.0 -07.6327 26298.1
 23 10 2013  16 46  -20.9829 26064.9 -03493.0 -07.6327 26297.9
 23 10 2013  16 47  -20.9828 26064.7 -03492.9 -07.6326 26297.7
 23 10 2013  16 48  -20.9826 26064.7 -03493.0 -07.6328 26297.8
 23 10 2013  16 49  -20.9825 26064.6 -03493.0 -07.6328 26297.6
 23 10 2013  16 50  -20.9824 26063.9 -03492.7 -07.6324 26296.9
 23 10 2013  16 51  -20.9824 26064.1 -03492.8 -07.6327 26297.1
 23 10 2013  16 52  -20.9826 26064.2 -03492.8 -07.6327 26297.2
 23 10 2013  16 53  -20.9828 26063.9 -03492.7 -07.6325 26296.8
 23 10 2013  16 54  -20.9829 26063.7 -03492.6 -07.6324 26296.7
 23 10 2013  16 55  -20.9829 26063.6 -03492.6 -07.6324 26296.6
 23 10 2013  16 56  -20.9829 26063.5 -03492.6 -07.6324 26296.4
 23 10 2013  16 57  -20.9831 26063.4 -03492.6 -07.6324 26296.4
 23 10 2013  16 58  -20.9832 26063.5 -03492.7 -07.6325 26296.4
 23 10 2013  16 59  -20.9832 26063.2 -03492.6 -07.6324 26296.2
 23 10 2013  17 00  -20.9834 26063.1 -03492.5 -07.6323 26296.0
 23 10 2013  17 01  -20.9831 26063.3 -03492.7 -07.6326 26296.3
 23 10 2013  17 02  -20.9832 26063.6 -03492.8 -07.6328 26296.6
 23 10 2013  17 03  -20.9835 26063.3 -03492.7 -07.6326 26296.3
 23 10 2013  17 04  -20.9836 26063.4 -03492.7 -07.6326 26296.4
 23 10 2013  17 05  -20.9838 26063.6 -03492.8 -07.6327 26296.6
 23 10 2013  17 06  -20.9840 26063.1 -03492.5 -07.6323 26296.0
 23 10 2013  17 07  -20.9841 26062.8 -03492.4 -07.6321 26295.8
 23 10 2013  17 08  -20.9840 26063.3 -03492.6 -07.6324 26296.3
 23 10 2013  17 09  -20.9842 26063.4 -03492.6 -07.6324 26296.4
 23 10 2013  17 10  -20.9844 26062.7 -03492.3 -07.6318 26295.7
 23 10 2013  17 11  -20.9843 26062.5 -03492.2 -07.6318 26295.4
 23 10 2013  17 12  -20.9844 26062.5 -03492.3 -07.6319 26295.5
 23 10 2013  17 13  -20.9846 26062.0 -03492.1 -07.6316 26294.9
 23 10 2013  17 14  -20.9847 26061.7 -03492.0 -07.6315 26294.6
 23 10 2013  17 15  -20.9850 26061.5 -03492.0 -07.6315 26294.4
 23 10 2013  17 16  -20.9851 26061.1 -03491.8 -07.6314 26294.0
 23 10 2013  17 17  -20.9852 26060.8 -03491.7 -07.6312 26293.7
 23 10 2013  17 18  -20.9855 26060.7 -03491.7 -07.6312 26293.6
 23 10 2013  17 19  -20.9857 26060.5 -03491.7 -07.6312 26293.3
 23 10 2013  17 20  -20.9859 26060.2 -03491.5 -07.6310 26293.1
 23 10 2013  17 21  -20.9862 26060.0 -03491.5 -07.6309 26292.8
 23 10 2013  17 22  -20.9864 26059.8 -03491.4 -07.6308 26292.6
 23 10 2013  17 23  -20.9866 26059.6 -03491.3 -07.6306 26292.4
 23 10 2013  17 24  -20.9869 26059.4 -03491.2 -07.6304 26292.2
 23 10 2013  17 25  -20.9870 26058.9 -03490.9 -07.6300 26291.7
 23 10 2013  17 26  -20.9870 26058.6 -03490.8 -07.6298 26291.4
 23 10 2013  17 27  -20.9871 26058.4 -03490.7 -07.6297 26291.2
 23 10 2013  17 28  -20.9872 26058.1 -03490.5 -07.6294 26290.8
 23 10 2013  17 29  -20.9874 26057.8 -03490.4 -07.6292 26290.6
 23 10 2013  17 30  -20.9878 26057.7 -03490.3 -07.6290 26290.4
 23 10 2013  17 31  -20.9880 26057.1 -03490.0 -07.6286 26289.8
 23 10 2013  17 32  -20.9880 26056.7 -03489.8 -07.6282 26289.4
 23 10 2013  17 33  -20.9881 26056.5 -03489.7 -07.6280 26289.1
 23 10 2013  17 34  -20.9882 26056.1 -03489.5 -07.6279 26288.8
 23 10 2013  17 35  -20.9883 26056.0 -03489.4 -07.6277 26288.6
 23 10 2013  17 36  -20.9886 26056.0 -03489.4 -07.6276 26288.6
 23 10 2013  17 37  -20.9887 26055.5 -03489.1 -07.6271 26288.0
 23 10 2013  17 38  -20.9887 26055.2 -03488.9 -07.6267 26287.7
 23 10 2013  17 39  -20.9887 26055.0 -03488.7 -07.6265 26287.5
 23 10 2013  17 40  -20.9887 26054.5 -03488.4 -07.6259 26287.0
 23 10 2013  17 41  -20.9886 26053.9 -03488.1 -07.6254 26286.3
 23 10 2013  17 42  -20.9884 26053.4 -03487.9 -07.6251 26285.8
 23 10 2013  17 43  -20.9882 26053.0 -03487.7 -07.6248 26285.4
 23 10 2013  17 44  -20.9879 26052.7 -03487.5 -07.6245 26285.1
 23 10 2013  17 45  -20.9876 26052.3 -03487.4 -07.6243 26284.7
 23 10 2013  17 46  -20.9874 26052.1 -03487.3 -07.6242 26284.5
 23 10 2013  17 47  -20.9873 26051.9 -03487.2 -07.6240 26284.2
 23 10 2013  17 48  -20.9869 26051.6 -03487.0 -07.6238 26284.0
 23 10 2013  17 49  -20.9868 26051.5 -03487.0 -07.6236 26283.8
 23 10 2013  17 50  -20.9866 26051.4 -03486.9 -07.6235 26283.7
 23 10 2013  17 51  -20.9863 26051.5 -03486.9 -07.6236 26283.9
 23 10 2013  17 52  -20.9862 26051.5 -03486.9 -07.6234 26283.8
 23 10 2013  17 53  -20.9860 26051.3 -03486.7 -07.6232 26283.6
 23 10 2013  17 54  -20.9857 26051.2 -03486.6 -07.6230 26283.5
 23 10 2013  17 55  -20.9855 26051.0 -03486.5 -07.6228 26283.3
 23 10 2013  17 56  -20.9852 26050.8 -03486.4 -07.6226 26283.0
 23 10 2013  17 57  -20.9849 26050.5 -03486.3 -07.6224 26282.8
 23 10 2013  17 58  -20.9847 26050.3 -03486.1 -07.6222 26282.5
 23 10 2013  17 59  -20.9845 26049.8 -03485.9 -07.6219 26282.0
 23 10 2013  18 00  -20.9842 26049.3 -03485.8 -07.6218 26281.5
 23 10 2013  18 01  -20.9839 26048.9 -03485.7 -07.6217 26281.1
 23 10 2013  18 02  -20.9836 26048.4 -03485.6 -07.6216 26280.6
 23 10 2013  18 03  -20.9833 26048.1 -03485.6 -07.6216 26280.3
 23 10 2013  18 04  -20.9831 26047.9 -03485.6 -07.6217 26280.1
 23 10 2013  18 05  -20.9833 26047.6 -03485.6 -07.6218 26279.8
 23 10 2013  18 06  -20.9833 26047.5 -03485.5 -07.6217 26279.7
 23 10 2013  18 07  -20.9833 26047.3 -03485.5 -07.6218 26279.4
 23 10 2013  18 08  -20.9833 26047.1 -03485.5 -07.6218 26279.3
 23 10 2013  18 09  -20.9833 26047.0 -03485.6 -07.6219 26279.2
 23 10 2013  18 10  -20.9834 26046.9 -03485.5 -07.6219 26279.0
 23 10 2013  18 11  -20.9834 26046.7 -03485.6 -07.6220 26278.9
 23 10 2013  18 12  -20.9835 26046.6 -03485.6 -07.6220 26278.8
 23 10 2013  18 13  -20.9836 26046.5 -03485.6 -07.6222 26278.7
 23 10 2013  18 14  -20.9835 26046.3 -03485.6 -07.6222 26278.5
 23 10 2013  18 15  -20.9835 26046.0 -03485.5 -07.6221 26278.2
 23 10 2013  18 16  -20.9834 26045.7 -03485.5 -07.6222 26277.9
 23 10 2013  18 17  -20.9832 26045.4 -03485.5 -07.6223 26277.6
 23 10 2013  18 18  -20.9832 26045.1 -03485.5 -07.6224 26277.3
 23 10 2013  18 19  -20.9832 26044.9 -03485.6 -07.6226 26277.1
 23 10 2013  18 20  -20.9832 26044.7 -03485.7 -07.6228 26276.9
 23 10 2013  18 21  -20.9834 26044.6 -03485.7 -07.6228 26276.8
 23 10 2013  18 22  -20.9835 26044.3 -03485.7 -07.6230 26276.6
 23 10 2013  18 23  -20.9835 26044.1 -03485.7 -07.6231 26276.4
 23 10 2013  18 24  -20.9838 26043.9 -03485.7 -07.6232 26276.2
 23 10 2013  18 25  -20.9840 26043.8 -03485.8 -07.6233 26276.1
 23 10 2013  18 26  -20.9841 26043.6 -03485.7 -07.6233 26275.9
 23 10 2013  18 27  -20.9842 26043.4 -03485.7 -07.6232 26275.7
 23 10 2013  18 28  -20.9845 26043.2 -03485.7 -07.6232 26275.5
 23 10 2013  18 29  -20.9847 26043.0 -03485.6 -07.6232 26275.2
 23 10 2013  18 30  -20.9847 26042.8 -03485.6 -07.6233 26275.0
 23 10 2013  18 31  -20.9848 26042.4 -03485.5 -07.6232 26274.7
 23 10 2013  18 32  -20.9850 26042.2 -03485.5 -07.6232 26274.4
 23 10 2013  18 33  -20.9850 26041.9 -03485.5 -07.6233 26274.2
 23 10 2013  18 34  -20.9851 26041.8 -03485.5 -07.6233 26274.0
 23 10 2013  18 35  -20.9854 26041.6 -03485.5 -07.6234 26273.8
 23 10 2013  18 36  -20.9855 26041.4 -03485.5 -07.6234 26273.7
 23 10 2013  18 37  -20.9857 26041.3 -03485.5 -07.6235 26273.5
 23 10 2013  18 38  -20.9859 26041.1 -03485.5 -07.6236 26273.4
 23 10 2013  18 39  -20.9860 26041.0 -03485.5 -07.6236 26273.2
 23 10 2013  18 40  -20.9862 26040.8 -03485.6 -07.6237 26273.0
 23 10 2013  18 41  -20.9863 26040.5 -03485.5 -07.6236 26272.7
 23 10 2013  18 42  -20.9866 26040.2 -03485.5 -07.6236 26272.5
 23 10 2013  18 43  -20.9867 26040.1 -03485.5 -07.6238 26272.3
 23 10 2013  18 44  -20.9868 26039.9 -03485.5 -07.6238 26272.1
 23 10 2013  18 45  -20.9869 26039.7 -03485.5 -07.6239 26271.9
 23 10 2013  18 46  -20.9869 26039.5 -03485.5 -07.6239 26271.8
 23 10 2013  18 47  -20.9870 26039.4 -03485.5 -07.6240 26271.7
 23 10 2013  18 48  -20.9871 26039.3 -03485.6 -07.6242 26271.6
 23 10 2013  18 49  -20.9872 26039.2 -03485.6 -07.6243 26271.4
 23 10 2013  18 50  -20.9873 26039.1 -03485.7 -07.6245 26271.4
 23 10 2013  18 51  -20.9875 26039.1 -03485.8 -07.6246 26271.4
 23 10 2013  18 52  -20.9877 26039.0 -03485.8 -07.6248 26271.3
 23 10 2013  18 53  -20.9879 26039.0 -03485.9 -07.6249 26271.3
 23 10 2013  18 54  -20.9881 26039.0 -03486.0 -07.6251 26271.3
 23 10 2013  18 55  -20.9883 26038.9 -03486.0 -07.6253 26271.2
 23 10 2013  18 56  -20.9886 26038.8 -03486.1 -07.6254 26271.1
 23 10 2013  18 57  -20.9888 26038.8 -03486.2 -07.6256 26271.1
 23 10 2013  18 58  -20.9891 26038.7 -03486.2 -07.6258 26271.1
 23 10 2013  18 59  -20.9893 26038.7 -03486.3 -07.6260 26271.1
 23 10 2013  19 00  -20.9897 26038.7 -03486.4 -07.6261 26271.0
 23 10 2013  19 01  -20.9901 26038.6 -03486.4 -07.6263 26270.9
 23 10 2013  19 02  -20.9904 26038.4 -03486.5 -07.6263 26270.8
 23 10 2013  19 03  -20.9907 26038.3 -03486.5 -07.6265 26270.7
 23 10 2013  19 04  -20.9911 26038.2 -03486.6 -07.6266 26270.6
 23 10 2013  19 05  -20.9914 26038.1 -03486.6 -07.6267 26270.5
 23 10 2013  19 06  -20.9917 26037.9 -03486.6 -07.6268 26270.3
 23 10 2013  19 07  -20.9921 26037.9 -03486.7 -07.6269 26270.3
 23 10 2013  19 08  -20.9925 26037.8 -03486.7 -07.6271 26270.2
 23 10 2013  19 09  -20.9929 26037.7 -03486.8 -07.6273 26270.1
 23 10 2013  19 10  -20.9932 26037.5 -03486.9 -07.6275 26270.0
 23 10 2013  19 11  -20.9936 26037.4 -03487.0 -07.6277 26269.9
 23 10 2013  19 12  -20.9939 26037.4 -03487.0 -07.6279 26269.8
 23 10 2013  19 13  -20.9945 26037.3 -03487.2 -07.6282 26269.8
 23 10 2013  19 14  -20.9949 26037.2 -03487.3 -07.6284 26269.7
 23 10 2013  19 15  -20.9952 26037.1 -03487.3 -07.6286 26269.6
 23 10 2013  19 16  -20.9954 26037.0 -03487.4 -07.6288 26269.5
 23 10 2013  19 17  -20.9959 26036.9 -03487.5 -07.6290 26269.4
 23 10 2013  19 18  -20.9970 26036.6 -03487.4 -07.6290 26269.1
 23 10 2013  19 19  -20.9990 26036.0 -03487.4 -07.6291 26268.6
 23 10 2013  19 20  -20.9995 26036.0 -03487.5 -07.6293 26268.5
 23 10 2013  19 21  -21.0002 26035.9 -03487.6 -07.6296 26268.4
 23 10 2013  19 22  -21.0014 26035.8 -03487.7 -07.6298 26268.3
 23 10 2013  19 23  -21.0018 26035.7 -03487.8 -07.6300 26268.3
 23 10 2013  19 24  -21.0024 26035.7 -03487.9 -07.6302 26268.2
 23 10 2013  19 25  -21.0028 26035.6 -03487.9 -07.6303 26268.2
 23 10 2013  19 26  -21.0032 26035.7 -03488.1 -07.6306 26268.3
 23 10 2013  19 27  -21.0026 26035.8 -03488.2 -07.6308 26268.5
 23 10 2013  19 28  -21.0010 26036.3 -03488.4 -07.6310 26268.9
 23 10 2013  19 29  -21.0013 26036.4 -03488.5 -07.6313 26269.0
 23 10 2013  19 30  -21.0017 26036.4 -03488.6 -07.6315 26269.1
 23 10 2013  19 31  -21.0020 26036.4 -03488.7 -07.6317 26269.1
 23 10 2013  19 32  -21.0022 26036.4 -03488.7 -07.6318 26269.1
 23 10 2013  19 33  -21.0026 26036.5 -03488.8 -07.6320 26269.2
 23 10 2013  19 34  -21.0029 26036.5 -03488.9 -07.6322 26269.2
 23 10 2013  19 35  -21.0032 26036.5 -03489.0 -07.6324 26269.2
 23 10 2013  19 36  -21.0035 26036.5 -03489.1 -07.6326 26269.2
 23 10 2013  19 37  -21.0037 26036.5 -03489.2 -07.6328 26269.2
 23 10 2013  19 38  -21.0039 26036.4 -03489.3 -07.6330 26269.2
 23 10 2013  19 39  -21.0043 26036.4 -03489.3 -07.6332 26269.1
 23 10 2013  19 40  -21.0046 26036.3 -03489.5 -07.6334 26269.1
 23 10 2013  19 41  -21.0048 26036.3 -03489.5 -07.6336 26269.1
 23 10 2013  19 42  -21.0049 26036.3 -03489.6 -07.6338 26269.1
 23 10 2013  19 43  -21.0050 26036.4 -03489.8 -07.6341 26269.2
 23 10 2013  19 44  -21.0051 26036.7 -03490.1 -07.6347 26269.6
 23 10 2013  19 45  -21.0052 26037.0 -03490.3 -07.6350 26269.9
 23 10 2013  19 46  -21.0053 26037.2 -03490.4 -07.6353 26270.1
 23 10 2013  19 47  -21.0054 26037.4 -03490.6 -07.6356 26270.3
 23 10 2013  19 48  -21.0055 26037.5 -03490.7 -07.6357 26270.5
 23 10 2013  19 49  -21.0057 26037.4 -03490.7 -07.6358 26270.4
 23 10 2013  19 50  -21.0058 26037.4 -03490.8 -07.6359 26270.4
 23 10 2013  19 51  -21.0059 26037.4 -03490.8 -07.6361 26270.4
 23 10 2013  19 52  -21.0059 26037.3 -03490.9 -07.6363 26270.3
 23 10 2013  19 53  -21.0058 26037.5 -03491.1 -07.6366 26270.5
 23 10 2013  19 54  -21.0059 26037.8 -03491.3 -07.6371 26270.8
 23 10 2013  19 55  -21.0060 26038.0 -03491.5 -07.6374 26271.0
 23 10 2013  19 56  -21.0061 26038.1 -03491.6 -07.6376 26271.2
 23 10 2013  19 57  -21.0062 26038.2 -03491.7 -07.6378 26271.3
 23 10 2013  19 58  -21.0063 26038.3 -03491.8 -07.6380 26271.4
 23 10 2013  19 59  -21.0064 26038.4 -03491.9 -07.6382 26271.5
 23 10 2013  20 00  -21.0065 26038.3 -03492.0 -07.6383 26271.4
 23 10 2013  20 01  -21.0065 26038.2 -03491.9 -07.6383 26271.3
 23 10 2013  20 02  -21.0066 26038.0 -03492.0 -07.6384 26271.2
 23 10 2013  20 03  -21.0066 26037.8 -03492.0 -07.6384 26271.0
 23 10 2013  20 04  -21.0067 26037.6 -03491.9 -07.6385 26270.7
 23 10 2013  20 05  -21.0069 26037.4 -03491.9 -07.6384 26270.5
 23 10 2013  20 06  -21.0069 26037.2 -03491.9 -07.6385 26270.3
 23 10 2013  20 07  -21.0070 26037.1 -03491.9 -07.6385 26270.2
 23 10 2013  20 08  -21.0072 26037.0 -03492.0 -07.6386 26270.1
 23 10 2013  20 09  -21.0073 26036.9 -03492.0 -07.6387 26270.0
 23 10 2013  20 10  -21.0073 26036.9 -03492.0 -07.6389 26270.0
 23 10 2013  20 11  -21.0075 26036.9 -03492.1 -07.6391 26270.0
 23 10 2013  20 12  -21.0076 26036.8 -03492.2 -07.6392 26270.0
 23 10 2013  20 13  -21.0077 26036.8 -03492.3 -07.6394 26270.0
 23 10 2013  20 14  -21.0078 26036.8 -03492.3 -07.6395 26270.0
 23 10 2013  20 15  -21.0078 26036.7 -03492.4 -07.6397 26269.9
 23 10 2013  20 16  -21.0080 26036.6 -03492.4 -07.6398 26269.8
 23 10 2013  20 17  -21.0081 26036.6 -03492.5 -07.6399 26269.8
 23 10 2013  20 18  -21.0081 26036.5 -03492.5 -07.6401 26269.7
 23 10 2013  20 19  -21.0083 26036.5 -03492.6 -07.6403 26269.7
 23 10 2013  20 20  -21.0082 26036.4 -03492.7 -07.6405 26269.7
 23 10 2013  20 21  -21.0084 26036.4 -03492.8 -07.6406 26269.7
 23 10 2013  20 22  -21.0085 26036.4 -03492.9 -07.6409 26269.6
 23 10 2013  20 23  -21.0086 26036.3 -03493.0 -07.6410 26269.5
 23 10 2013  20 24  -21.0087 26036.2 -03493.0 -07.6411 26269.5
 23 10 2013  20 25  -21.0087 26036.2 -03493.1 -07.6413 26269.5
 23 10 2013  20 26  -21.0087 26036.2 -03493.2 -07.6416 26269.5
 23 10 2013  20 27  -21.0088 26036.3 -03493.4 -07.6419 26269.7
 23 10 2013  20 28  -21.0089 26036.3 -03493.4 -07.6420 26269.6
 23 10 2013  20 29  -21.0091 26035.9 -03493.4 -07.6420 26269.2
 23 10 2013  20 30  -21.0092 26035.6 -03493.3 -07.6418 26268.9
 23 10 2013  20 31  -21.0092 26035.5 -03493.3 -07.6420 26268.8
 23 10 2013  20 32  -21.0092 26035.4 -03493.4 -07.6421 26268.8
 23 10 2013  20 33  -21.0093 26035.3 -03493.4 -07.6422 26268.6
 23 10 2013  20 34  -21.0095 26035.2 -03493.4 -07.6423 26268.5
 23 10 2013  20 35  -21.0094 26035.1 -03493.4 -07.6424 26268.4
 23 10 2013  20 36  -21.0095 26035.0 -03493.5 -07.6424 26268.4
 23 10 2013  20 37  -21.0096 26034.9 -03493.5 -07.6426 26268.3
 23 10 2013  20 38  -21.0096 26034.8 -03493.5 -07.6427 26268.1
 23 10 2013  20 39  -21.0096 26034.7 -03493.5 -07.6427 26268.0
 23 10 2013  20 40  -21.0095 26034.6 -03493.6 -07.6428 26267.9
 23 10 2013  20 41  -21.0095 26034.4 -03493.6 -07.6429 26267.8
 23 10 2013  20 42  -21.0094 26034.3 -03493.6 -07.6430 26267.7
 23 10 2013  20 43  -21.0093 26034.3 -03493.6 -07.6431 26267.6
 23 10 2013  20 44  -21.0092 26034.2 -03493.7 -07.6433 26267.5
 23 10 2013  20 45  -21.0091 26034.1 -03493.8 -07.6434 26267.5
 23 10 2013  20 46  -21.0088 26034.0 -03493.8 -07.6436 26267.4
 23 10 2013  20 47  -21.0086 26034.0 -03493.9 -07.6437 26267.4
 23 10 2013  20 48  -21.0085 26034.0 -03494.0 -07.6440 26267.4
 23 10 2013  20 49  -21.0082 26034.0 -03494.1 -07.6441 26267.4
 23 10 2013  20 50  -21.0080 26033.9 -03494.2 -07.6443 26267.4
 23 10 2013  20 51  -21.0077 26034.1 -03494.4 -07.6447 26267.6
 23 10 2013  20 52  -21.0074 26034.1 -03494.5 -07.6450 26267.6
 23 10 2013  20 53  -21.0071 26034.2 -03494.7 -07.6453 26267.7
 23 10 2013  20 54  -21.0070 26034.2 -03494.8 -07.6456 26267.8
 23 10 2013  20 55  -21.0068 26034.3 -03495.0 -07.6460 26267.8
 23 10 2013  20 56  -21.0068 26034.3 -03495.2 -07.6463 26267.9
 23 10 2013  20 57  -21.0069 26034.2 -03495.3 -07.6466 26267.8
 23 10 2013  20 58  -21.0069 26034.2 -03495.4 -07.6468 26267.8
 23 10 2013  20 59  -21.0070 26034.1 -03495.5 -07.6471 26267.8
 23 10 2013  21 00  -21.0070 26034.1 -03495.6 -07.6475 26267.7
 23 10 2013  21 01  -21.0070 26034.0 -03495.8 -07.6478 26267.7
 23 10 2013  21 02  -21.0072 26034.0 -03495.9 -07.6481 26267.7
 23 10 2013  21 03  -21.0073 26033.9 -03496.0 -07.6483 26267.6
 23 10 2013  21 04  -21.0074 26033.8 -03495.9 -07.6481 26267.4
 23 10 2013  21 05  -21.0076 26033.7 -03496.1 -07.6486 26267.4
 23 10 2013  21 06  -21.0078 26033.6 -03496.3 -07.6489 26267.3
 23 10 2013  21 07  -21.0079 26033.5 -03496.3 -07.6491 26267.3
 23 10 2013  21 08  -21.0079 26033.4 -03496.4 -07.6492 26267.2
 23 10 2013  21 09  -21.0079 26033.4 -03496.5 -07.6494 26267.1
 23 10 2013  21 10  -21.0077 26033.2 -03496.5 -07.6496 26267.0
 23 10 2013  21 11  -21.0076 26033.1 -03496.5 -07.6497 26266.9
 23 10 2013  21 12  -21.0075 26033.0 -03496.5 -07.6497 26266.8
 23 10 2013  21 13  -21.0074 26032.8 -03496.5 -07.6497 26266.5
 23 10 2013  21 14  -21.0074 26032.6 -03496.5 -07.6498 26266.4
 23 10 2013  21 15  -21.0072 26032.5 -03496.5 -07.6498 26266.2
 23 10 2013  21 16  -21.0071 26032.3 -03496.5 -07.6499 26266.1
 23 10 2013  21 17  -21.0070 26032.0 -03496.4 -07.6498 26265.8
 23 10 2013  21 18  -21.0070 26031.8 -03496.4 -07.6498 26265.6
 23 10 2013  21 19  -21.0068 26031.8 -03496.5 -07.6499 26265.5
 23 10 2013  21 20  -21.0067 26031.6 -03496.5 -07.6500 26265.4
 23 10 2013  21 21  -21.0067 26031.5 -03496.5 -07.6501 26265.3
 23 10 2013  21 22  -21.0065 26031.3 -03496.5 -07.6501 26265.1
 23 10 2013  21 23  -21.0066 26031.2 -03496.5 -07.6501 26265.0
 23 10 2013  21 24  -21.0063 26031.2 -03496.6 -07.6504 26265.0
 23 10 2013  21 25  -21.0063 26031.2 -03496.7 -07.6507 26265.0
 23 10 2013  21 26  -21.0061 26030.9 -03496.7 -07.6506 26264.7
 23 10 2013  21 27  -21.0061 26030.6 -03496.6 -07.6506 26264.4
 23 10 2013  21 28  -21.0061 26030.4 -03496.6 -07.6506 26264.2
 23 10 2013  21 29  -21.0060 26030.2 -03496.6 -07.6507 26264.0
 23 10 2013  21 30  -21.0059 26030.1 -03496.7 -07.6508 26263.9
 23 10 2013  21 31  -21.0058 26030.0 -03496.7 -07.6509 26263.8
 23 10 2013  21 32  -21.0057 26029.9 -03496.7 -07.6509 26263.7
 23 10 2013  21 33  -21.0055 26029.9 -03496.8 -07.6512 26263.7
 23 10 2013  21 34  -21.0054 26029.9 -03496.9 -07.6514 26263.8
 23 10 2013  21 35  -21.0052 26030.1 -03497.0 -07.6516 26264.0
 23 10 2013  21 36  -21.0051 26030.1 -03497.1 -07.6518 26264.0
 23 10 2013  21 37  -21.0051 26029.9 -03497.1 -07.6518 26263.7
 23 10 2013  21 38  -21.0051 26029.5 -03496.9 -07.6515 26263.3
 23 10 2013  21 39  -21.0050 26029.2 -03496.9 -07.6515 26263.0
 23 10 2013  21 40  -21.0049 26028.9 -03496.7 -07.6513 26262.7
 23 10 2013  21 41  -21.0048 26028.6 -03496.7 -07.6513 26262.5
 23 10 2013  21 42  -21.0047 26028.4 -03496.6 -07.6512 26262.2
 23 10 2013  21 43  -21.0046 26028.2 -03496.6 -07.6512 26262.0
 23 10 2013  21 44  -21.0046 26028.0 -03496.6 -07.6512 26261.8
 23 10 2013  21 45  -21.0044 26027.8 -03496.6 -07.6513 26261.6
 23 10 2013  21 46  -21.0044 26027.7 -03496.6 -07.6513 26261.6
 23 10 2013  21 47  -21.0043 26027.7 -03496.7 -07.6515 26261.6
 23 10 2013  21 48  -21.0043 26027.7 -03496.8 -07.6517 26261.6
 23 10 2013  21 49  -21.0042 26027.7 -03496.9 -07.6519 26261.6
 23 10 2013  21 50  -21.0042 26027.8 -03496.9 -07.6520 26261.6
 23 10 2013  21 51  -21.0041 26027.7 -03497.0 -07.6522 26261.6
 23 10 2013  21 52  -21.0040 26027.7 -03497.0 -07.6523 26261.5
 23 10 2013  21 53  -21.0039 26027.7 -03497.0 -07.6523 26261.5
 23 10 2013  21 54  -21.0039 26027.7 -03497.1 -07.6525 26261.6
 23 10 2013  21 55  -21.0038 26027.6 -03497.1 -07.6525 26261.5
 23 10 2013  21 56  -21.0038 26027.5 -03497.1 -07.6525 26261.4
 23 10 2013  21 57  -21.0038 26027.4 -03497.1 -07.6525 26261.3
 23 10 2013  21 58  -21.0036 26027.4 -03497.1 -07.6526 26261.3
 23 10 2013  21 59  -21.0034 26027.4 -03497.1 -07.6526 26261.3
 23 10 2013  22 00  -21.0031 26027.5 -03497.2 -07.6527 26261.4
 23 10 2013  22 01  -21.0030 26027.7 -03497.3 -07.6530 26261.6
 23 10 2013  22 02  -21.0026 26027.8 -03497.4 -07.6532 26261.7
 23 10 2013  22 03  -21.0023 26027.8 -03497.5 -07.6533 26261.8
 23 10 2013  22 04  -21.0021 26027.9 -03497.6 -07.6534 26261.8
 23 10 2013  22 05  -21.0020 26027.9 -03497.6 -07.6535 26261.9
 23 10 2013  22 06  -21.0017 26027.9 -03497.6 -07.6535 26261.8
 23 10 2013  22 07  -21.0015 26027.9 -03497.6 -07.6535 26261.8
 23 10 2013  22 08  -21.0012 26027.9 -03497.7 -07.6536 26261.9
 23 10 2013  22 09  -21.0012 26027.8 -03497.6 -07.6534 26261.7
 23 10 2013  22 10  -21.0012 26027.5 -03497.5 -07.6534 26261.4
 23 10 2013  22 11  -21.0011 26027.4 -03497.4 -07.6532 26261.3
 23 10 2013  22 12  -21.0011 26027.3 -03497.4 -07.6532 26261.2
 23 10 2013  22 13  -21.0011 26027.2 -03497.4 -07.6532 26261.1
 23 10 2013  22 14  -21.0009 26027.2 -03497.4 -07.6532 26261.1
 23 10 2013  22 15  -21.0009 26027.2 -03497.4 -07.6532 26261.1
 23 10 2013  22 16  -21.0009 26027.2 -03497.4 -07.6532 26261.1
 23 10 2013  22 17  -21.0010 26027.1 -03497.4 -07.6533 26261.0
 23 10 2013  22 18  -21.0010 26026.9 -03497.3 -07.6532 26260.8
 23 10 2013  22 19  -21.0010 26026.8 -03497.3 -07.6531 26260.7
 23 10 2013  22 20  -21.0009 26026.8 -03497.3 -07.6531 26260.8
 23 10 2013  22 21  -21.0009 26026.8 -03497.3 -07.6531 26260.7
 23 10 2013  22 22  -21.0008 26026.8 -03497.3 -07.6531 26260.7
 23 10 2013  22 23  -21.0007 26026.8 -03497.3 -07.6531 26260.8
 23 10 2013  22 24  -21.0006 26026.9 -03497.4 -07.6532 26260.9
 23 10 2013  22 25  -21.0006 26027.0 -03497.4 -07.6533 26261.0
 23 10 2013  22 26  -21.0005 26027.0 -03497.4 -07.6533 26261.0
 23 10 2013  22 27  -21.0004 26027.1 -03497.4 -07.6534 26261.0
 23 10 2013  22 28  -21.0004 26027.1 -03497.5 -07.6535 26261.1
 23 10 2013  22 29  -21.0006 26027.1 -03497.5 -07.6535 26261.1
 23 10 2013  22 30  -21.0005 26027.1 -03497.4 -07.6534 26261.0
 23 10 2013  22 31  -21.0006 26027.1 -03497.5 -07.6534 26261.1
 23 10 2013  22 32  -21.0006 26027.1 -03497.4 -07.6534 26261.0
 23 10 2013  22 33  -21.0006 26027.0 -03497.4 -07.6533 26261.0
 23 10 2013  22 34  -21.0005 26027.0 -03497.4 -07.6532 26260.9
 23 10 2013  22 35  -21.0003 26027.0 -03497.3 -07.6532 26260.9
 23 10 2013  22 36  -21.0002 26026.9 -03497.3 -07.6532 26260.9
 23 10 2013  22 37  -21.0001 26026.9 -03497.3 -07.6532 26260.8
 23 10 2013  22 38  -21.0001 26026.9 -03497.3 -07.6532 26260.8
 23 10 2013  22 39  -21.0001 26026.9 -03497.3 -07.6532 26260.8
 23 10 2013  22 40  -21.0000 26026.8 -03497.3 -07.6532 26260.7
 23 10 2013  22 41  -21.0001 26026.8 -03497.3 -07.6531 26260.7
 23 10 2013  22 42  -21.0001 26026.7 -03497.3 -07.6531 26260.6
 23 10 2013  22 43  -21.0000 26026.6 -03497.3 -07.6531 26260.5
 23 10 2013  22 44  -21.0001 26026.5 -03497.2 -07.6530 26260.4
 23 10 2013  22 45  -21.0001 26026.5 -03497.2 -07.6531 26260.4
 23 10 2013  22 46  -21.0000 26026.5 -03497.2 -07.6531 26260.4
 23 10 2013  22 47  -21.0000 26026.4 -03497.2 -07.6531 26260.3
 23 10 2013  22 48  -21.0000 26026.4 -03497.2 -07.6531 26260.3
 23 10 2013  22 49  -20.9999 26026.3 -03497.2 -07.6531 26260.2
 23 10 2013  22 50  -21.0000 26026.2 -03497.2 -07.6531 26260.1
 23 10 2013  22 51  -21.0000 26026.2 -03497.2 -07.6531 26260.1
 23 10 2013  22 52  -21.0001 26026.0 -03497.2 -07.6531 26259.9
 23 10 2013  22 53  -21.0002 26025.9 -03497.1 -07.6530 26259.8
 23 10 2013  22 54  -21.0003 26025.7 -03497.0 -07.6529 26259.6
 23 10 2013  22 55  -21.0004 26025.6 -03497.0 -07.6529 26259.5
 23 10 2013  22 56  -21.0004 26025.5 -03497.0 -07.6530 26259.4
 23 10 2013  22 57  -21.0005 26025.4 -03497.0 -07.6529 26259.3
 23 10 2013  22 58  -21.0006 26025.3 -03497.0 -07.6529 26259.2
 23 10 2013  22 59  -21.0006 26025.2 -03497.0 -07.6530 26259.1
 23 10 2013  23 00  -21.0006 26025.2 -03497.0 -07.6530 26259.1
 23 10 2013  23 01  -21.0008 26025.1 -03497.1 -07.6532 26259.1
 23 10 2013  23 02  -21.0008 26025.2 -03497.1 -07.6532 26259.1
 23 10 2013  23 03  -21.0007 26025.1 -03497.1 -07.6532 26259.0
 23 10 2013  23 04  -21.0008 26025.2 -03497.2 -07.6534 26259.1
 23 10 2013  23 05  -21.0009 26025.3 -03497.3 -07.6535 26259.2
 23 10 2013  23 06  -21.0009 26025.4 -03497.4 -07.6537 26259.3
 23 10 2013  23 07  -21.0011 26025.5 -03497.5 -07.6539 26259.4
 23 10 2013  23 08  -21.0012 26025.6 -03497.6 -07.6541 26259.6
 23 10 2013  23 09  -21.0013 26025.7 -03497.7 -07.6542 26259.7
 23 10 2013  23 10  -21.0014 26025.8 -03497.7 -07.6543 26259.7
 23 10 2013  23 11  -21.0015 26025.8 -03497.8 -07.6545 26259.8
 23 10 2013  23 12  -21.0016 26025.9 -03497.9 -07.6546 26259.9
 23 10 2013  23 13  -21.0017 26026.0 -03497.9 -07.6547 26260.0
 23 10 2013  23 14  -21.0016 26026.1 -03498.0 -07.6548 26260.1
 23 10 2013  23 15  -21.0018 26026.0 -03498.0 -07.6548 26260.1
 23 10 2013  23 16  -21.0021 26025.9 -03497.9 -07.6548 26259.9
 23 10 2013  23 17  -21.0021 26025.7 -03497.9 -07.6547 26259.7
 23 10 2013  23 18  -21.0021 26025.5 -03497.8 -07.6546 26259.5
 23 10 2013  23 19  -21.0021 26025.3 -03497.7 -07.6544 26259.3
 23 10 2013  23 20  -21.0020 26025.2 -03497.6 -07.6544 26259.1
 23 10 2013  23 21  -21.0019 26024.9 -03497.6 -07.6543 26258.9
 23 10 2013  23 22  -21.0019 26024.8 -03497.6 -07.6543 26258.8
 23 10 2013  23 23  -21.0018 26024.8 -03497.6 -07.6543 26258.8
 23 10 2013  23 24  -21.0019 26024.7 -03497.6 -07.6544 26258.7
 23 10 2013  23 25  -21.0018 26024.6 -03497.6 -07.6544 26258.5
 23 10 2013  23 26  -21.0018 26024.6 -03497.6 -07.6545 26258.6
 23 10 2013  23 27  -21.0018 26024.6 -03497.7 -07.6546 26258.6
 23 10 2013  23 28  -21.0016 26024.6 -03497.8 -07.6548 26258.6
 23 10 2013  23 29  -21.0018 26024.6 -03497.8 -07.6549 26258.6
 23 10 2013  23 30  -21.0018 26024.6 -03497.8 -07.6550 26258.6
 23 10 2013  23 31  -21.0019 26024.5 -03497.9 -07.6551 26258.6
 23 10 2013  23 32  -21.0019 26024.6 -03497.9 -07.6552 26258.6
 23 10 2013  23 33  -21.0019 26024.6 -03498.0 -07.6553 26258.6
 23 10 2013  23 34  -21.0020 26024.6 -03498.0 -07.6553 26258.6
 23 10 2013  23 35  -21.0020 26024.5 -03498.0 -07.6553 26258.6
 23 10 2013  23 36  -21.0020 26024.5 -03498.0 -07.6553 26258.5
 23 10 2013  23 37  -21.0019 26024.4 -03498.0 -07.6553 26258.4
 23 10 2013  23 38  -21.0017 26024.4 -03498.0 -07.6553 26258.4
 23 10 2013  23 39  -21.0016 26024.4 -03498.0 -07.6553 26258.4
 23 10 2013  23 40  -21.0016 26024.3 -03498.0 -07.6554 26258.4
 23 10 2013  23 41  -21.0015 26024.3 -03498.0 -07.6554 26258.3
 23 10 2013  23 42  -21.0015 26024.3 -03498.0 -07.6554 26258.3
 23 10 2013  23 43  -21.0014 26024.3 -03498.0 -07.6554 26258.3
 23 10 2013  23 44  -21.0014 26024.3 -03498.0 -07.6555 26258.3
 23 10 2013  23 45  -21.0014 26024.3 -03498.1 -07.6556 26258.4
 23 10 2013  23 46  -21.0014 26024.4 -03498.2 -07.6557 26258.5
 23 10 2013  23 47  -21.0015 26024.5 -03498.3 -07.6559 26258.6
 23 10 2013  23 48  -21.0015 26024.6 -03498.3 -07.6559 26258.7
 23 10 2013  23 49  -21.0015 26024.6 -03498.3 -07.6560 26258.7
 23 10 2013  23 50  -21.0015 26024.7 -03498.3 -07.6560 26258.8
 23 10 2013  23 51  -21.0015 26024.8 -03498.4 -07.6560 26258.8
 23 10 2013  23 52  -21.0015 26024.8 -03498.4 -07.6560 26258.9
 23 10 2013  23 53  -21.0016 26024.8 -03498.4 -07.6560 26258.8
 23 10 2013  23 54  -21.0015 26024.8 -03498.3 -07.6560 26258.8
 23 10 2013  23 55  -21.0016 26024.7 -03498.3 -07.6560 26258.8
 23 10 2013  23 56  -21.0014 26024.7 -03498.2 -07.6558 26258.7
 23 10 2013  23 57  -21.0014 26024.6 -03498.2 -07.6558 26258.7
