SAO LUIS EMBRACE-03 <263> 1 Min. Reported data

 DD MM YYYY  HH MM   D(Deg)  H(nT)   Z(nT)   I(Deg)   F(nT)

 20 09 2013  00 00  -21.0118 26019.7 -03486.5 -07.6318 26252.3
 20 09 2013  00 01  -21.0117 26019.8 -03486.4 -07.6317 26252.3
 20 09 2013  00 02  -21.0118 26019.8 -03486.4 -07.6317 26252.3
 20 09 2013  00 03  -21.0118 26019.8 -03486.4 -07.6316 26252.3
 20 09 2013  00 04  -21.0118 26019.8 -03486.4 -07.6316 26252.3
 20 09 2013  00 05  -21.0117 26019.7 -03486.3 -07.6315 26252.2
 20 09 2013  00 06  -21.0116 26019.6 -03486.3 -07.6314 26252.1
 20 09 2013  00 07  -21.0114 26019.6 -03486.2 -07.6313 26252.1
 20 09 2013  00 08  -21.0113 26019.5 -03486.2 -07.6312 26252.0
 20 09 2013  00 09  -21.0112 26019.4 -03486.1 -07.6312 26251.9
 20 09 2013  00 10  -21.0111 26019.2 -03486.1 -07.6310 26251.7
 20 09 2013  00 11  -21.0111 26019.1 -03486.0 -07.6309 26251.6
 20 09 2013  00 12  -21.0111 26019.0 -03486.0 -07.6310 26251.5
 20 09 2013  00 13  -21.0111 26019.0 -03486.0 -07.6309 26251.5
 20 09 2013  00 14  -21.0112 26018.9 -03486.0 -07.6309 26251.4
 20 09 2013  00 15  -21.0112 26018.9 -03486.0 -07.6309 26251.4
 20 09 2013  00 16  -21.0112 26018.9 -03486.0 -07.6310 26251.3
 20 09 2013  00 17  -21.0112 26018.8 -03486.0 -07.6310 26251.3
 20 09 2013  00 18  -21.0111 26018.7 -03485.9 -07.6309 26251.2
 20 09 2013  00 19  -21.0110 26018.7 -03486.0 -07.6310 26251.2
 20 09 2013  00 20  -21.0110 26018.7 -03486.0 -07.6310 26251.2
 20 09 2013  00 21  -21.0110 26018.7 -03486.0 -07.6311 26251.2
 20 09 2013  00 22  -21.0109 26018.7 -03486.1 -07.6312 26251.2
 20 09 2013  00 23  -21.0109 26018.7 -03486.1 -07.6313 26251.3
 20 09 2013  00 24  -21.0109 26018.7 -03486.1 -07.6313 26251.2
 20 09 2013  00 25  -21.0110 26018.6 -03486.1 -07.6313 26251.1
 20 09 2013  00 26  -21.0111 26018.5 -03486.0 -07.6312 26250.9
 20 09 2013  00 27  -21.0111 26018.4 -03486.0 -07.6312 26250.9
 20 09 2013  00 28  -21.0112 26018.2 -03486.0 -07.6312 26250.7
 20 09 2013  00 29  -21.0111 26018.1 -03486.0 -07.6312 26250.6
 20 09 2013  00 30  -21.0111 26018.1 -03486.0 -07.6312 26250.6
 20 09 2013  00 31  -21.0112 26018.1 -03486.0 -07.6313 26250.6
 20 09 2013  00 32  -21.0113 26018.0 -03486.0 -07.6313 26250.5
 20 09 2013  00 33  -21.0114 26017.9 -03486.0 -07.6313 26250.4
 20 09 2013  00 34  -21.0116 26017.8 -03486.0 -07.6313 26250.3
 20 09 2013  00 35  -21.0116 26017.7 -03486.0 -07.6313 26250.2
 20 09 2013  00 36  -21.0115 26017.7 -03486.0 -07.6314 26250.2
 20 09 2013  00 37  -21.0114 26017.6 -03486.0 -07.6313 26250.1
 20 09 2013  00 38  -21.0115 26017.5 -03486.0 -07.6314 26250.0
 20 09 2013  00 39  -21.0116 26017.5 -03486.0 -07.6315 26250.0
 20 09 2013  00 40  -21.0117 26017.4 -03486.0 -07.6315 26249.9
 20 09 2013  00 41  -21.0117 26017.3 -03486.0 -07.6315 26249.9
 20 09 2013  00 42  -21.0118 26017.4 -03486.1 -07.6316 26249.9
 20 09 2013  00 43  -21.0118 26017.4 -03486.1 -07.6317 26250.0
 20 09 2013  00 44  -21.0119 26017.4 -03486.1 -07.6317 26249.9
 20 09 2013  00 45  -21.0119 26017.3 -03486.1 -07.6317 26249.8
 20 09 2013  00 46  -21.0120 26017.2 -03486.0 -07.6316 26249.7
 20 09 2013  00 47  -21.0120 26016.9 -03485.9 -07.6314 26249.4
 20 09 2013  00 48  -21.0119 26016.9 -03485.9 -07.6314 26249.4
 20 09 2013  00 49  -21.0120 26016.9 -03485.9 -07.6314 26249.4
 20 09 2013  00 50  -21.0120 26016.8 -03485.9 -07.6314 26249.3
 20 09 2013  00 51  -21.0121 26016.8 -03485.9 -07.6314 26249.3
 20 09 2013  00 52  -21.0119 26016.7 -03485.9 -07.6314 26249.2
 20 09 2013  00 53  -21.0118 26016.7 -03485.9 -07.6314 26249.2
 20 09 2013  00 54  -21.0117 26016.7 -03485.9 -07.6314 26249.1
 20 09 2013  00 55  -21.0116 26016.5 -03485.8 -07.6313 26249.0
 20 09 2013  00 56  -21.0113 26016.5 -03485.8 -07.6312 26248.9
 20 09 2013  00 57  -21.0111 26016.4 -03485.8 -07.6312 26248.9
 20 09 2013  00 58  -21.0111 26016.4 -03485.8 -07.6312 26248.9
 20 09 2013  00 59  -21.0108 26016.7 -03485.9 -07.6314 26249.2
 20 09 2013  01 00  -21.0108 26016.8 -03486.0 -07.6316 26249.4
 20 09 2013  01 01  -21.0108 26017.1 -03486.1 -07.6318 26249.6
 20 09 2013  01 02  -21.0142 26017.6 -03486.4 -07.6323 26250.2
 20 09 2013  01 03  -21.0124 26017.7 -03486.6 -07.6326 26250.3
 20 09 2013  01 04  -21.0100 26018.1 -03486.7 -07.6327 26250.7
 20 09 2013  01 05  -21.0097 26018.7 -03486.9 -07.6330 26251.3
 20 09 2013  01 06  -21.0093 26019.2 -03487.2 -07.6334 26251.8
 20 09 2013  01 07  -21.0091 26019.6 -03487.3 -07.6337 26252.2
 20 09 2013  01 08  -21.0088 26020.0 -03487.5 -07.6339 26252.7
 20 09 2013  01 09  -21.0085 26020.2 -03487.5 -07.6338 26252.8
 20 09 2013  01 10  -21.0083 26020.1 -03487.3 -07.6336 26252.7
 20 09 2013  01 11  -21.0082 26020.0 -03487.2 -07.6333 26252.6
 20 09 2013  01 12  -21.0082 26019.7 -03487.0 -07.6329 26252.3
 20 09 2013  01 13  -21.0082 26019.5 -03486.8 -07.6326 26252.1
 20 09 2013  01 14  -21.0083 26019.3 -03486.7 -07.6324 26251.8
 20 09 2013  01 15  -21.0082 26019.2 -03486.6 -07.6322 26251.7
 20 09 2013  01 16  -21.0081 26019.0 -03486.5 -07.6321 26251.5
 20 09 2013  01 17  -21.0079 26019.1 -03486.6 -07.6322 26251.6
 20 09 2013  01 18  -21.0080 26018.9 -03486.5 -07.6321 26251.5
 20 09 2013  01 19  -21.0081 26018.8 -03486.5 -07.6322 26251.4
 20 09 2013  01 20  -21.0082 26018.7 -03486.5 -07.6321 26251.2
 20 09 2013  01 21  -21.0083 26018.6 -03486.5 -07.6321 26251.1
 20 09 2013  01 22  -21.0085 26018.5 -03486.4 -07.6321 26251.0
 20 09 2013  01 23  -21.0085 26018.4 -03486.4 -07.6321 26251.0
 20 09 2013  01 24  -21.0087 26018.3 -03486.4 -07.6321 26250.9
 20 09 2013  01 25  -21.0089 26018.2 -03486.4 -07.6321 26250.8
 20 09 2013  01 26  -21.0091 26018.3 -03486.5 -07.6322 26250.8
 20 09 2013  01 27  -21.0091 26018.2 -03486.5 -07.6322 26250.8
 20 09 2013  01 28  -21.0091 26018.3 -03486.5 -07.6323 26250.8
 20 09 2013  01 29  -21.0092 26018.3 -03486.6 -07.6324 26250.8
 20 09 2013  01 30  -21.0093 26018.2 -03486.6 -07.6324 26250.8
 20 09 2013  01 31  -21.0095 26018.1 -03486.5 -07.6324 26250.7
 20 09 2013  01 32  -21.0095 26018.0 -03486.4 -07.6322 26250.5
 20 09 2013  01 33  -21.0095 26018.1 -03486.6 -07.6325 26250.7
 20 09 2013  01 34  -21.0097 26018.1 -03486.6 -07.6325 26250.7
 20 09 2013  01 35  -21.0097 26018.2 -03486.7 -07.6327 26250.7
 20 09 2013  01 36  -21.0096 26018.3 -03486.7 -07.6328 26250.9
 20 09 2013  01 37  -21.0096 26018.3 -03486.8 -07.6328 26250.9
 20 09 2013  01 38  -21.0094 26018.4 -03486.8 -07.6329 26251.0
 20 09 2013  01 39  -21.0093 26018.3 -03486.8 -07.6330 26250.9
 20 09 2013  01 40  -21.0091 26018.5 -03486.9 -07.6330 26251.1
 20 09 2013  01 41  -21.0090 26018.4 -03486.9 -07.6331 26251.0
 20 09 2013  01 42  -21.0090 26018.4 -03486.9 -07.6331 26251.0
 20 09 2013  01 43  -21.0091 26018.5 -03487.0 -07.6332 26251.1
 20 09 2013  01 44  -21.0091 26018.5 -03487.0 -07.6332 26251.1
 20 09 2013  01 45  -21.0091 26018.5 -03487.0 -07.6333 26251.1
 20 09 2013  01 46  -21.0092 26018.4 -03487.0 -07.6333 26251.0
 20 09 2013  01 47  -21.0090 26018.3 -03487.0 -07.6333 26250.9
 20 09 2013  01 48  -21.0091 26018.3 -03487.0 -07.6333 26250.9
 20 09 2013  01 49  -21.0092 26018.3 -03487.0 -07.6333 26250.9
 20 09 2013  01 50  -21.0094 26018.1 -03487.0 -07.6333 26250.7
 20 09 2013  01 51  -21.0095 26017.8 -03486.8 -07.6331 26250.4
 20 09 2013  01 52  -21.0094 26017.6 -03486.7 -07.6330 26250.2
 20 09 2013  01 53  -21.0095 26017.7 -03486.8 -07.6331 26250.3
 20 09 2013  01 54  -21.0094 26017.8 -03486.9 -07.6333 26250.4
 20 09 2013  01 55  -21.0092 26017.9 -03486.9 -07.6333 26250.5
 20 09 2013  01 56  -21.0092 26017.9 -03487.0 -07.6335 26250.6
 20 09 2013  01 57  -21.0092 26017.9 -03487.1 -07.6336 26250.5
 20 09 2013  01 58  -21.0090 26017.9 -03487.0 -07.6335 26250.5
 20 09 2013  01 59  -21.0090 26017.8 -03487.0 -07.6335 26250.4
 20 09 2013  02 00  -21.0089 26017.6 -03487.0 -07.6335 26250.3
 20 09 2013  02 01  -21.0090 26017.5 -03487.0 -07.6335 26250.2
 20 09 2013  02 02  -21.0090 26017.4 -03487.0 -07.6335 26250.1
 20 09 2013  02 03  -21.0091 26017.4 -03487.0 -07.6335 26250.0
 20 09 2013  02 04  -21.0093 26017.3 -03486.9 -07.6335 26249.9
 20 09 2013  02 05  -21.0093 26017.1 -03486.9 -07.6334 26249.7
 20 09 2013  02 06  -21.0095 26017.0 -03486.9 -07.6334 26249.6
 20 09 2013  02 07  -21.0096 26017.0 -03486.9 -07.6334 26249.6
 20 09 2013  02 08  -21.0098 26016.8 -03486.9 -07.6335 26249.5
 20 09 2013  02 09  -21.0100 26016.7 -03486.9 -07.6335 26249.4
 20 09 2013  02 10  -21.0101 26016.6 -03486.8 -07.6334 26249.2
 20 09 2013  02 11  -21.0101 26016.4 -03486.7 -07.6333 26249.0
 20 09 2013  02 12  -21.0099 26016.3 -03486.7 -07.6332 26248.9
 20 09 2013  02 13  -21.0100 26016.2 -03486.7 -07.6333 26248.8
 20 09 2013  02 14  -21.0101 26016.2 -03486.7 -07.6334 26248.8
 20 09 2013  02 15  -21.0100 26016.1 -03486.7 -07.6334 26248.8
 20 09 2013  02 16  -21.0099 26016.1 -03486.7 -07.6334 26248.7
 20 09 2013  02 17  -21.0100 26016.1 -03486.8 -07.6335 26248.7
 20 09 2013  02 18  -21.0100 26016.1 -03486.8 -07.6335 26248.7
 20 09 2013  02 19  -21.0102 26015.9 -03486.7 -07.6334 26248.5
 20 09 2013  02 20  -21.0102 26015.6 -03486.6 -07.6332 26248.2
 20 09 2013  02 21  -21.0103 26015.4 -03486.5 -07.6330 26248.0
 20 09 2013  02 22  -21.0104 26015.2 -03486.4 -07.6330 26247.8
 20 09 2013  02 23  -21.0105 26015.3 -03486.5 -07.6330 26247.8
 20 09 2013  02 24  -21.0106 26015.4 -03486.5 -07.6332 26248.0
 20 09 2013  02 25  -21.0108 26015.5 -03486.6 -07.6334 26248.1
 20 09 2013  02 26  -21.0108 26015.4 -03486.6 -07.6333 26248.0
 20 09 2013  02 27  -21.0108 26015.3 -03486.6 -07.6333 26247.9
 20 09 2013  02 28  -21.0108 26015.2 -03486.6 -07.6333 26247.8
 20 09 2013  02 29  -21.0109 26015.1 -03486.6 -07.6333 26247.7
 20 09 2013  02 30  -21.0111 26015.1 -03486.6 -07.6334 26247.7
 20 09 2013  02 31  -21.0113 26015.2 -03486.6 -07.6335 26247.8
 20 09 2013  02 32  -21.0114 26015.2 -03486.7 -07.6335 26247.8
 20 09 2013  02 33  -21.0115 26015.2 -03486.7 -07.6336 26247.8
 20 09 2013  02 34  -21.0113 26015.4 -03486.9 -07.6339 26248.1
 20 09 2013  02 35  -21.0114 26015.6 -03487.0 -07.6340 26248.2
 20 09 2013  02 36  -21.0116 26015.7 -03487.1 -07.6342 26248.3
 20 09 2013  02 37  -21.0121 26015.6 -03487.1 -07.6343 26248.2
 20 09 2013  02 38  -21.0124 26015.6 -03487.1 -07.6344 26248.2
 20 09 2013  02 39  -21.0127 26015.6 -03487.2 -07.6345 26248.3
 20 09 2013  02 40  -21.0126 26015.7 -03487.2 -07.6344 26248.4
 20 09 2013  02 41  -21.0127 26015.8 -03487.3 -07.6346 26248.5
 20 09 2013  02 42  -21.0128 26015.8 -03487.2 -07.6346 26248.5
 20 09 2013  02 43  -21.0131 26015.5 -03487.1 -07.6344 26248.2
 20 09 2013  02 44  -21.0134 26015.6 -03487.2 -07.6346 26248.3
 20 09 2013  02 45  -21.0136 26015.4 -03487.1 -07.6345 26248.1
 20 09 2013  02 46  -21.0135 26015.4 -03487.1 -07.6344 26248.1
 20 09 2013  02 47  -21.0135 26015.6 -03487.2 -07.6346 26248.3
 20 09 2013  02 48  -21.0136 26015.8 -03487.3 -07.6347 26248.5
 20 09 2013  02 49  -21.0136 26016.1 -03487.5 -07.6351 26248.9
 20 09 2013  02 50  -21.0135 26016.6 -03487.7 -07.6355 26249.3
 20 09 2013  02 51  -21.0136 26016.9 -03487.9 -07.6357 26249.7
 20 09 2013  02 52  -21.0135 26017.4 -03488.1 -07.6361 26250.2
 20 09 2013  02 53  -21.0133 26017.4 -03488.1 -07.6360 26250.2
 20 09 2013  02 54  -21.0129 26017.7 -03488.3 -07.6362 26250.5
 20 09 2013  02 55  -21.0127 26017.7 -03488.2 -07.6361 26250.5
 20 09 2013  02 56  -21.0125 26017.9 -03488.3 -07.6362 26250.7
 20 09 2013  02 57  -21.0123 26018.1 -03488.3 -07.6363 26250.9
 20 09 2013  02 58  -21.0124 26018.1 -03488.3 -07.6363 26250.9
 20 09 2013  02 59  -21.0123 26018.3 -03488.4 -07.6363 26251.1
 20 09 2013  03 00  -21.0124 26018.5 -03488.5 -07.6364 26251.3
 20 09 2013  03 01  -21.0123 26018.5 -03488.4 -07.6363 26251.3
 20 09 2013  03 02  -21.0123 26018.6 -03488.4 -07.6363 26251.4
 20 09 2013  03 03  -21.0122 26018.7 -03488.4 -07.6364 26251.5
 20 09 2013  03 04  -21.0122 26019.0 -03488.5 -07.6364 26251.8
 20 09 2013  03 05  -21.0122 26019.2 -03488.5 -07.6364 26252.0
 20 09 2013  03 06  -21.0124 26019.4 -03488.6 -07.6366 26252.2
 20 09 2013  03 07  -21.0122 26019.6 -03488.7 -07.6365 26252.4
 20 09 2013  03 08  -21.0121 26019.5 -03488.6 -07.6364 26252.3
 20 09 2013  03 09  -21.0121 26019.5 -03488.5 -07.6362 26252.4
 20 09 2013  03 10  -21.0119 26019.4 -03488.4 -07.6360 26252.2
 20 09 2013  03 11  -21.0118 26019.4 -03488.3 -07.6359 26252.2
 20 09 2013  03 12  -21.0117 26019.4 -03488.3 -07.6358 26252.2
 20 09 2013  03 13  -21.0114 26019.5 -03488.3 -07.6358 26252.3
 20 09 2013  03 14  -21.0112 26019.5 -03488.3 -07.6357 26252.3
 20 09 2013  03 15  -21.0110 26019.4 -03488.2 -07.6356 26252.2
 20 09 2013  03 16  -21.0109 26019.5 -03488.2 -07.6356 26252.3
 20 09 2013  03 17  -21.0109 26019.6 -03488.2 -07.6356 26252.3
 20 09 2013  03 18  -21.0106 26019.5 -03488.2 -07.6356 26252.3
 20 09 2013  03 19  -21.0105 26019.4 -03488.1 -07.6354 26252.1
 20 09 2013  03 20  -21.0104 26019.3 -03488.0 -07.6353 26252.1
 20 09 2013  03 21  -21.0104 26019.3 -03488.0 -07.6352 26252.0
 20 09 2013  03 22  -21.0102 26019.1 -03487.9 -07.6351 26251.9
 20 09 2013  03 23  -21.0101 26019.1 -03487.9 -07.6350 26251.8
 20 09 2013  03 24  -21.0099 26018.9 -03487.8 -07.6348 26251.7
 20 09 2013  03 25  -21.0098 26018.8 -03487.7 -07.6347 26251.5
 20 09 2013  03 26  -21.0097 26018.7 -03487.7 -07.6348 26251.4
 20 09 2013  03 27  -21.0097 26018.5 -03487.6 -07.6346 26251.2
 20 09 2013  03 28  -21.0098 26018.3 -03487.5 -07.6344 26251.0
 20 09 2013  03 29  -21.0098 26018.0 -03487.4 -07.6342 26250.7
 20 09 2013  03 30  -21.0098 26017.8 -03487.3 -07.6341 26250.5
 20 09 2013  03 31  -21.0097 26017.8 -03487.3 -07.6342 26250.5
 20 09 2013  03 32  -21.0096 26017.9 -03487.4 -07.6343 26250.6
 20 09 2013  03 33  -21.0095 26018.1 -03487.5 -07.6344 26250.8
 20 09 2013  03 34  -21.0095 26018.4 -03487.7 -07.6348 26251.1
 20 09 2013  03 35  -21.0097 26018.6 -03487.8 -07.6349 26251.3
 20 09 2013  03 36  -21.0097 26018.6 -03487.8 -07.6349 26251.3
 20 09 2013  03 37  -21.0098 26018.5 -03487.7 -07.6348 26251.2
 20 09 2013  03 38  -21.0102 26018.3 -03487.6 -07.6347 26251.0
 20 09 2013  03 39  -21.0105 26018.3 -03487.5 -07.6345 26251.0
 20 09 2013  03 40  -21.0109 26018.1 -03487.4 -07.6343 26250.8
 20 09 2013  03 41  -21.0111 26018.0 -03487.3 -07.6342 26250.7
 20 09 2013  03 42  -21.0113 26017.8 -03487.2 -07.6340 26250.5
 20 09 2013  03 43  -21.0114 26017.5 -03487.1 -07.6337 26250.1
 20 09 2013  03 44  -21.0117 26017.2 -03486.9 -07.6334 26249.8
 20 09 2013  03 45  -21.0119 26017.0 -03486.8 -07.6332 26249.6
 20 09 2013  03 46  -21.0123 26017.1 -03486.8 -07.6331 26249.7
 20 09 2013  03 47  -21.0123 26017.2 -03486.8 -07.6332 26249.8
 20 09 2013  03 48  -21.0122 26017.5 -03486.9 -07.6334 26250.1
 20 09 2013  03 49  -21.0121 26017.6 -03487.0 -07.6335 26250.3
 20 09 2013  03 50  -21.0121 26017.7 -03487.0 -07.6336 26250.3
 20 09 2013  03 51  -21.0120 26017.8 -03487.1 -07.6336 26250.5
 20 09 2013  03 52  -21.0119 26018.1 -03487.2 -07.6338 26250.8
 20 09 2013  03 53  -21.0120 26018.3 -03487.3 -07.6339 26250.9
 20 09 2013  03 54  -21.0120 26018.2 -03487.2 -07.6339 26250.9
 20 09 2013  03 55  -21.0120 26018.0 -03487.1 -07.6336 26250.6
 20 09 2013  03 56  -21.0118 26017.8 -03486.9 -07.6333 26250.4
 20 09 2013  03 57  -21.0120 26017.9 -03486.9 -07.6333 26250.5
 20 09 2013  03 58  -21.0124 26017.9 -03487.0 -07.6334 26250.5
 20 09 2013  03 59  -21.0128 26017.9 -03487.0 -07.6335 26250.5
 20 09 2013  04 00  -21.0130 26018.1 -03487.1 -07.6335 26250.7
 20 09 2013  04 01  -21.0131 26018.1 -03487.1 -07.6335 26250.8
 20 09 2013  04 02  -21.0131 26018.2 -03487.1 -07.6336 26250.9
 20 09 2013  04 03  -21.0130 26018.3 -03487.1 -07.6335 26250.9
 20 09 2013  04 04  -21.0130 26018.4 -03487.1 -07.6335 26251.0
 20 09 2013  04 05  -21.0130 26018.4 -03487.1 -07.6336 26251.1
 20 09 2013  04 06  -21.0129 26018.6 -03487.2 -07.6337 26251.3
 20 09 2013  04 07  -21.0128 26018.6 -03487.2 -07.6337 26251.3
 20 09 2013  04 08  -21.0127 26018.5 -03487.1 -07.6336 26251.2
 20 09 2013  04 09  -21.0126 26018.5 -03487.1 -07.6335 26251.1
 20 09 2013  04 10  -21.0124 26018.3 -03487.1 -07.6335 26251.0
 20 09 2013  04 11  -21.0123 26018.2 -03487.0 -07.6334 26250.9
 20 09 2013  04 12  -21.0120 26018.0 -03486.9 -07.6332 26250.6
 20 09 2013  04 13  -21.0118 26017.8 -03486.8 -07.6331 26250.4
 20 09 2013  04 14  -21.0115 26017.6 -03486.8 -07.6331 26250.2
 20 09 2013  04 15  -21.0112 26017.6 -03486.8 -07.6332 26250.2
 20 09 2013  04 16  -21.0110 26017.5 -03486.8 -07.6332 26250.1
 20 09 2013  04 17  -21.0108 26017.6 -03486.9 -07.6334 26250.2
 20 09 2013  04 18  -21.0105 26017.6 -03487.1 -07.6337 26250.3
 20 09 2013  04 19  -21.0102 26017.6 -03487.1 -07.6337 26250.2
 20 09 2013  04 20  -21.0099 26017.5 -03487.2 -07.6339 26250.2
 20 09 2013  04 21  -21.0097 26017.5 -03487.2 -07.6340 26250.1
 20 09 2013  04 22  -21.0096 26017.3 -03487.2 -07.6340 26250.0
 20 09 2013  04 23  -21.0094 26017.1 -03487.2 -07.6341 26249.8
 20 09 2013  04 24  -21.0092 26016.9 -03487.1 -07.6340 26249.5
 20 09 2013  04 25  -21.0090 26016.7 -03487.0 -07.6339 26249.3
 20 09 2013  04 26  -21.0087 26016.4 -03487.0 -07.6339 26249.0
 20 09 2013  04 27  -21.0085 26016.0 -03486.9 -07.6337 26248.7
 20 09 2013  04 28  -21.0083 26015.7 -03486.8 -07.6337 26248.3
 20 09 2013  04 29  -21.0083 26015.5 -03486.8 -07.6337 26248.2
 20 09 2013  04 30  -21.0084 26015.5 -03486.9 -07.6339 26248.1
 20 09 2013  04 31  -21.0089 26015.6 -03487.0 -07.6342 26248.2
 20 09 2013  04 32  -21.0092 26015.6 -03487.1 -07.6344 26248.3
 20 09 2013  04 33  -21.0094 26015.7 -03487.2 -07.6346 26248.4
 20 09 2013  04 34  -21.0093 26015.6 -03487.3 -07.6347 26248.3
 20 09 2013  04 35  -21.0091 26015.5 -03487.2 -07.6346 26248.2
 20 09 2013  04 36  -21.0091 26015.5 -03487.3 -07.6347 26248.2
 20 09 2013  04 37  -21.0092 26015.4 -03487.2 -07.6347 26248.1
 20 09 2013  04 38  -21.0093 26015.3 -03487.2 -07.6346 26248.0
 20 09 2013  04 39  -21.0097 26015.2 -03487.2 -07.6346 26247.8
 20 09 2013  04 40  -21.0098 26015.0 -03487.1 -07.6346 26247.6
 20 09 2013  04 41  -21.0099 26014.8 -03487.0 -07.6344 26247.4
 20 09 2013  04 42  -21.0103 26014.7 -03487.0 -07.6345 26247.3
 20 09 2013  04 43  -21.0106 26014.8 -03487.2 -07.6347 26247.5
 20 09 2013  04 44  -21.0106 26014.8 -03487.2 -07.6348 26247.5
 20 09 2013  04 45  -21.0105 26014.7 -03487.2 -07.6349 26247.4
 20 09 2013  04 46  -21.0100 26014.7 -03487.2 -07.6349 26247.4
 20 09 2013  04 47  -21.0096 26014.6 -03487.3 -07.6350 26247.3
 20 09 2013  04 48  -21.0089 26014.6 -03487.2 -07.6349 26247.2
 20 09 2013  04 49  -21.0088 26014.5 -03487.3 -07.6350 26247.2
 20 09 2013  04 50  -21.0088 26014.4 -03487.3 -07.6351 26247.1
 20 09 2013  04 51  -21.0090 26014.4 -03487.3 -07.6351 26247.1
 20 09 2013  04 52  -21.0092 26014.3 -03487.3 -07.6352 26247.0
 20 09 2013  04 53  -21.0094 26014.3 -03487.4 -07.6353 26247.0
 20 09 2013  04 54  -21.0096 26014.3 -03487.4 -07.6353 26247.0
 20 09 2013  04 55  -21.0097 26014.2 -03487.4 -07.6353 26246.9
 20 09 2013  04 56  -21.0101 26014.2 -03487.4 -07.6354 26246.9
 20 09 2013  04 57  -21.0104 26014.1 -03487.5 -07.6356 26246.9
 20 09 2013  04 58  -21.0104 26014.2 -03487.5 -07.6356 26246.9
 20 09 2013  04 59  -21.0104 26014.3 -03487.5 -07.6357 26247.0
 20 09 2013  05 00  -21.0105 26014.2 -03487.6 -07.6357 26247.0
 20 09 2013  05 01  -21.0108 26014.2 -03487.6 -07.6358 26247.0
 20 09 2013  05 02  -21.0110 26014.2 -03487.6 -07.6359 26247.0
 20 09 2013  05 03  -21.0112 26014.2 -03487.6 -07.6359 26246.9
 20 09 2013  05 04  -21.0113 26014.1 -03487.6 -07.6358 26246.9
 20 09 2013  05 05  -21.0115 26014.1 -03487.6 -07.6358 26246.8
 20 09 2013  05 06  -21.0116 26014.0 -03487.6 -07.6358 26246.7
 20 09 2013  05 07  -21.0112 26014.0 -03487.5 -07.6357 26246.7
 20 09 2013  05 08  -21.0113 26014.0 -03487.5 -07.6357 26246.7
 20 09 2013  05 09  -21.0115 26013.9 -03487.5 -07.6358 26246.6
 20 09 2013  05 10  -21.0110 26013.9 -03487.6 -07.6358 26246.6
 20 09 2013  05 11  -21.0110 26013.8 -03487.5 -07.6358 26246.5
 20 09 2013  05 12  -21.0113 26013.9 -03487.6 -07.6359 26246.6
 20 09 2013  05 13  -21.0117 26014.2 -03487.8 -07.6362 26247.0
 20 09 2013  05 14  -21.0120 26014.3 -03487.8 -07.6363 26247.0
 20 09 2013  05 15  -21.0120 26014.3 -03487.9 -07.6365 26247.1
 20 09 2013  05 16  -21.0120 26014.4 -03487.9 -07.6365 26247.2
 20 09 2013  05 17  -21.0124 26014.5 -03488.0 -07.6366 26247.3
 20 09 2013  05 18  -21.0125 26014.6 -03488.1 -07.6367 26247.4
 20 09 2013  05 19  -21.0126 26014.4 -03488.0 -07.6366 26247.2
 20 09 2013  05 20  -21.0125 26014.3 -03487.9 -07.6364 26247.0
 20 09 2013  05 21  -21.0125 26014.2 -03487.8 -07.6362 26247.0
 20 09 2013  05 22  -21.0128 26014.1 -03487.8 -07.6362 26246.9
 20 09 2013  05 23  -21.0130 26014.3 -03487.8 -07.6363 26247.1
 20 09 2013  05 24  -21.0133 26014.4 -03487.9 -07.6363 26247.2
 20 09 2013  05 25  -21.0136 26014.4 -03487.8 -07.6363 26247.1
 20 09 2013  05 26  -21.0138 26014.4 -03487.8 -07.6362 26247.1
 20 09 2013  05 27  -21.0139 26014.4 -03487.8 -07.6362 26247.2
 20 09 2013  05 28  -21.0139 26014.3 -03487.7 -07.6361 26247.1
 20 09 2013  05 29  -21.0140 26014.3 -03487.8 -07.6361 26247.1
 20 09 2013  05 30  -21.0140 26014.3 -03487.7 -07.6361 26247.0
 20 09 2013  05 31  -21.0142 26014.4 -03487.8 -07.6362 26247.2
 20 09 2013  05 32  -21.0146 26014.6 -03487.9 -07.6364 26247.3
 20 09 2013  05 33  -21.0151 26014.7 -03488.0 -07.6365 26247.5
 20 09 2013  05 34  -21.0151 26014.7 -03488.0 -07.6365 26247.5
 20 09 2013  05 35  -21.0153 26014.7 -03487.9 -07.6364 26247.5
 20 09 2013  05 36  -21.0153 26014.8 -03487.9 -07.6364 26247.6
 20 09 2013  05 37  -21.0154 26014.8 -03487.9 -07.6364 26247.6
 20 09 2013  05 38  -21.0153 26014.9 -03488.0 -07.6364 26247.7
 20 09 2013  05 39  -21.0153 26015.0 -03488.0 -07.6364 26247.7
 20 09 2013  05 40  -21.0154 26014.9 -03487.9 -07.6363 26247.7
 20 09 2013  05 41  -21.0154 26015.0 -03488.0 -07.6364 26247.8
 20 09 2013  05 42  -21.0153 26015.1 -03488.0 -07.6364 26247.9
 20 09 2013  05 43  -21.0156 26015.2 -03488.0 -07.6365 26248.0
 20 09 2013  05 44  -21.0157 26015.2 -03488.0 -07.6364 26248.0
 20 09 2013  05 45  -21.0157 26015.1 -03487.9 -07.6363 26247.8
 20 09 2013  05 46  -21.0156 26015.0 -03487.8 -07.6361 26247.7
 20 09 2013  05 47  -21.0153 26015.1 -03487.8 -07.6361 26247.8
 20 09 2013  05 48  -21.0150 26015.1 -03487.9 -07.6361 26247.9
 20 09 2013  05 49  -21.0149 26015.3 -03487.9 -07.6362 26248.1
 20 09 2013  05 50  -21.0150 26015.5 -03488.1 -07.6364 26248.3
 20 09 2013  05 51  -21.0152 26015.7 -03488.2 -07.6366 26248.5
 20 09 2013  05 52  -21.0151 26015.8 -03488.2 -07.6366 26248.6
 20 09 2013  05 53  -21.0149 26015.9 -03488.2 -07.6367 26248.7
 20 09 2013  05 54  -21.0145 26015.8 -03488.1 -07.6365 26248.6
 20 09 2013  05 55  -21.0143 26015.8 -03488.1 -07.6365 26248.6
 20 09 2013  05 56  -21.0142 26015.9 -03488.2 -07.6366 26248.7
 20 09 2013  05 57  -21.0143 26015.9 -03488.2 -07.6367 26248.7
 20 09 2013  05 58  -21.0142 26015.9 -03488.2 -07.6366 26248.7
 20 09 2013  05 59  -21.0138 26015.9 -03488.2 -07.6366 26248.7
 20 09 2013  06 00  -21.0135 26016.1 -03488.2 -07.6367 26248.9
 20 09 2013  06 01  -21.0133 26016.2 -03488.3 -07.6368 26249.0
 20 09 2013  06 02  -21.0129 26016.3 -03488.3 -07.6368 26249.1
 20 09 2013  06 03  -21.0128 26016.5 -03488.4 -07.6370 26249.3
 20 09 2013  06 04  -21.0126 26016.5 -03488.5 -07.6371 26249.4
 20 09 2013  06 05  -21.0125 26016.6 -03488.5 -07.6371 26249.5
 20 09 2013  06 06  -21.0123 26016.7 -03488.5 -07.6372 26249.5
 20 09 2013  06 07  -21.0121 26016.8 -03488.6 -07.6372 26249.6
 20 09 2013  06 08  -21.0121 26016.9 -03488.6 -07.6372 26249.7
 20 09 2013  06 09  -21.0124 26016.8 -03488.6 -07.6373 26249.7
 20 09 2013  06 10  -21.0126 26016.7 -03488.6 -07.6372 26249.6
 20 09 2013  06 11  -21.0129 26016.6 -03488.5 -07.6372 26249.5
 20 09 2013  06 12  -21.0129 26016.8 -03488.6 -07.6372 26249.7
 20 09 2013  06 13  -21.0128 26016.9 -03488.6 -07.6373 26249.7
 20 09 2013  06 14  -21.0125 26016.8 -03488.6 -07.6372 26249.6
 20 09 2013  06 15  -21.0120 26016.8 -03488.5 -07.6371 26249.6
 20 09 2013  06 16  -21.0118 26016.9 -03488.6 -07.6372 26249.7
 20 09 2013  06 17  -21.0118 26016.9 -03488.6 -07.6373 26249.8
 20 09 2013  06 18  -21.0116 26017.1 -03488.8 -07.6375 26250.0
 20 09 2013  06 19  -21.0110 26017.5 -03488.9 -07.6377 26250.4
 20 09 2013  06 20  -21.0108 26017.6 -03489.0 -07.6378 26250.5
 20 09 2013  06 21  -21.0109 26017.6 -03489.0 -07.6379 26250.5
 20 09 2013  06 22  -21.0109 26017.7 -03489.1 -07.6380 26250.6
 20 09 2013  06 23  -21.0110 26017.6 -03489.0 -07.6379 26250.5
 20 09 2013  06 24  -21.0109 26017.5 -03489.0 -07.6379 26250.4
 20 09 2013  06 25  -21.0107 26017.4 -03488.9 -07.6377 26250.3
 20 09 2013  06 26  -21.0104 26017.5 -03489.0 -07.6378 26250.4
 20 09 2013  06 27  -21.0100 26017.5 -03489.0 -07.6379 26250.4
 20 09 2013  06 28  -21.0097 26017.6 -03489.0 -07.6379 26250.5
 20 09 2013  06 29  -21.0095 26017.7 -03489.1 -07.6381 26250.6
 20 09 2013  06 30  -21.0094 26017.8 -03489.2 -07.6382 26250.7
 20 09 2013  06 31  -21.0092 26017.7 -03489.2 -07.6382 26250.7
 20 09 2013  06 32  -21.0091 26017.8 -03489.2 -07.6382 26250.7
 20 09 2013  06 33  -21.0092 26017.8 -03489.2 -07.6382 26250.7
 20 09 2013  06 34  -21.0095 26017.8 -03489.2 -07.6383 26250.8
 20 09 2013  06 35  -21.0096 26017.9 -03489.2 -07.6383 26250.8
 20 09 2013  06 36  -21.0096 26017.9 -03489.2 -07.6383 26250.9
 20 09 2013  06 37  -21.0093 26017.8 -03489.1 -07.6381 26250.7
 20 09 2013  06 38  -21.0087 26017.5 -03488.9 -07.6377 26250.4
 20 09 2013  06 39  -21.0081 26017.2 -03488.8 -07.6375 26250.1
 20 09 2013  06 40  -21.0074 26017.0 -03488.7 -07.6373 26249.9
 20 09 2013  06 41  -21.0072 26016.8 -03488.6 -07.6373 26249.7
 20 09 2013  06 42  -21.0073 26016.7 -03488.7 -07.6374 26249.6
 20 09 2013  06 43  -21.0073 26016.5 -03488.6 -07.6374 26249.4
 20 09 2013  06 44  -21.0071 26016.4 -03488.6 -07.6374 26249.3
 20 09 2013  06 45  -21.0071 26016.3 -03488.6 -07.6374 26249.1
 20 09 2013  06 46  -21.0070 26016.2 -03488.5 -07.6373 26249.0
 20 09 2013  06 47  -21.0070 26016.1 -03488.5 -07.6373 26249.0
 20 09 2013  06 48  -21.0075 26016.2 -03488.7 -07.6375 26249.0
 20 09 2013  06 49  -21.0080 26016.3 -03488.8 -07.6378 26249.2
 20 09 2013  06 50  -21.0083 26016.5 -03488.9 -07.6379 26249.4
 20 09 2013  06 51  -21.0082 26016.4 -03488.8 -07.6379 26249.3
 20 09 2013  06 52  -21.0079 26016.3 -03488.7 -07.6376 26249.2
 20 09 2013  06 53  -21.0074 26016.1 -03488.6 -07.6374 26249.0
 20 09 2013  06 54  -21.0071 26015.9 -03488.5 -07.6372 26248.8
 20 09 2013  06 55  -21.0068 26015.7 -03488.4 -07.6371 26248.6
 20 09 2013  06 56  -21.0067 26015.6 -03488.4 -07.6372 26248.5
 20 09 2013  06 57  -21.0065 26015.6 -03488.5 -07.6373 26248.4
 20 09 2013  06 58  -21.0065 26015.4 -03488.4 -07.6372 26248.2
 20 09 2013  06 59  -21.0067 26015.3 -03488.4 -07.6372 26248.1
 20 09 2013  07 00  -21.0070 26015.0 -03488.3 -07.6371 26247.9
 20 09 2013  07 01  -21.0071 26015.1 -03488.4 -07.6372 26247.9
 20 09 2013  07 02  -21.0074 26015.5 -03488.6 -07.6376 26248.4
 20 09 2013  07 03  -21.0078 26016.3 -03489.0 -07.6383 26249.2
 20 09 2013  07 04  -21.0079 26016.8 -03489.3 -07.6387 26249.7
 20 09 2013  07 05  -21.0077 26017.1 -03489.5 -07.6391 26250.1
 20 09 2013  07 06  -21.0075 26017.4 -03489.6 -07.6391 26250.4
 20 09 2013  07 07  -21.0073 26017.5 -03489.5 -07.6391 26250.5
 20 09 2013  07 08  -21.0071 26017.5 -03489.5 -07.6389 26250.5
 20 09 2013  07 09  -21.0069 26017.4 -03489.3 -07.6387 26250.3
 20 09 2013  07 10  -21.0069 26017.3 -03489.3 -07.6385 26250.2
 20 09 2013  07 11  -21.0068 26017.1 -03489.1 -07.6383 26250.0
 20 09 2013  07 12  -21.0067 26016.9 -03489.0 -07.6381 26249.8
 20 09 2013  07 13  -21.0066 26016.9 -03489.0 -07.6381 26249.8
 20 09 2013  07 14  -21.0064 26016.9 -03489.0 -07.6381 26249.8
 20 09 2013  07 15  -21.0060 26017.0 -03489.0 -07.6381 26249.9
 20 09 2013  07 16  -21.0058 26017.1 -03489.1 -07.6382 26250.1
 20 09 2013  07 17  -21.0057 26017.1 -03489.1 -07.6382 26250.0
 20 09 2013  07 18  -21.0056 26017.0 -03489.1 -07.6382 26249.9
 20 09 2013  07 19  -21.0055 26017.0 -03489.0 -07.6381 26249.9
 20 09 2013  07 20  -21.0053 26016.9 -03489.0 -07.6380 26249.8
 20 09 2013  07 21  -21.0053 26016.8 -03489.0 -07.6380 26249.7
 20 09 2013  07 22  -21.0053 26016.7 -03488.9 -07.6380 26249.6
 20 09 2013  07 23  -21.0053 26016.6 -03488.9 -07.6379 26249.5
 20 09 2013  07 24  -21.0053 26016.5 -03488.8 -07.6378 26249.4
 20 09 2013  07 25  -21.0053 26016.4 -03488.8 -07.6378 26249.2
 20 09 2013  07 26  -21.0051 26016.2 -03488.7 -07.6376 26249.1
 20 09 2013  07 27  -21.0048 26016.6 -03488.8 -07.6377 26249.4
 20 09 2013  07 28  -21.0045 26016.8 -03488.9 -07.6378 26249.7
 20 09 2013  07 29  -21.0042 26017.1 -03489.0 -07.6381 26250.0
 20 09 2013  07 30  -21.0041 26017.2 -03489.2 -07.6383 26250.2
 20 09 2013  07 31  -21.0042 26017.2 -03489.2 -07.6383 26250.1
 20 09 2013  07 32  -21.0042 26017.2 -03489.2 -07.6383 26250.2
 20 09 2013  07 33  -21.0042 26017.3 -03489.2 -07.6383 26250.2
 20 09 2013  07 34  -21.0041 26017.4 -03489.2 -07.6384 26250.3
 20 09 2013  07 35  -21.0039 26017.5 -03489.2 -07.6384 26250.4
 20 09 2013  07 36  -21.0037 26017.5 -03489.2 -07.6384 26250.4
 20 09 2013  07 37  -21.0036 26017.4 -03489.2 -07.6383 26250.3
 20 09 2013  07 38  -21.0036 26017.3 -03489.1 -07.6382 26250.2
 20 09 2013  07 39  -21.0036 26017.2 -03489.1 -07.6381 26250.1
 20 09 2013  07 40  -21.0039 26017.1 -03489.0 -07.6381 26250.0
 20 09 2013  07 41  -21.0042 26017.0 -03489.0 -07.6380 26249.9
 20 09 2013  07 42  -21.0043 26016.9 -03489.0 -07.6380 26249.8
 20 09 2013  07 43  -21.0041 26016.9 -03489.0 -07.6380 26249.8
 20 09 2013  07 44  -21.0034 26016.8 -03488.9 -07.6379 26249.7
 20 09 2013  07 45  -21.0024 26016.7 -03488.8 -07.6377 26249.6
 20 09 2013  07 46  -21.0018 26016.8 -03488.8 -07.6377 26249.7
 20 09 2013  07 47  -21.0013 26017.1 -03489.0 -07.6380 26250.0
 20 09 2013  07 48  -21.0011 26017.4 -03489.2 -07.6383 26250.3
 20 09 2013  07 49  -21.0009 26017.7 -03489.4 -07.6387 26250.7
 20 09 2013  07 50  -21.0009 26017.9 -03489.6 -07.6390 26250.9
 20 09 2013  07 51  -21.0010 26018.2 -03489.7 -07.6393 26251.2
 20 09 2013  07 52  -21.0012 26018.6 -03490.0 -07.6397 26251.6
 20 09 2013  07 53  -21.0013 26018.9 -03490.1 -07.6400 26252.0
 20 09 2013  07 54  -21.0013 26019.3 -03490.3 -07.6403 26252.3
 20 09 2013  07 55  -21.0012 26019.7 -03490.5 -07.6404 26252.7
 20 09 2013  07 56  -21.0011 26019.7 -03490.5 -07.6405 26252.8
 20 09 2013  07 57  -21.0011 26019.7 -03490.4 -07.6403 26252.7
 20 09 2013  07 58  -21.0010 26019.6 -03490.3 -07.6401 26252.6
 20 09 2013  07 59  -21.0009 26019.5 -03490.2 -07.6398 26252.5
 20 09 2013  08 00  -21.0008 26019.3 -03490.0 -07.6395 26252.3
 20 09 2013  08 01  -21.0007 26019.2 -03489.9 -07.6394 26252.2
 20 09 2013  08 02  -21.0005 26019.2 -03489.8 -07.6392 26252.2
 20 09 2013  08 03  -21.0003 26019.4 -03489.9 -07.6394 26252.4
 20 09 2013  08 04  -21.0000 26019.6 -03490.0 -07.6395 26252.6
 20 09 2013  08 05  -21.0000 26019.9 -03490.2 -07.6398 26253.0
 20 09 2013  08 06  -20.9999 26020.0 -03490.2 -07.6398 26253.1
 20 09 2013  08 07  -20.9997 26020.3 -03490.3 -07.6399 26253.3
 20 09 2013  08 08  -20.9994 26020.4 -03490.4 -07.6400 26253.5
 20 09 2013  08 09  -20.9992 26020.3 -03490.3 -07.6399 26253.4
 20 09 2013  08 10  -20.9990 26020.2 -03490.2 -07.6398 26253.2
 20 09 2013  08 11  -20.9988 26020.4 -03490.2 -07.6397 26253.4
 20 09 2013  08 12  -20.9986 26020.4 -03490.2 -07.6397 26253.4
 20 09 2013  08 13  -20.9986 26020.3 -03490.2 -07.6397 26253.3
 20 09 2013  08 14  -20.9986 26020.0 -03490.1 -07.6395 26253.0
 20 09 2013  08 15  -20.9984 26019.7 -03489.9 -07.6393 26252.7
 20 09 2013  08 16  -20.9983 26019.5 -03489.8 -07.6391 26252.5
 20 09 2013  08 17  -20.9982 26019.4 -03489.8 -07.6391 26252.4
 20 09 2013  08 18  -20.9982 26019.4 -03489.8 -07.6392 26252.4
 20 09 2013  08 19  -20.9981 26019.3 -03489.8 -07.6391 26252.2
 20 09 2013  08 20  -20.9980 26019.0 -03489.7 -07.6390 26252.0
 20 09 2013  08 21  -20.9981 26018.8 -03489.6 -07.6389 26251.7
 20 09 2013  08 22  -20.9983 26018.5 -03489.5 -07.6387 26251.4
 20 09 2013  08 23  -20.9981 26018.3 -03489.4 -07.6385 26251.2
 20 09 2013  08 24  -20.9979 26018.3 -03489.3 -07.6384 26251.2
 20 09 2013  08 25  -20.9979 26018.3 -03489.4 -07.6386 26251.3
 20 09 2013  08 26  -20.9979 26018.3 -03489.5 -07.6387 26251.3
 20 09 2013  08 27  -20.9979 26018.2 -03489.5 -07.6387 26251.2
 20 09 2013  08 28  -20.9977 26018.1 -03489.4 -07.6386 26251.1
 20 09 2013  08 29  -20.9975 26018.1 -03489.4 -07.6386 26251.1
 20 09 2013  08 30  -20.9971 26018.2 -03489.4 -07.6386 26251.1
 20 09 2013  08 31  -20.9967 26018.3 -03489.5 -07.6387 26251.2
 20 09 2013  08 32  -20.9963 26018.3 -03489.5 -07.6387 26251.3
 20 09 2013  08 33  -20.9961 26018.3 -03489.5 -07.6387 26251.2
 20 09 2013  08 34  -20.9962 26018.2 -03489.5 -07.6387 26251.1
 20 09 2013  08 35  -20.9961 26018.1 -03489.5 -07.6387 26251.0
 20 09 2013  08 36  -20.9958 26018.0 -03489.5 -07.6387 26250.9
 20 09 2013  08 37  -20.9956 26018.0 -03489.4 -07.6387 26250.9
 20 09 2013  08 38  -20.9950 26017.9 -03489.4 -07.6387 26250.9
 20 09 2013  08 39  -20.9946 26017.9 -03489.5 -07.6389 26250.9
 20 09 2013  08 40  -20.9942 26018.0 -03489.6 -07.6390 26250.9
 20 09 2013  08 41  -20.9940 26018.2 -03489.8 -07.6394 26251.2
 20 09 2013  08 42  -20.9944 26018.4 -03490.1 -07.6400 26251.5
 20 09 2013  08 43  -20.9945 26018.6 -03490.3 -07.6404 26251.7
 20 09 2013  08 44  -20.9944 26018.7 -03490.4 -07.6407 26251.7
 20 09 2013  08 45  -20.9941 26018.7 -03490.5 -07.6408 26251.8
 20 09 2013  08 46  -20.9943 26018.8 -03490.6 -07.6409 26251.9
 20 09 2013  08 47  -20.9940 26018.8 -03490.7 -07.6411 26251.9
 20 09 2013  08 48  -20.9940 26019.0 -03490.7 -07.6413 26252.1
 20 09 2013  08 49  -20.9941 26019.1 -03490.9 -07.6414 26252.2
 20 09 2013  08 50  -20.9941 26019.3 -03491.0 -07.6417 26252.4
 20 09 2013  08 51  -20.9937 26019.3 -03491.1 -07.6418 26252.5
 20 09 2013  08 52  -20.9933 26019.3 -03491.1 -07.6419 26252.4
 20 09 2013  08 53  -20.9934 26019.4 -03491.2 -07.6420 26252.6
 20 09 2013  08 54  -20.9939 26019.4 -03491.2 -07.6422 26252.6
 20 09 2013  08 55  -20.9942 26019.4 -03491.2 -07.6422 26252.5
 20 09 2013  08 56  -20.9946 26019.4 -03491.1 -07.6419 26252.6
 20 09 2013  08 57  -20.9947 26019.4 -03491.2 -07.6420 26252.5
 20 09 2013  08 58  -20.9944 26019.4 -03491.1 -07.6419 26252.5
 20 09 2013  08 59  -20.9944 26019.3 -03491.0 -07.6417 26252.5
 20 09 2013  09 00  -20.9944 26019.3 -03491.1 -07.6418 26252.4
 20 09 2013  09 01  -20.9944 26019.2 -03491.1 -07.6419 26252.4
 20 09 2013  09 02  -20.9943 26019.3 -03491.2 -07.6421 26252.5
 20 09 2013  09 03  -20.9941 26019.4 -03491.3 -07.6422 26252.6
 20 09 2013  09 04  -20.9943 26019.5 -03491.3 -07.6423 26252.7
 20 09 2013  09 05  -20.9945 26019.6 -03491.4 -07.6424 26252.8
 20 09 2013  09 06  -20.9945 26019.7 -03491.4 -07.6425 26252.9
 20 09 2013  09 07  -20.9943 26019.8 -03491.5 -07.6426 26253.0
 20 09 2013  09 08  -20.9940 26020.0 -03491.6 -07.6429 26253.2
 20 09 2013  09 09  -20.9938 26020.1 -03491.7 -07.6431 26253.3
 20 09 2013  09 10  -20.9937 26020.2 -03491.8 -07.6433 26253.4
 20 09 2013  09 11  -20.9936 26020.3 -03491.9 -07.6433 26253.5
 20 09 2013  09 12  -20.9939 26020.4 -03491.9 -07.6433 26253.7
 20 09 2013  09 13  -20.9942 26020.5 -03491.9 -07.6433 26253.8
 20 09 2013  09 14  -20.9942 26020.5 -03491.8 -07.6431 26253.8
 20 09 2013  09 15  -20.9943 26020.5 -03491.8 -07.6431 26253.8
 20 09 2013  09 16  -20.9942 26020.6 -03491.8 -07.6431 26253.8
 20 09 2013  09 17  -20.9941 26020.7 -03491.9 -07.6433 26254.0
 20 09 2013  09 18  -20.9940 26021.0 -03492.0 -07.6435 26254.3
 20 09 2013  09 19  -20.9941 26021.2 -03492.1 -07.6436 26254.5
 20 09 2013  09 20  -20.9942 26021.4 -03492.3 -07.6438 26254.7
 20 09 2013  09 21  -20.9943 26021.7 -03492.3 -07.6439 26255.0
 20 09 2013  09 22  -20.9945 26021.8 -03492.4 -07.6440 26255.1
 20 09 2013  09 23  -20.9947 26021.9 -03492.4 -07.6439 26255.2
 20 09 2013  09 24  -20.9947 26022.0 -03492.5 -07.6442 26255.3
 20 09 2013  09 25  -20.9945 26021.9 -03492.6 -07.6444 26255.3
 20 09 2013  09 26  -20.9944 26021.9 -03492.6 -07.6445 26255.2
 20 09 2013  09 27  -20.9943 26021.9 -03492.7 -07.6446 26255.3
 20 09 2013  09 28  -20.9947 26022.2 -03492.8 -07.6448 26255.5
 20 09 2013  09 29  -20.9954 26022.5 -03493.0 -07.6450 26255.9
 20 09 2013  09 30  -20.9958 26022.5 -03493.0 -07.6451 26255.9
 20 09 2013  09 31  -20.9957 26022.5 -03493.0 -07.6450 26255.9
 20 09 2013  09 32  -20.9956 26022.6 -03493.0 -07.6451 26256.0
 20 09 2013  09 33  -20.9957 26022.8 -03493.1 -07.6452 26256.2
 20 09 2013  09 34  -20.9956 26022.8 -03493.1 -07.6452 26256.2
 20 09 2013  09 35  -20.9958 26022.9 -03493.1 -07.6453 26256.3
 20 09 2013  09 36  -20.9958 26023.0 -03493.1 -07.6452 26256.4
 20 09 2013  09 37  -20.9958 26023.1 -03493.2 -07.6453 26256.5
 20 09 2013  09 38  -20.9965 26023.2 -03493.3 -07.6455 26256.6
 20 09 2013  09 39  -20.9971 26023.4 -03493.4 -07.6456 26256.9
 20 09 2013  09 40  -20.9974 26023.6 -03493.5 -07.6458 26257.0
 20 09 2013  09 41  -20.9977 26023.7 -03493.5 -07.6458 26257.2
 20 09 2013  09 42  -20.9981 26023.9 -03493.5 -07.6459 26257.3
 20 09 2013  09 43  -20.9982 26023.9 -03493.5 -07.6459 26257.3
 20 09 2013  09 44  -20.9985 26024.0 -03493.6 -07.6459 26257.5
 20 09 2013  09 45  -20.9984 26024.2 -03493.6 -07.6460 26257.7
 20 09 2013  09 46  -20.9985 26024.5 -03493.7 -07.6461 26257.9
 20 09 2013  09 47  -20.9989 26024.8 -03493.8 -07.6462 26258.3
 20 09 2013  09 48  -20.9992 26025.1 -03493.9 -07.6462 26258.6
 20 09 2013  09 49  -20.9995 26025.3 -03493.9 -07.6462 26258.8
 20 09 2013  09 50  -20.9998 26025.5 -03493.9 -07.6462 26259.0
 20 09 2013  09 51  -21.0001 26025.6 -03493.9 -07.6461 26259.1
 20 09 2013  09 52  -21.0002 26025.8 -03493.9 -07.6460 26259.2
 20 09 2013  09 53  -21.0003 26025.8 -03493.8 -07.6459 26259.3
 20 09 2013  09 54  -21.0003 26026.0 -03493.8 -07.6458 26259.4
 20 09 2013  09 55  -21.0007 26026.2 -03493.8 -07.6458 26259.7
 20 09 2013  09 56  -21.0009 26026.3 -03493.8 -07.6457 26259.7
 20 09 2013  09 57  -21.0010 26026.2 -03493.7 -07.6455 26259.7
 20 09 2013  09 58  -21.0011 26026.2 -03493.7 -07.6454 26259.7
 20 09 2013  09 59  -21.0012 26026.2 -03493.6 -07.6453 26259.7
 20 09 2013  10 00  -21.0013 26026.2 -03493.6 -07.6453 26259.7
 20 09 2013  10 01  -21.0017 26026.2 -03493.6 -07.6453 26259.6
 20 09 2013  10 02  -21.0019 26026.2 -03493.6 -07.6453 26259.6
 20 09 2013  10 03  -21.0025 26026.2 -03493.6 -07.6454 26259.6
 20 09 2013  10 04  -21.0029 26026.3 -03493.7 -07.6455 26259.8
 20 09 2013  10 05  -21.0036 26026.4 -03493.7 -07.6455 26259.9
 20 09 2013  10 06  -21.0042 26026.5 -03493.7 -07.6454 26259.9
 20 09 2013  10 07  -21.0044 26026.4 -03493.6 -07.6453 26259.9
 20 09 2013  10 08  -21.0047 26026.5 -03493.6 -07.6452 26259.9
 20 09 2013  10 09  -21.0051 26026.6 -03493.5 -07.6450 26260.0
 20 09 2013  10 10  -21.0056 26026.8 -03493.5 -07.6449 26260.2
 20 09 2013  10 11  -21.0061 26026.9 -03493.4 -07.6447 26260.3
 20 09 2013  10 12  -21.0065 26027.0 -03493.3 -07.6445 26260.4
 20 09 2013  10 13  -21.0071 26027.1 -03493.3 -07.6443 26260.5
 20 09 2013  10 14  -21.0074 26027.3 -03493.2 -07.6442 26260.7
 20 09 2013  10 15  -21.0075 26027.5 -03493.2 -07.6441 26260.9
 20 09 2013  10 16  -21.0077 26027.7 -03493.1 -07.6439 26261.1
 20 09 2013  10 17  -21.0081 26028.0 -03493.1 -07.6438 26261.3
 20 09 2013  10 18  -21.0084 26028.0 -03493.0 -07.6436 26261.4
 20 09 2013  10 19  -21.0088 26028.2 -03493.0 -07.6434 26261.5
 20 09 2013  10 20  -21.0091 26028.5 -03493.0 -07.6433 26261.8
 20 09 2013  10 21  -21.0097 26028.7 -03493.0 -07.6433 26262.1
 20 09 2013  10 22  -21.0098 26028.8 -03492.9 -07.6431 26262.1
 20 09 2013  10 23  -21.0100 26029.0 -03492.9 -07.6429 26262.3
 20 09 2013  10 24  -21.0106 26029.5 -03492.9 -07.6429 26262.8
 20 09 2013  10 25  -21.0114 26029.8 -03493.0 -07.6429 26263.2
 20 09 2013  10 26  -21.0120 26030.1 -03492.9 -07.6427 26263.4
 20 09 2013  10 27  -21.0124 26030.4 -03492.8 -07.6424 26263.7
 20 09 2013  10 28  -21.0128 26030.5 -03492.7 -07.6421 26263.8
 20 09 2013  10 29  -21.0130 26030.7 -03492.6 -07.6418 26264.0
 20 09 2013  10 30  -21.0134 26030.9 -03492.5 -07.6416 26264.1
 20 09 2013  10 31  -21.0140 26031.1 -03492.4 -07.6414 26264.3
 20 09 2013  10 32  -21.0145 26031.3 -03492.4 -07.6412 26264.5
 20 09 2013  10 33  -21.0150 26031.3 -03492.2 -07.6408 26264.5
 20 09 2013  10 34  -21.0151 26031.5 -03492.2 -07.6407 26264.7
 20 09 2013  10 35  -21.0152 26031.8 -03492.1 -07.6406 26265.0
 20 09 2013  10 36  -21.0154 26031.9 -03492.1 -07.6404 26265.1
 20 09 2013  10 37  -21.0160 26032.0 -03492.0 -07.6402 26265.2
 20 09 2013  10 38  -21.0166 26032.3 -03492.0 -07.6402 26265.5
 20 09 2013  10 39  -21.0171 26032.7 -03492.0 -07.6400 26265.8
 20 09 2013  10 40  -21.0174 26032.8 -03491.9 -07.6397 26265.9
 20 09 2013  10 41  -21.0178 26032.8 -03491.7 -07.6393 26266.0
 20 09 2013  10 42  -21.0187 26033.0 -03491.7 -07.6392 26266.2
 20 09 2013  10 43  -21.0189 26033.3 -03491.6 -07.6390 26266.4
 20 09 2013  10 44  -21.0191 26033.8 -03491.6 -07.6389 26266.9
 20 09 2013  10 45  -21.0191 26034.4 -03491.7 -07.6388 26267.5
 20 09 2013  10 46  -21.0190 26034.9 -03491.7 -07.6387 26268.0
 20 09 2013  10 47  -21.0189 26035.2 -03491.6 -07.6385 26268.3
 20 09 2013  10 48  -21.0190 26035.7 -03491.6 -07.6383 26268.7
 20 09 2013  10 49  -21.0194 26036.1 -03491.6 -07.6381 26269.2
 20 09 2013  10 50  -21.0203 26036.2 -03491.4 -07.6377 26269.2
 20 09 2013  10 51  -21.0208 26036.1 -03491.2 -07.6372 26269.1
 20 09 2013  10 52  -21.0213 26035.9 -03490.9 -07.6366 26268.9
 20 09 2013  10 53  -21.0205 26036.3 -03490.7 -07.6362 26269.3
 20 09 2013  10 54  -21.0206 26036.6 -03490.7 -07.6359 26269.6
 20 09 2013  10 55  -21.0209 26037.3 -03490.7 -07.6358 26270.2
 20 09 2013  10 56  -21.0212 26038.0 -03490.8 -07.6357 26271.0
 20 09 2013  10 57  -21.0215 26038.7 -03490.7 -07.6355 26271.6
 20 09 2013  10 58  -21.0223 26038.7 -03490.5 -07.6350 26271.6
 20 09 2013  10 59  -21.0228 26038.8 -03490.3 -07.6345 26271.7
 20 09 2013  11 00  -21.0226 26039.2 -03490.2 -07.6342 26272.1
 20 09 2013  11 01  -21.0227 26039.6 -03490.2 -07.6340 26272.5
 20 09 2013  11 02  -21.0227 26040.0 -03490.2 -07.6339 26272.8
 20 09 2013  11 03  -21.0232 26040.5 -03490.2 -07.6337 26273.3
 20 09 2013  11 04  -21.0234 26040.9 -03490.2 -07.6337 26273.8
 20 09 2013  11 05  -21.0235 26041.3 -03490.1 -07.6334 26274.1
 20 09 2013  11 06  -21.0240 26041.4 -03489.9 -07.6330 26274.2
 20 09 2013  11 07  -21.0244 26041.2 -03489.7 -07.6326 26274.0
 20 09 2013  11 08  -21.0250 26041.1 -03489.6 -07.6323 26273.9
 20 09 2013  11 09  -21.0257 26041.0 -03489.4 -07.6319 26273.8
 20 09 2013  11 10  -21.0255 26041.5 -03489.4 -07.6318 26274.2
 20 09 2013  11 11  -21.0254 26041.5 -03489.1 -07.6312 26274.2
 20 09 2013  11 12  -21.0251 26041.1 -03488.8 -07.6305 26273.8
 20 09 2013  11 13  -21.0245 26042.3 -03489.0 -07.6307 26274.9
 20 09 2013  11 14  -21.0247 26042.5 -03488.9 -07.6304 26275.2
 20 09 2013  11 15  -21.0245 26043.3 -03488.9 -07.6302 26275.9
 20 09 2013  11 16  -21.0249 26044.3 -03489.1 -07.6303 26277.0
 20 09 2013  11 17  -21.0257 26045.2 -03489.1 -07.6302 26277.9
 20 09 2013  11 18  -21.0265 26045.9 -03489.1 -07.6299 26278.6
 20 09 2013  11 19  -21.0273 26046.1 -03488.8 -07.6293 26278.8
 20 09 2013  11 20  -21.0281 26046.0 -03488.5 -07.6285 26278.6
 20 09 2013  11 21  -21.0285 26046.6 -03488.3 -07.6280 26279.1
 20 09 2013  11 22  -21.0292 26047.1 -03488.3 -07.6278 26279.7
 20 09 2013  11 23  -21.0297 26047.6 -03488.1 -07.6273 26280.1
 20 09 2013  11 24  -21.0301 26047.7 -03487.9 -07.6268 26280.2
 20 09 2013  11 25  -21.0303 26048.3 -03487.8 -07.6264 26280.8
 20 09 2013  11 26  -21.0305 26048.9 -03487.8 -07.6261 26281.4
 20 09 2013  11 27  -21.0306 26049.5 -03487.7 -07.6258 26281.9
 20 09 2013  11 28  -21.0309 26049.8 -03487.6 -07.6254 26282.3
 20 09 2013  11 29  -21.0306 26050.6 -03487.6 -07.6252 26283.1
 20 09 2013  11 30  -21.0312 26051.1 -03487.5 -07.6250 26283.5
 20 09 2013  11 31  -21.0317 26051.6 -03487.5 -07.6247 26284.0
 20 09 2013  11 32  -21.0328 26051.9 -03487.3 -07.6243 26284.3
 20 09 2013  11 33  -21.0339 26052.1 -03487.2 -07.6239 26284.4
 20 09 2013  11 34  -21.0346 26052.2 -03486.9 -07.6234 26284.5
 20 09 2013  11 35  -21.0352 26052.5 -03486.8 -07.6230 26284.8
 20 09 2013  11 36  -21.0360 26052.8 -03486.8 -07.6228 26285.1
 20 09 2013  11 37  -21.0369 26052.9 -03486.6 -07.6224 26285.1
 20 09 2013  11 38  -21.0378 26052.7 -03486.3 -07.6218 26284.9
 20 09 2013  11 39  -21.0386 26052.8 -03486.2 -07.6215 26285.0
 20 09 2013  11 40  -21.0388 26052.8 -03485.9 -07.6210 26284.9
 20 09 2013  11 41  -21.0391 26053.0 -03485.7 -07.6206 26285.2
 20 09 2013  11 42  -21.0401 26052.8 -03485.5 -07.6200 26284.9
 20 09 2013  11 43  -21.0410 26052.8 -03485.3 -07.6196 26284.9
 20 09 2013  11 44  -21.0419 26052.8 -03485.1 -07.6193 26284.9
 20 09 2013  11 45  -21.0422 26053.3 -03485.1 -07.6191 26285.4
 20 09 2013  11 46  -21.0423 26054.4 -03485.3 -07.6191 26286.5
 20 09 2013  11 47  -21.0428 26055.0 -03485.2 -07.6188 26287.1
 20 09 2013  11 48  -21.0431 26055.3 -03485.0 -07.6182 26287.3
 20 09 2013  11 49  -21.0435 26055.6 -03484.8 -07.6178 26287.6
 20 09 2013  11 50  -21.0444 26056.4 -03484.8 -07.6176 26288.4
 20 09 2013  11 51  -21.0455 26057.3 -03484.8 -07.6173 26289.3
 20 09 2013  11 52  -21.0464 26058.2 -03484.8 -07.6170 26290.1
 20 09 2013  11 53  -21.0468 26058.8 -03484.6 -07.6164 26290.7
 20 09 2013  11 54  -21.0475 26059.1 -03484.3 -07.6156 26291.0
 20 09 2013  11 55  -21.0482 26058.8 -03483.8 -07.6146 26290.6
 20 09 2013  11 56  -21.0481 26058.1 -03483.2 -07.6136 26289.9
 20 09 2013  11 57  -21.0478 26057.9 -03482.9 -07.6129 26289.7
 20 09 2013  11 58  -21.0475 26057.7 -03482.6 -07.6124 26289.4
 20 09 2013  11 59  -21.0478 26058.1 -03482.7 -07.6125 26289.8
 20 09 2013  12 00  -21.0477 26059.1 -03482.9 -07.6127 26290.9
 20 09 2013  12 01  -21.0475 26059.6 -03482.9 -07.6125 26291.3
 20 09 2013  12 02  -21.0482 26060.2 -03482.9 -07.6123 26291.9
 20 09 2013  12 03  -21.0487 26060.7 -03482.8 -07.6120 26292.4
 20 09 2013  12 04  -21.0488 26061.2 -03482.7 -07.6116 26292.9
 20 09 2013  12 05  -21.0490 26061.5 -03482.5 -07.6111 26293.2
 20 09 2013  12 06  -21.0495 26061.9 -03482.4 -07.6108 26293.6
 20 09 2013  12 07  -21.0501 26062.3 -03482.3 -07.6104 26293.9
 20 09 2013  12 08  -21.0505 26062.9 -03482.2 -07.6101 26294.5
 20 09 2013  12 09  -21.0507 26063.5 -03482.1 -07.6096 26295.1
 20 09 2013  12 10  -21.0512 26063.9 -03481.9 -07.6090 26295.4
 20 09 2013  12 11  -21.0512 26064.1 -03481.6 -07.6085 26295.6
 20 09 2013  12 12  -21.0513 26064.4 -03481.4 -07.6080 26295.9
 20 09 2013  12 13  -21.0516 26065.1 -03481.4 -07.6076 26296.6
 20 09 2013  12 14  -21.0522 26065.6 -03481.2 -07.6072 26297.0
 20 09 2013  12 15  -21.0524 26066.1 -03481.1 -07.6067 26297.5
 20 09 2013  12 16  -21.0523 26066.6 -03480.9 -07.6062 26298.0
 20 09 2013  12 17  -21.0523 26066.7 -03480.5 -07.6053 26298.1
 20 09 2013  12 18  -21.0524 26066.8 -03480.2 -07.6046 26298.1
 20 09 2013  12 19  -21.0525 26067.3 -03480.1 -07.6042 26298.6
 20 09 2013  12 20  -21.0527 26067.8 -03479.9 -07.6038 26299.1
 20 09 2013  12 21  -21.0530 26068.1 -03479.7 -07.6032 26299.3
 20 09 2013  12 22  -21.0534 26068.1 -03479.4 -07.6024 26299.3
 20 09 2013  12 23  -21.0538 26068.3 -03479.1 -07.6018 26299.4
 20 09 2013  12 24  -21.0539 26068.7 -03479.0 -07.6015 26299.8
 20 09 2013  12 25  -21.0539 26069.2 -03479.0 -07.6013 26300.3
 20 09 2013  12 26  -21.0536 26070.1 -03479.0 -07.6010 26301.2
 20 09 2013  12 27  -21.0529 26070.6 -03478.8 -07.6005 26301.6
 20 09 2013  12 28  -21.0529 26070.7 -03478.5 -07.5999 26301.8
 20 09 2013  12 29  -21.0527 26071.0 -03478.3 -07.5994 26302.0
 20 09 2013  12 30  -21.0529 26071.2 -03478.1 -07.5989 26302.2
 20 09 2013  12 31  -21.0533 26071.6 -03478.0 -07.5985 26302.6
 20 09 2013  12 32  -21.0536 26072.2 -03478.0 -07.5983 26303.2
 20 09 2013  12 33  -21.0537 26072.7 -03477.9 -07.5978 26303.6
 20 09 2013  12 34  -21.0539 26072.6 -03477.4 -07.5970 26303.5
 20 09 2013  12 35  -21.0543 26072.2 -03477.0 -07.5962 26303.1
 20 09 2013  12 36  -21.0544 26072.1 -03476.8 -07.5958 26302.9
 20 09 2013  12 37  -21.0549 26072.7 -03476.9 -07.5957 26303.5
 20 09 2013  12 38  -21.0551 26072.3 -03476.4 -07.5949 26303.0
 20 09 2013  12 39  -21.0550 26071.3 -03475.8 -07.5939 26302.0
 20 09 2013  12 40  -21.0552 26071.6 -03475.9 -07.5939 26302.3
 20 09 2013  12 41  -21.0553 26072.7 -03476.1 -07.5942 26303.4
 20 09 2013  12 42  -21.0549 26073.2 -03476.0 -07.5936 26303.8
 20 09 2013  12 43  -21.0548 26073.8 -03475.7 -07.5929 26304.5
 20 09 2013  12 44  -21.0549 26074.2 -03475.8 -07.5929 26304.9
 20 09 2013  12 45  -21.0544 26074.2 -03474.9 -07.5910 26304.7
 20 09 2013  12 46  -21.0550 26073.3 -03475.2 -07.5921 26303.9
 20 09 2013  12 47  -21.0558 26073.5 -03475.2 -07.5918 26304.1
 20 09 2013  12 48  -21.0546 26074.5 -03475.2 -07.5916 26305.0
 20 09 2013  12 49  -21.0553 26075.4 -03475.3 -07.5915 26306.0
 20 09 2013  12 50  -21.0549 26076.0 -03475.3 -07.5914 26306.6
 20 09 2013  12 51  -21.0578 26077.6 -03475.7 -07.5917 26308.2
 20 09 2013  12 52  -21.0544 26077.7 -03475.3 -07.5909 26308.3
 20 09 2013  12 53  -21.0562 26077.5 -03475.0 -07.5903 26308.0
 20 09 2013  12 54  -21.0548 26077.9 -03474.9 -07.5901 26308.4
 20 09 2013  12 55  -21.0536 26078.7 -03474.7 -07.5893 26309.1
 20 09 2013  12 56  -21.0541 26078.7 -03474.7 -07.5893 26309.1
 20 09 2013  12 57  -21.0527 26078.1 -03474.0 -07.5881 26308.5
 20 09 2013  12 58  -21.0523 26077.9 -03473.8 -07.5877 26308.3
 20 09 2013  12 59  -21.0523 26079.1 -03474.2 -07.5882 26309.5
 20 09 2013  13 00  -21.0515 26079.5 -03474.1 -07.5878 26309.9
 20 09 2013  13 01  -21.0510 26079.6 -03473.9 -07.5873 26309.9
 20 09 2013  13 02  -21.0505 26079.9 -03473.8 -07.5871 26310.2
 20 09 2013  13 03  -21.0504 26080.0 -03473.6 -07.5866 26310.3
 20 09 2013  13 04  -21.0500 26079.5 -03473.2 -07.5858 26309.8
 20 09 2013  13 05  -21.0501 26079.3 -03472.9 -07.5853 26309.5
 20 09 2013  13 06  -21.0501 26079.7 -03473.0 -07.5855 26310.0
 20 09 2013  13 07  -21.0502 26080.6 -03473.3 -07.5858 26310.9
 20 09 2013  13 08  -21.0501 26081.2 -03473.4 -07.5857 26311.5
 20 09 2013  13 09  -21.0491 26081.8 -03473.6 -07.5860 26312.1
 20 09 2013  13 10  -21.0487 26082.2 -03473.3 -07.5852 26312.4
 20 09 2013  13 11  -21.0491 26082.6 -03473.0 -07.5844 26312.9
 20 09 2013  13 12  -21.0487 26082.7 -03472.7 -07.5837 26312.9
 20 09 2013  13 13  -21.0483 26082.2 -03472.3 -07.5831 26312.3
 20 09 2013  13 14  -21.0482 26082.6 -03472.1 -07.5825 26312.7
 20 09 2013  13 15  -21.0479 26082.7 -03471.9 -07.5821 26312.8
 20 09 2013  13 16  -21.0474 26082.4 -03471.6 -07.5814 26312.4
 20 09 2013  13 17  -21.0466 26081.8 -03471.1 -07.5807 26311.8
 20 09 2013  13 18  -21.0457 26081.6 -03470.9 -07.5803 26311.6
 20 09 2013  13 19  -21.0446 26081.3 -03470.7 -07.5799 26311.3
 20 09 2013  13 20  -21.0440 26081.3 -03470.7 -07.5799 26311.2
 20 09 2013  13 21  -21.0433 26081.2 -03470.5 -07.5796 26311.1
 20 09 2013  13 22  -21.0425 26080.5 -03470.1 -07.5790 26310.3
 20 09 2013  13 23  -21.0424 26080.2 -03470.1 -07.5789 26310.1
 20 09 2013  13 24  -21.0422 26080.5 -03470.2 -07.5791 26310.4
 20 09 2013  13 25  -21.0414 26079.6 -03469.8 -07.5784 26309.4
 20 09 2013  13 26  -21.0412 26078.9 -03469.6 -07.5782 26308.7
 20 09 2013  13 27  -21.0409 26077.3 -03469.1 -07.5776 26307.0
 20 09 2013  13 28  -21.0400 26075.8 -03468.7 -07.5771 26305.5
 20 09 2013  13 29  -21.0390 26075.2 -03468.7 -07.5773 26304.9
 20 09 2013  13 30  -21.0389 26074.6 -03468.8 -07.5776 26304.4
 20 09 2013  13 31  -21.0383 26074.8 -03469.1 -07.5783 26304.5
 20 09 2013  13 32  -21.0376 26074.8 -03469.3 -07.5787 26304.6
 20 09 2013  13 33  -21.0375 26075.2 -03469.6 -07.5794 26305.0
 20 09 2013  13 34  -21.0366 26074.6 -03469.5 -07.5792 26304.4
 20 09 2013  13 35  -21.0357 26074.3 -03469.4 -07.5791 26304.2
 20 09 2013  13 36  -21.0358 26074.8 -03469.7 -07.5797 26304.7
 20 09 2013  13 37  -21.0358 26076.0 -03470.4 -07.5807 26305.9
 20 09 2013  13 38  -21.0356 26076.4 -03470.5 -07.5808 26306.3
 20 09 2013  13 39  -21.0357 26076.6 -03470.5 -07.5809 26306.6
 20 09 2013  13 40  -21.0363 26077.2 -03470.7 -07.5811 26307.1
 20 09 2013  13 41  -21.0367 26077.9 -03470.9 -07.5814 26307.8
 20 09 2013  13 42  -21.0363 26077.9 -03470.8 -07.5810 26307.9
 20 09 2013  13 43  -21.0362 26077.7 -03470.6 -07.5807 26307.6
 20 09 2013  13 44  -21.0362 26077.3 -03470.4 -07.5804 26307.2
 20 09 2013  13 45  -21.0371 26076.7 -03470.2 -07.5801 26306.6
 20 09 2013  13 46  -21.0377 26075.3 -03469.7 -07.5795 26305.1
 20 09 2013  13 47  -21.0375 26074.2 -03469.5 -07.5793 26304.0
 20 09 2013  13 48  -21.0369 26073.5 -03469.4 -07.5794 26303.3
 20 09 2013  13 49  -21.0367 26073.2 -03469.6 -07.5799 26303.0
 20 09 2013  13 50  -21.0360 26071.9 -03469.3 -07.5797 26301.7
 20 09 2013  13 51  -21.0355 26072.0 -03469.7 -07.5804 26301.9
 20 09 2013  13 52  -21.0356 26072.1 -03470.0 -07.5812 26302.0
 20 09 2013  13 53  -21.0356 26072.1 -03470.3 -07.5817 26302.1
 20 09 2013  13 54  -21.0357 26072.9 -03470.8 -07.5826 26302.9
 20 09 2013  13 55  -21.0359 26074.0 -03471.4 -07.5835 26304.1
 20 09 2013  13 56  -21.0357 26073.7 -03471.2 -07.5832 26303.8
 20 09 2013  13 57  -21.0358 26073.9 -03471.3 -07.5834 26303.9
 20 09 2013  13 58  -21.0361 26074.2 -03471.4 -07.5836 26304.2
 20 09 2013  13 59  -21.0366 26074.3 -03471.5 -07.5837 26304.4
 20 09 2013  14 00  -21.0370 26073.8 -03471.3 -07.5834 26303.9
 20 09 2013  14 01  -21.0364 26072.1 -03470.6 -07.5823 26302.1
 20 09 2013  14 02  -21.0361 26070.8 -03470.3 -07.5820 26300.8
 20 09 2013  14 03  -21.0362 26070.6 -03470.5 -07.5826 26300.6
 20 09 2013  14 04  -21.0363 26070.5 -03470.7 -07.5830 26300.5
 20 09 2013  14 05  -21.0370 26071.0 -03471.2 -07.5839 26301.1
 20 09 2013  14 06  -21.0377 26071.3 -03471.5 -07.5845 26301.4
 20 09 2013  14 07  -21.0379 26071.3 -03471.6 -07.5848 26301.4
 20 09 2013  14 08  -21.0379 26071.5 -03471.8 -07.5851 26301.7
 20 09 2013  14 09  -21.0381 26072.2 -03472.2 -07.5858 26302.4
 20 09 2013  14 10  -21.0381 26073.0 -03472.5 -07.5863 26303.2
 20 09 2013  14 11  -21.0381 26073.7 -03472.8 -07.5867 26304.0
 20 09 2013  14 12  -21.0380 26074.3 -03473.0 -07.5869 26304.6
 20 09 2013  14 13  -21.0377 26074.6 -03473.0 -07.5869 26304.9
 20 09 2013  14 14  -21.0374 26074.8 -03473.0 -07.5868 26305.1
 20 09 2013  14 15  -21.0370 26075.0 -03473.0 -07.5868 26305.3
 20 09 2013  14 16  -21.0367 26075.0 -03473.0 -07.5867 26305.3
 20 09 2013  14 17  -21.0364 26075.2 -03473.1 -07.5868 26305.5
 20 09 2013  14 18  -21.0362 26075.2 -03473.0 -07.5867 26305.5
 20 09 2013  14 19  -21.0359 26075.2 -03473.0 -07.5867 26305.4
 20 09 2013  14 20  -21.0352 26074.7 -03472.9 -07.5865 26305.0
 20 09 2013  14 21  -21.0343 26074.2 -03472.7 -07.5864 26304.5
 20 09 2013  14 22  -21.0341 26074.4 -03473.0 -07.5868 26304.6
 20 09 2013  14 23  -21.0340 26074.7 -03473.3 -07.5874 26305.0
 20 09 2013  14 24  -21.0337 26074.9 -03473.4 -07.5877 26305.2
 20 09 2013  14 25  -21.0335 26075.1 -03473.6 -07.5879 26305.4
 20 09 2013  14 26  -21.0331 26075.1 -03473.6 -07.5880 26305.5
 20 09 2013  14 27  -21.0326 26075.0 -03473.7 -07.5882 26305.3
 20 09 2013  14 28  -21.0322 26075.0 -03473.7 -07.5883 26305.3
 20 09 2013  14 29  -21.0319 26075.4 -03474.1 -07.5889 26305.8
 20 09 2013  14 30  -21.0315 26075.6 -03474.2 -07.5892 26306.0
 20 09 2013  14 31  -21.0311 26075.6 -03474.3 -07.5894 26306.0
 20 09 2013  14 32  -21.0306 26075.5 -03474.4 -07.5895 26305.9
 20 09 2013  14 33  -21.0302 26075.5 -03474.5 -07.5898 26305.9
 20 09 2013  14 34  -21.0298 26075.7 -03474.7 -07.5902 26306.2
 20 09 2013  14 35  -21.0296 26075.7 -03474.8 -07.5904 26306.2
 20 09 2013  14 36  -21.0290 26075.4 -03474.8 -07.5905 26305.9
 20 09 2013  14 37  -21.0283 26075.2 -03474.9 -07.5907 26305.7
 20 09 2013  14 38  -21.0282 26075.4 -03475.1 -07.5912 26305.9
 20 09 2013  14 39  -21.0282 26075.5 -03475.4 -07.5917 26306.1
 20 09 2013  14 40  -21.0278 26075.4 -03475.5 -07.5921 26306.0
 20 09 2013  14 41  -21.0274 26075.3 -03475.7 -07.5924 26305.9
 20 09 2013  14 42  -21.0272 26075.4 -03475.9 -07.5929 26306.1
 20 09 2013  14 43  -21.0271 26075.7 -03476.2 -07.5933 26306.4
 20 09 2013  14 44  -21.0269 26075.6 -03476.3 -07.5936 26306.3
 20 09 2013  14 45  -21.0261 26074.9 -03476.1 -07.5935 26305.6
 20 09 2013  14 46  -21.0258 26075.0 -03476.4 -07.5941 26305.7
 20 09 2013  14 47  -21.0259 26075.1 -03476.7 -07.5947 26305.8
 20 09 2013  14 48  -21.0256 26074.7 -03476.8 -07.5949 26305.5
 20 09 2013  14 49  -21.0253 26074.4 -03476.9 -07.5953 26305.2
 20 09 2013  14 50  -21.0250 26074.1 -03477.0 -07.5956 26304.9
 20 09 2013  14 51  -21.0251 26074.1 -03477.3 -07.5963 26305.0
 20 09 2013  14 52  -21.0253 26074.3 -03477.6 -07.5969 26305.2
 20 09 2013  14 53  -21.0253 26074.2 -03477.7 -07.5972 26305.1
 20 09 2013  14 54  -21.0251 26074.0 -03477.9 -07.5975 26305.0
 20 09 2013  14 55  -21.0251 26073.8 -03478.0 -07.5979 26304.7
 20 09 2013  14 56  -21.0252 26073.9 -03478.3 -07.5985 26304.8
 20 09 2013  14 57  -21.0254 26073.9 -03478.5 -07.5990 26304.9
 20 09 2013  14 58  -21.0256 26073.8 -03478.8 -07.5995 26304.9
 20 09 2013  14 59  -21.0259 26074.2 -03479.1 -07.6001 26305.3
 20 09 2013  15 00  -21.0259 26074.2 -03479.2 -07.6004 26305.3
 20 09 2013  15 01  -21.0261 26074.1 -03479.4 -07.6007 26305.3
 20 09 2013  15 02  -21.0265 26074.3 -03479.6 -07.6012 26305.5
 20 09 2013  15 03  -21.0266 26074.4 -03479.8 -07.6015 26305.6
 20 09 2013  15 04  -21.0269 26074.2 -03479.8 -07.6015 26305.4
 20 09 2013  15 05  -21.0272 26073.9 -03479.7 -07.6016 26305.1
 20 09 2013  15 06  -21.0273 26073.6 -03479.7 -07.6015 26304.8
 20 09 2013  15 07  -21.0275 26073.1 -03479.6 -07.6015 26304.3
 20 09 2013  15 08  -21.0280 26072.9 -03479.7 -07.6017 26304.0
 20 09 2013  15 09  -21.0285 26072.8 -03479.8 -07.6020 26304.0
 20 09 2013  15 10  -21.0289 26073.0 -03479.9 -07.6023 26304.2
 20 09 2013  15 11  -21.0293 26073.2 -03480.1 -07.6026 26304.4
 20 09 2013  15 12  -21.0293 26073.1 -03480.1 -07.6026 26304.3
 20 09 2013  15 13  -21.0289 26073.0 -03480.1 -07.6027 26304.3
 20 09 2013  15 14  -21.0286 26072.8 -03480.1 -07.6027 26304.0
 20 09 2013  15 15  -21.0283 26072.7 -03480.2 -07.6029 26303.9
 20 09 2013  15 16  -21.0285 26072.8 -03480.3 -07.6032 26304.0
 20 09 2013  15 17  -21.0285 26072.7 -03480.4 -07.6034 26303.9
 20 09 2013  15 18  -21.0286 26072.7 -03480.5 -07.6036 26304.0
 20 09 2013  15 19  -21.0290 26073.0 -03480.8 -07.6041 26304.3
 20 09 2013  15 20  -21.0296 26073.3 -03481.0 -07.6045 26304.7
 20 09 2013  15 21  -21.0303 26073.7 -03481.3 -07.6049 26305.1
 20 09 2013  15 22  -21.0307 26074.0 -03481.4 -07.6052 26305.4
 20 09 2013  15 23  -21.0313 26074.4 -03481.6 -07.6055 26305.8
 20 09 2013  15 24  -21.0316 26074.5 -03481.7 -07.6057 26306.0
 20 09 2013  15 25  -21.0318 26074.6 -03481.8 -07.6058 26306.1
 20 09 2013  15 26  -21.0316 26074.2 -03481.6 -07.6054 26305.6
 20 09 2013  15 27  -21.0312 26073.0 -03481.1 -07.6048 26304.4
 20 09 2013  15 28  -21.0309 26072.0 -03480.8 -07.6045 26303.3
 20 09 2013  15 29  -21.0308 26071.6 -03480.9 -07.6046 26303.0
 20 09 2013  15 30  -21.0315 26071.7 -03481.1 -07.6051 26303.1
 20 09 2013  15 31  -21.0320 26071.5 -03481.1 -07.6053 26302.9
 20 09 2013  15 32  -21.0321 26071.4 -03481.2 -07.6054 26302.8
 20 09 2013  15 33  -21.0322 26071.6 -03481.4 -07.6058 26303.0
 20 09 2013  15 34  -21.0320 26071.7 -03481.6 -07.6061 26303.1
 20 09 2013  15 35  -21.0320 26071.8 -03481.7 -07.6064 26303.3
 20 09 2013  15 36  -21.0322 26072.0 -03481.8 -07.6066 26303.4
 20 09 2013  15 37  -21.0325 26072.2 -03482.0 -07.6069 26303.6
 20 09 2013  15 38  -21.0327 26072.0 -03481.9 -07.6068 26303.5
 20 09 2013  15 39  -21.0327 26071.7 -03481.8 -07.6066 26303.2
 20 09 2013  15 40  -21.0326 26071.3 -03481.7 -07.6065 26302.7
 20 09 2013  15 41  -21.0329 26071.2 -03481.8 -07.6067 26302.6
 20 09 2013  15 42  -21.0330 26071.3 -03481.9 -07.6070 26302.7
 20 09 2013  15 43  -21.0331 26071.5 -03482.1 -07.6073 26303.0
 20 09 2013  15 44  -21.0334 26071.9 -03482.3 -07.6076 26303.4
 20 09 2013  15 45  -21.0337 26072.1 -03482.3 -07.6077 26303.7
 20 09 2013  15 46  -21.0340 26072.3 -03482.4 -07.6078 26303.9
 20 09 2013  15 47  -21.0343 26072.6 -03482.5 -07.6078 26304.1
 20 09 2013  15 48  -21.0347 26072.7 -03482.4 -07.6077 26304.2
 20 09 2013  15 49  -21.0347 26072.1 -03482.0 -07.6070 26303.6
 20 09 2013  15 50  -21.0344 26070.8 -03481.4 -07.6061 26302.2
 20 09 2013  15 51  -21.0337 26069.2 -03480.8 -07.6052 26300.6
 20 09 2013  15 52  -21.0335 26068.6 -03480.7 -07.6052 26300.0
 20 09 2013  15 53  -21.0334 26068.0 -03480.6 -07.6052 26299.3
 20 09 2013  15 54  -21.0335 26067.4 -03480.5 -07.6051 26298.7
 20 09 2013  15 55  -21.0339 26067.0 -03480.6 -07.6053 26298.3
 20 09 2013  15 56  -21.0344 26066.9 -03480.7 -07.6056 26298.2
 20 09 2013  15 57  -21.0348 26067.1 -03480.9 -07.6060 26298.5
 20 09 2013  15 58  -21.0355 26067.6 -03481.1 -07.6064 26299.0
 20 09 2013  15 59  -21.0360 26067.9 -03481.3 -07.6066 26299.3
 20 09 2013  16 00  -21.0363 26068.0 -03481.3 -07.6066 26299.4
 20 09 2013  16 01  -21.0362 26067.8 -03481.1 -07.6063 26299.3
 20 09 2013  16 02  -21.0362 26067.5 -03481.0 -07.6060 26298.9
 20 09 2013  16 03  -21.0361 26067.0 -03480.7 -07.6057 26298.4
 20 09 2013  16 04  -21.0357 26066.4 -03480.4 -07.6052 26297.7
 20 09 2013  16 05  -21.0352 26065.6 -03480.2 -07.6049 26296.9
 20 09 2013  16 06  -21.0351 26065.5 -03480.2 -07.6049 26296.8
 20 09 2013  16 07  -21.0352 26065.3 -03480.1 -07.6049 26296.6
 20 09 2013  16 08  -21.0351 26064.9 -03480.0 -07.6047 26296.2
 20 09 2013  16 09  -21.0353 26064.9 -03480.0 -07.6048 26296.2
 20 09 2013  16 10  -21.0354 26065.1 -03480.1 -07.6049 26296.4
 20 09 2013  16 11  -21.0353 26065.1 -03480.0 -07.6048 26296.4
 20 09 2013  16 12  -21.0351 26064.9 -03479.9 -07.6046 26296.2
 20 09 2013  16 13  -21.0348 26064.8 -03479.9 -07.6045 26296.1
 20 09 2013  16 14  -21.0348 26064.6 -03479.8 -07.6045 26295.8
 20 09 2013  16 15  -21.0343 26064.0 -03479.6 -07.6041 26295.3
 20 09 2013  16 16  -21.0340 26063.7 -03479.5 -07.6039 26294.9
 20 09 2013  16 17  -21.0338 26063.5 -03479.4 -07.6039 26294.8
 20 09 2013  16 18  -21.0338 26063.5 -03479.5 -07.6040 26294.7
 20 09 2013  16 19  -21.0339 26063.2 -03479.4 -07.6038 26294.5
 20 09 2013  16 20  -21.0339 26063.1 -03479.3 -07.6037 26294.3
 20 09 2013  16 21  -21.0335 26062.9 -03479.1 -07.6034 26294.1
 20 09 2013  16 22  -21.0330 26062.3 -03478.8 -07.6028 26293.4
 20 09 2013  16 23  -21.0327 26062.0 -03478.6 -07.6026 26293.1
 20 09 2013  16 24  -21.0324 26061.9 -03478.6 -07.6027 26293.0
 20 09 2013  16 25  -21.0324 26062.4 -03478.9 -07.6031 26293.5
 20 09 2013  16 26  -21.0325 26063.0 -03479.2 -07.6035 26294.2
 20 09 2013  16 27  -21.0323 26063.3 -03479.2 -07.6034 26294.5
 20 09 2013  16 28  -21.0319 26063.6 -03479.1 -07.6032 26294.8
 20 09 2013  16 29  -21.0316 26063.7 -03479.1 -07.6031 26294.9
 20 09 2013  16 30  -21.0313 26063.5 -03478.8 -07.6026 26294.6
 20 09 2013  16 31  -21.0306 26063.1 -03478.5 -07.6021 26294.2
 20 09 2013  16 32  -21.0301 26062.7 -03478.3 -07.6016 26293.8
 20 09 2013  16 33  -21.0297 26062.3 -03478.1 -07.6013 26293.4
 20 09 2013  16 34  -21.0292 26061.9 -03477.8 -07.6009 26292.9
 20 09 2013  16 35  -21.0288 26061.7 -03477.7 -07.6006 26292.7
 20 09 2013  16 36  -21.0284 26061.3 -03477.5 -07.6003 26292.3
 20 09 2013  16 37  -21.0276 26060.8 -03477.2 -07.5998 26291.8
 20 09 2013  16 38  -21.0268 26060.5 -03477.1 -07.5996 26291.4
 20 09 2013  16 39  -21.0264 26060.4 -03477.0 -07.5996 26291.3
 20 09 2013  16 40  -21.0258 26060.4 -03476.9 -07.5994 26291.3
 20 09 2013  16 41  -21.0256 26060.2 -03476.8 -07.5992 26291.1
 20 09 2013  16 42  -21.0252 26060.0 -03476.7 -07.5989 26290.9
 20 09 2013  16 43  -21.0250 26059.9 -03476.5 -07.5987 26290.8
 20 09 2013  16 44  -21.0247 26059.8 -03476.4 -07.5983 26290.7
 20 09 2013  16 45  -21.0247 26059.8 -03476.2 -07.5981 26290.7
 20 09 2013  16 46  -21.0243 26059.6 -03476.0 -07.5975 26290.4
 20 09 2013  16 47  -21.0238 26059.3 -03475.8 -07.5973 26290.1
 20 09 2013  16 48  -21.0235 26059.2 -03475.7 -07.5971 26290.0
 20 09 2013  16 49  -21.0232 26059.1 -03475.6 -07.5968 26289.8
 20 09 2013  16 50  -21.0228 26059.0 -03475.5 -07.5968 26289.8
 20 09 2013  16 51  -21.0224 26059.0 -03475.5 -07.5967 26289.7
 20 09 2013  16 52  -21.0221 26058.9 -03475.4 -07.5965 26289.6
 20 09 2013  16 53  -21.0222 26059.0 -03475.4 -07.5966 26289.7
 20 09 2013  16 54  -21.0219 26058.8 -03475.3 -07.5964 26289.5
 20 09 2013  16 55  -21.0216 26058.6 -03475.2 -07.5961 26289.3
 20 09 2013  16 56  -21.0215 26058.4 -03475.1 -07.5959 26289.1
 20 09 2013  16 57  -21.0213 26057.9 -03474.9 -07.5957 26288.6
 20 09 2013  16 58  -21.0208 26057.4 -03474.7 -07.5953 26288.1
 20 09 2013  16 59  -21.0203 26057.0 -03474.5 -07.5952 26287.7
 20 09 2013  17 00  -21.0200 26056.9 -03474.6 -07.5953 26287.5
 20 09 2013  17 01  -21.0198 26056.8 -03474.6 -07.5954 26287.4
 20 09 2013  17 02  -21.0195 26056.5 -03474.5 -07.5954 26287.1
 20 09 2013  17 03  -21.0191 26056.1 -03474.5 -07.5953 26286.8
 20 09 2013  17 04  -21.0187 26056.0 -03474.5 -07.5954 26286.6
 20 09 2013  17 05  -21.0185 26055.9 -03474.6 -07.5957 26286.6
 20 09 2013  17 06  -21.0186 26056.1 -03474.8 -07.5961 26286.7
 20 09 2013  17 07  -21.0188 26056.2 -03474.9 -07.5963 26286.9
 20 09 2013  17 08  -21.0191 26056.2 -03475.0 -07.5964 26286.9
 20 09 2013  17 09  -21.0190 26056.1 -03475.0 -07.5965 26286.8
 20 09 2013  17 10  -21.0190 26055.9 -03475.0 -07.5966 26286.6
 20 09 2013  17 11  -21.0188 26055.6 -03474.9 -07.5965 26286.3
 20 09 2013  17 12  -21.0187 26055.3 -03474.9 -07.5965 26286.0
 20 09 2013  17 13  -21.0185 26055.2 -03475.0 -07.5967 26285.9
 20 09 2013  17 14  -21.0185 26055.0 -03475.0 -07.5968 26285.7
 20 09 2013  17 15  -21.0186 26054.9 -03475.1 -07.5970 26285.7
 20 09 2013  17 16  -21.0185 26054.7 -03475.0 -07.5969 26285.4
 20 09 2013  17 17  -21.0184 26054.3 -03474.9 -07.5969 26285.0
 20 09 2013  17 18  -21.0183 26053.9 -03474.9 -07.5968 26284.6
 20 09 2013  17 19  -21.0181 26053.6 -03474.8 -07.5968 26284.3
 20 09 2013  17 20  -21.0180 26053.3 -03474.8 -07.5968 26284.0
 20 09 2013  17 21  -21.0179 26053.1 -03474.8 -07.5969 26283.8
 20 09 2013  17 22  -21.0179 26052.9 -03474.7 -07.5968 26283.6
 20 09 2013  17 23  -21.0180 26052.7 -03474.7 -07.5968 26283.4
 20 09 2013  17 24  -21.0180 26052.6 -03474.7 -07.5968 26283.2
 20 09 2013  17 25  -21.0179 26052.3 -03474.6 -07.5967 26283.0
 20 09 2013  17 26  -21.0178 26052.1 -03474.5 -07.5965 26282.7
 20 09 2013  17 27  -21.0176 26051.8 -03474.4 -07.5964 26282.5
 20 09 2013  17 28  -21.0174 26051.6 -03474.3 -07.5964 26282.2
 20 09 2013  17 29  -21.0172 26051.4 -03474.3 -07.5963 26282.0
 20 09 2013  17 30  -21.0172 26051.2 -03474.3 -07.5963 26281.9
 20 09 2013  17 31  -21.0171 26051.1 -03474.2 -07.5962 26281.7
 20 09 2013  17 32  -21.0172 26051.0 -03474.1 -07.5961 26281.6
 20 09 2013  17 33  -21.0172 26051.0 -03474.1 -07.5960 26281.6
 20 09 2013  17 34  -21.0173 26050.9 -03474.0 -07.5958 26281.5
 20 09 2013  17 35  -21.0174 26050.8 -03473.9 -07.5956 26281.4
 20 09 2013  17 36  -21.0174 26050.5 -03473.6 -07.5951 26281.1
 20 09 2013  17 37  -21.0174 26049.9 -03473.2 -07.5945 26280.5
 20 09 2013  17 38  -21.0171 26049.3 -03472.8 -07.5938 26279.8
 20 09 2013  17 39  -21.0168 26048.7 -03472.4 -07.5931 26279.1
 20 09 2013  17 40  -21.0166 26048.2 -03472.2 -07.5926 26278.6
 20 09 2013  17 41  -21.0167 26047.9 -03471.9 -07.5922 26278.2
 20 09 2013  17 42  -21.0165 26047.4 -03471.6 -07.5917 26277.7
 20 09 2013  17 43  -21.0161 26046.9 -03471.3 -07.5912 26277.2
 20 09 2013  17 44  -21.0156 26046.7 -03471.1 -07.5908 26276.9
 20 09 2013  17 45  -21.0149 26046.4 -03471.0 -07.5905 26276.7
 20 09 2013  17 46  -21.0141 26046.5 -03471.0 -07.5906 26276.8
 20 09 2013  17 47  -21.0135 26046.9 -03471.2 -07.5908 26277.2
 20 09 2013  17 48  -21.0133 26047.2 -03471.3 -07.5910 26277.4
 20 09 2013  17 49  -21.0132 26047.4 -03471.3 -07.5910 26277.7
 20 09 2013  17 50  -21.0132 26047.7 -03471.3 -07.5909 26278.0
 20 09 2013  17 51  -21.0132 26047.6 -03471.1 -07.5905 26277.9
 20 09 2013  17 52  -21.0129 26047.4 -03470.9 -07.5900 26277.6
 20 09 2013  17 53  -21.0126 26047.0 -03470.6 -07.5895 26277.2
 20 09 2013  17 54  -21.0120 26046.2 -03470.1 -07.5888 26276.4
 20 09 2013  17 55  -21.0113 26045.6 -03469.8 -07.5883 26275.7
 20 09 2013  17 56  -21.0107 26045.1 -03469.6 -07.5881 26275.2
 20 09 2013  17 57  -21.0101 26044.8 -03469.6 -07.5880 26274.9
 20 09 2013  17 58  -21.0095 26044.5 -03469.6 -07.5881 26274.6
 20 09 2013  17 59  -21.0091 26044.4 -03469.6 -07.5883 26274.5
 20 09 2013  18 00  -21.0088 26044.1 -03469.6 -07.5883 26274.2
 20 09 2013  18 01  -21.0083 26043.5 -03469.5 -07.5882 26273.6
 20 09 2013  18 02  -21.0079 26043.2 -03469.5 -07.5882 26273.3
 20 09 2013  18 03  -21.0076 26043.1 -03469.6 -07.5885 26273.2
 20 09 2013  18 04  -21.0072 26043.0 -03469.7 -07.5888 26273.2
 20 09 2013  18 05  -21.0069 26043.1 -03469.9 -07.5892 26273.3
 20 09 2013  18 06  -21.0067 26043.2 -03470.1 -07.5895 26273.4
 20 09 2013  18 07  -21.0064 26043.1 -03470.2 -07.5898 26273.2
 20 09 2013  18 08  -21.0061 26043.0 -03470.2 -07.5899 26273.1
 20 09 2013  18 09  -21.0060 26043.0 -03470.4 -07.5903 26273.2
 20 09 2013  18 10  -21.0058 26042.9 -03470.5 -07.5904 26273.1
 20 09 2013  18 11  -21.0055 26042.6 -03470.5 -07.5905 26272.8
 20 09 2013  18 12  -21.0053 26042.2 -03470.4 -07.5906 26272.4
 20 09 2013  18 13  -21.0051 26041.8 -03470.4 -07.5907 26272.0
 20 09 2013  18 14  -21.0049 26041.2 -03470.3 -07.5906 26271.5
 20 09 2013  18 15  -21.0045 26040.8 -03470.3 -07.5906 26271.1
 20 09 2013  18 16  -21.0045 26040.6 -03470.4 -07.5909 26270.8
 20 09 2013  18 17  -21.0044 26040.1 -03470.3 -07.5910 26270.3
 20 09 2013  18 18  -21.0042 26039.5 -03470.3 -07.5911 26269.8
 20 09 2013  18 19  -21.0039 26039.1 -03470.3 -07.5912 26269.4
 20 09 2013  18 20  -21.0036 26038.9 -03470.5 -07.5917 26269.2
 20 09 2013  18 21  -21.0036 26039.0 -03470.8 -07.5923 26269.3
 20 09 2013  18 22  -21.0038 26039.0 -03471.0 -07.5927 26269.3
 20 09 2013  18 23  -21.0037 26039.0 -03471.1 -07.5930 26269.3
 20 09 2013  18 24  -21.0039 26039.1 -03471.3 -07.5934 26269.5
 20 09 2013  18 25  -21.0038 26039.0 -03471.4 -07.5936 26269.4
 20 09 2013  18 26  -21.0037 26039.0 -03471.5 -07.5939 26269.4
 20 09 2013  18 27  -21.0042 26039.3 -03471.8 -07.5943 26269.7
 20 09 2013  18 28  -21.0043 26039.0 -03471.7 -07.5942 26269.4
 20 09 2013  18 29  -21.0041 26038.5 -03471.5 -07.5940 26268.9
 20 09 2013  18 30  -21.0038 26038.2 -03471.4 -07.5939 26268.5
 20 09 2013  18 31  -21.0036 26037.9 -03471.4 -07.5939 26268.3
 20 09 2013  18 32  -21.0033 26037.7 -03471.4 -07.5940 26268.1
 20 09 2013  18 33  -21.0032 26037.7 -03471.5 -07.5942 26268.1
 20 09 2013  18 34  -21.0030 26037.8 -03471.6 -07.5945 26268.2
 20 09 2013  18 35  -21.0031 26037.9 -03471.8 -07.5948 26268.4
 20 09 2013  18 36  -21.0031 26037.7 -03471.8 -07.5948 26268.2
 20 09 2013  18 37  -21.0027 26037.5 -03471.7 -07.5947 26267.9
 20 09 2013  18 38  -21.0025 26037.8 -03472.0 -07.5952 26268.2
 20 09 2013  18 39  -21.0026 26038.4 -03472.4 -07.5960 26268.9
 20 09 2013  18 40  -21.0026 26038.4 -03472.6 -07.5963 26269.0
 20 09 2013  18 41  -21.0025 26037.9 -03472.4 -07.5960 26268.4
 20 09 2013  18 42  -21.0023 26037.4 -03472.2 -07.5958 26267.8
 20 09 2013  18 43  -21.0020 26037.1 -03472.2 -07.5960 26267.6
 20 09 2013  18 44  -21.0016 26036.6 -03472.2 -07.5961 26267.1
 20 09 2013  18 45  -21.0014 26036.3 -03472.3 -07.5964 26266.8
 20 09 2013  18 46  -21.0013 26036.0 -03472.4 -07.5967 26266.5
 20 09 2013  18 47  -21.0009 26035.7 -03472.5 -07.5969 26266.2
 20 09 2013  18 48  -21.0005 26035.5 -03472.7 -07.5973 26266.1
 20 09 2013  18 49  -21.0004 26035.5 -03472.9 -07.5979 26266.2
 20 09 2013  18 50  -21.0002 26035.6 -03473.2 -07.5985 26266.3
 20 09 2013  18 51  -21.0002 26035.7 -03473.4 -07.5990 26266.4
 20 09 2013  18 52  -21.0001 26035.8 -03473.7 -07.5994 26266.5
 20 09 2013  18 53  -21.0005 26035.6 -03473.8 -07.5997 26266.4
 20 09 2013  18 54  -21.0000 26034.8 -03473.5 -07.5994 26265.5
 20 09 2013  18 55  -20.9998 26034.5 -03473.6 -07.5998 26265.2
 20 09 2013  18 56  -20.9997 26034.3 -03473.9 -07.6004 26265.1
 20 09 2013  18 57  -20.9998 26034.1 -03474.1 -07.6008 26264.9
 20 09 2013  18 58  -20.9997 26033.8 -03474.2 -07.6011 26264.6
 20 09 2013  18 59  -20.9997 26033.7 -03474.4 -07.6016 26264.5
 20 09 2013  19 00  -20.9999 26033.7 -03474.7 -07.6022 26264.6
 20 09 2013  19 01  -21.0002 26033.6 -03474.8 -07.6026 26264.5
 20 09 2013  19 02  -21.0004 26033.4 -03475.0 -07.6029 26264.3
 20 09 2013  19 03  -21.0005 26033.4 -03475.2 -07.6035 26264.3
 20 09 2013  19 04  -21.0008 26033.4 -03475.4 -07.6040 26264.4
 20 09 2013  19 05  -21.0011 26033.4 -03475.6 -07.6044 26264.4
 20 09 2013  19 06  -21.0013 26033.2 -03475.7 -07.6046 26264.2
 20 09 2013  19 07  -21.0016 26033.1 -03475.8 -07.6049 26264.1
 20 09 2013  19 08  -21.0017 26033.0 -03476.0 -07.6053 26264.0
 20 09 2013  19 09  -21.0019 26032.9 -03476.2 -07.6057 26264.0
 20 09 2013  19 10  -21.0021 26033.0 -03476.4 -07.6061 26264.1
 20 09 2013  19 11  -21.0021 26033.0 -03476.6 -07.6066 26264.1
 20 09 2013  19 12  -21.0025 26033.1 -03476.7 -07.6069 26264.2
 20 09 2013  19 13  -21.0027 26032.9 -03476.8 -07.6070 26264.1
 20 09 2013  19 14  -21.0029 26032.9 -03476.9 -07.6073 26264.1
 20 09 2013  19 15  -21.0033 26032.8 -03477.0 -07.6074 26264.0
 20 09 2013  19 16  -21.0036 26032.6 -03477.0 -07.6075 26263.8
 20 09 2013  19 17  -21.0041 26032.4 -03477.0 -07.6076 26263.6
 20 09 2013  19 18  -21.0046 26032.3 -03477.0 -07.6076 26263.5
 20 09 2013  19 19  -21.0049 26032.2 -03477.0 -07.6077 26263.4
 20 09 2013  19 20  -21.0055 26032.2 -03477.0 -07.6078 26263.4
 20 09 2013  19 21  -21.0060 26031.8 -03477.0 -07.6078 26263.0
 20 09 2013  19 22  -21.0059 26031.4 -03476.8 -07.6076 26262.6
 20 09 2013  19 23  -21.0059 26031.4 -03476.9 -07.6078 26262.5
 20 09 2013  19 24  -21.0059 26031.3 -03477.1 -07.6081 26262.5
 20 09 2013  19 25  -21.0060 26031.2 -03477.2 -07.6084 26262.5
 20 09 2013  19 26  -21.0062 26031.4 -03477.4 -07.6087 26262.6
 20 09 2013  19 27  -21.0069 26031.7 -03477.7 -07.6093 26263.0
 20 09 2013  19 28  -21.0072 26031.9 -03477.8 -07.6096 26263.2
 20 09 2013  19 29  -21.0075 26031.8 -03477.9 -07.6097 26263.1
 20 09 2013  19 30  -21.0077 26031.7 -03477.8 -07.6096 26263.0
 20 09 2013  19 31  -21.0079 26031.7 -03477.8 -07.6097 26263.0
 20 09 2013  19 32  -21.0082 26031.7 -03477.9 -07.6098 26263.0
 20 09 2013  19 33  -21.0084 26031.7 -03478.0 -07.6100 26263.0
 20 09 2013  19 34  -21.0085 26031.6 -03478.0 -07.6099 26262.9
 20 09 2013  19 35  -21.0087 26031.2 -03477.8 -07.6098 26262.5
 20 09 2013  19 36  -21.0084 26030.7 -03477.6 -07.6095 26262.0
 20 09 2013  19 37  -21.0083 26030.4 -03477.6 -07.6094 26261.7
 20 09 2013  19 38  -21.0082 26030.3 -03477.6 -07.6096 26261.6
 20 09 2013  19 39  -21.0081 26030.3 -03477.8 -07.6099 26261.6
 20 09 2013  19 40  -21.0079 26030.4 -03477.9 -07.6102 26261.7
 20 09 2013  19 41  -21.0078 26030.8 -03478.2 -07.6107 26262.1
 20 09 2013  19 42  -21.0080 26031.1 -03478.5 -07.6113 26262.5
 20 09 2013  19 43  -21.0081 26031.2 -03478.6 -07.6116 26262.6
 20 09 2013  19 44  -21.0083 26031.0 -03478.6 -07.6114 26262.4
 20 09 2013  19 45  -21.0082 26030.6 -03478.4 -07.6112 26262.0
 20 09 2013  19 46  -21.0082 26030.3 -03478.3 -07.6111 26261.7
 20 09 2013  19 47  -21.0082 26030.0 -03478.2 -07.6110 26261.3
 20 09 2013  19 48  -21.0079 26029.6 -03478.2 -07.6109 26261.0
 20 09 2013  19 49  -21.0077 26029.5 -03478.2 -07.6111 26260.9
 20 09 2013  19 50  -21.0076 26029.6 -03478.3 -07.6114 26261.0
 20 09 2013  19 51  -21.0073 26029.5 -03478.4 -07.6116 26260.9
 20 09 2013  19 52  -21.0071 26029.4 -03478.5 -07.6117 26260.8
 20 09 2013  19 53  -21.0064 26029.4 -03478.5 -07.6118 26260.8
 20 09 2013  19 54  -21.0062 26029.5 -03478.7 -07.6122 26260.9
 20 09 2013  19 55  -21.0061 26029.7 -03479.0 -07.6127 26261.2
 20 09 2013  19 56  -21.0060 26030.1 -03479.2 -07.6131 26261.6
 20 09 2013  19 57  -21.0061 26030.7 -03479.6 -07.6138 26262.2
 20 09 2013  19 58  -21.0078 26030.8 -03479.9 -07.6143 26262.4
 20 09 2013  19 59  -21.0079 26031.0 -03480.0 -07.6146 26262.6
 20 09 2013  20 00  -21.0082 26031.0 -03480.0 -07.6146 26262.6
 20 09 2013  20 01  -21.0077 26031.2 -03480.1 -07.6146 26262.8
 20 09 2013  20 02  -21.0073 26031.0 -03480.0 -07.6144 26262.6
 20 09 2013  20 03  -21.0073 26030.7 -03479.8 -07.6141 26262.3
 20 09 2013  20 04  -21.0075 26030.5 -03479.7 -07.6141 26262.1
 20 09 2013  20 05  -21.0075 26030.2 -03479.6 -07.6138 26261.8
 20 09 2013  20 06  -21.0074 26030.1 -03479.6 -07.6139 26261.7
 20 09 2013  20 07  -21.0071 26030.1 -03479.7 -07.6140 26261.7
 20 09 2013  20 08  -21.0064 26030.4 -03479.9 -07.6144 26262.0
 20 09 2013  20 09  -21.0060 26030.9 -03480.2 -07.6150 26262.5
 20 09 2013  20 10  -21.0058 26031.4 -03480.6 -07.6157 26263.1
 20 09 2013  20 11  -21.0060 26032.0 -03480.9 -07.6163 26263.7
 20 09 2013  20 12  -21.0064 26032.4 -03481.2 -07.6166 26264.1
 20 09 2013  20 13  -21.0068 26032.4 -03481.2 -07.6167 26264.1
 20 09 2013  20 14  -21.0071 26032.2 -03481.1 -07.6166 26263.9
 20 09 2013  20 15  -21.0072 26032.0 -03481.0 -07.6164 26263.7
 20 09 2013  20 16  -21.0071 26031.7 -03481.0 -07.6165 26263.4
 20 09 2013  20 17  -21.0069 26031.5 -03481.0 -07.6165 26263.2
 20 09 2013  20 18  -21.0066 26031.4 -03481.0 -07.6165 26263.1
 20 09 2013  20 19  -21.0064 26031.5 -03481.1 -07.6167 26263.2
 20 09 2013  20 20  -21.0064 26031.5 -03481.2 -07.6169 26263.2
 20 09 2013  20 21  -21.0064 26031.5 -03481.2 -07.6171 26263.2
 20 09 2013  20 22  -21.0062 26031.3 -03481.3 -07.6172 26263.0
 20 09 2013  20 23  -21.0059 26031.1 -03481.3 -07.6172 26262.9
 20 09 2013  20 24  -21.0056 26031.1 -03481.3 -07.6173 26262.8
 20 09 2013  20 25  -21.0055 26031.1 -03481.5 -07.6177 26262.9
 20 09 2013  20 26  -21.0057 26031.1 -03481.6 -07.6180 26262.9
 20 09 2013  20 27  -21.0058 26031.0 -03481.7 -07.6182 26262.9
 20 09 2013  20 28  -21.0059 26030.8 -03481.7 -07.6182 26262.7
 20 09 2013  20 29  -21.0058 26030.7 -03481.7 -07.6182 26262.5
 20 09 2013  20 30  -21.0058 26030.8 -03481.8 -07.6185 26262.6
 20 09 2013  20 31  -21.0059 26030.9 -03482.0 -07.6189 26262.8
 20 09 2013  20 32  -21.0059 26031.0 -03482.2 -07.6192 26262.9
 20 09 2013  20 33  -21.0059 26031.1 -03482.3 -07.6195 26263.0
 20 09 2013  20 34  -21.0059 26031.2 -03482.5 -07.6198 26263.1
 20 09 2013  20 35  -21.0059 26031.3 -03482.6 -07.6200 26263.2
 20 09 2013  20 36  -21.0059 26031.2 -03482.7 -07.6203 26263.2
 20 09 2013  20 37  -21.0058 26031.0 -03482.7 -07.6203 26262.9
 20 09 2013  20 38  -21.0057 26030.8 -03482.6 -07.6202 26262.7
 20 09 2013  20 39  -21.0056 26030.7 -03482.6 -07.6203 26262.6
 20 09 2013  20 40  -21.0053 26030.5 -03482.7 -07.6204 26262.5
 20 09 2013  20 41  -21.0052 26030.4 -03482.7 -07.6205 26262.4
 20 09 2013  20 42  -21.0052 26030.3 -03482.7 -07.6206 26262.2
 20 09 2013  20 43  -21.0051 26030.1 -03482.7 -07.6206 26262.0
 20 09 2013  20 44  -21.0050 26029.9 -03482.7 -07.6207 26261.9
 20 09 2013  20 45  -21.0049 26029.8 -03482.7 -07.6208 26261.8
 20 09 2013  20 46  -21.0047 26029.6 -03482.7 -07.6208 26261.6
 20 09 2013  20 47  -21.0046 26029.6 -03482.8 -07.6209 26261.5
 20 09 2013  20 48  -21.0045 26029.5 -03482.9 -07.6211 26261.4
 20 09 2013  20 49  -21.0045 26029.4 -03482.9 -07.6213 26261.3
 20 09 2013  20 50  -21.0046 26029.3 -03483.0 -07.6214 26261.3
 20 09 2013  20 51  -21.0046 26029.3 -03483.1 -07.6216 26261.3
 20 09 2013  20 52  -21.0047 26029.2 -03483.1 -07.6218 26261.2
 20 09 2013  20 53  -21.0048 26029.1 -03483.2 -07.6220 26261.1
 20 09 2013  20 54  -21.0049 26029.0 -03483.2 -07.6220 26261.0
 20 09 2013  20 55  -21.0049 26028.9 -03483.2 -07.6221 26260.9
 20 09 2013  20 56  -21.0048 26028.7 -03483.2 -07.6222 26260.8
 20 09 2013  20 57  -21.0048 26028.7 -03483.3 -07.6222 26260.7
 20 09 2013  20 58  -21.0047 26028.6 -03483.3 -07.6224 26260.6
 20 09 2013  20 59  -21.0047 26028.5 -03483.4 -07.6225 26260.5
 20 09 2013  21 00  -21.0047 26028.4 -03483.4 -07.6227 26260.5
 20 09 2013  21 01  -21.0048 26028.2 -03483.4 -07.6228 26260.2
 20 09 2013  21 02  -21.0047 26028.2 -03483.5 -07.6230 26260.2
 20 09 2013  21 03  -21.0047 26028.1 -03483.6 -07.6232 26260.1
 20 09 2013  21 04  -21.0047 26027.8 -03483.6 -07.6233 26259.9
 20 09 2013  21 05  -21.0047 26027.6 -03483.6 -07.6234 26259.7
 20 09 2013  21 06  -21.0047 26027.4 -03483.7 -07.6236 26259.5
 20 09 2013  21 07  -21.0049 26027.3 -03483.8 -07.6238 26259.4
 20 09 2013  21 08  -21.0049 26027.2 -03483.8 -07.6239 26259.3
 20 09 2013  21 09  -21.0052 26027.1 -03483.9 -07.6242 26259.2
 20 09 2013  21 10  -21.0055 26027.0 -03484.0 -07.6244 26259.2
 20 09 2013  21 11  -21.0057 26026.9 -03484.1 -07.6247 26259.1
 20 09 2013  21 12  -21.0061 26026.8 -03484.2 -07.6249 26259.0
 20 09 2013  21 13  -21.0063 26026.7 -03484.3 -07.6251 26258.9
 20 09 2013  21 14  -21.0065 26026.6 -03484.4 -07.6253 26258.8
 20 09 2013  21 15  -21.0069 26026.5 -03484.4 -07.6254 26258.7
 20 09 2013  21 16  -21.0071 26026.4 -03484.5 -07.6256 26258.6
 20 09 2013  21 17  -21.0074 26026.4 -03484.6 -07.6258 26258.6
 20 09 2013  21 18  -21.0077 26026.3 -03484.7 -07.6260 26258.6
 20 09 2013  21 19  -21.0077 26026.4 -03484.8 -07.6263 26258.7
 20 09 2013  21 20  -21.0082 26026.5 -03485.0 -07.6266 26258.8
 20 09 2013  21 21  -21.0083 26026.6 -03485.0 -07.6267 26258.9
 20 09 2013  21 22  -21.0085 26026.8 -03485.3 -07.6272 26259.2
 20 09 2013  21 23  -21.0078 26027.8 -03485.9 -07.6282 26260.2
 20 09 2013  21 24  -21.0093 26026.8 -03485.5 -07.6277 26259.1
 20 09 2013  21 25  -21.0088 26026.8 -03485.6 -07.6278 26259.2
 20 09 2013  21 26  -21.0095 26027.0 -03485.7 -07.6281 26259.4
 20 09 2013  21 27  -21.0095 26027.2 -03485.9 -07.6284 26259.6
 20 09 2013  21 28  -21.0104 26026.1 -03485.5 -07.6277 26258.5
 20 09 2013  21 29  -21.0106 26026.2 -03485.4 -07.6277 26258.5
 20 09 2013  21 30  -21.0112 26025.9 -03485.4 -07.6278 26258.2
 20 09 2013  21 31  -21.0114 26025.9 -03485.5 -07.6279 26258.3
 20 09 2013  21 32  -21.0118 26025.7 -03485.5 -07.6280 26258.1
 20 09 2013  21 33  -21.0124 26025.7 -03485.6 -07.6281 26258.1
 20 09 2013  21 34  -21.0127 26025.9 -03485.7 -07.6284 26258.3
 20 09 2013  21 35  -21.0130 26025.8 -03485.8 -07.6285 26258.2
 20 09 2013  21 36  -21.0135 26025.9 -03485.8 -07.6285 26258.3
 20 09 2013  21 37  -21.0139 26025.7 -03485.7 -07.6284 26258.1
 20 09 2013  21 38  -21.0143 26025.8 -03485.8 -07.6286 26258.2
 20 09 2013  21 39  -21.0145 26025.5 -03485.7 -07.6284 26257.9
 20 09 2013  21 40  -21.0149 26025.3 -03485.6 -07.6282 26257.7
 20 09 2013  21 41  -21.0150 26025.1 -03485.5 -07.6281 26257.5
 20 09 2013  21 42  -21.0148 26025.2 -03485.5 -07.6281 26257.6
 20 09 2013  21 43  -21.0150 26025.1 -03485.5 -07.6281 26257.5
 20 09 2013  21 44  -21.0149 26025.0 -03485.5 -07.6281 26257.4
 20 09 2013  21 45  -21.0148 26025.1 -03485.4 -07.6280 26257.4
 20 09 2013  21 46  -21.0147 26025.1 -03485.5 -07.6281 26257.5
 20 09 2013  21 47  -21.0147 26025.1 -03485.5 -07.6282 26257.5
 20 09 2013  21 48  -21.0148 26025.1 -03485.6 -07.6283 26257.5
 20 09 2013  21 49  -21.0149 26025.0 -03485.5 -07.6282 26257.4
 20 09 2013  21 50  -21.0148 26025.2 -03485.6 -07.6283 26257.5
 20 09 2013  21 51  -21.0148 26025.3 -03485.6 -07.6284 26257.7
 20 09 2013  21 52  -21.0149 26025.4 -03485.7 -07.6285 26257.8
 20 09 2013  21 53  -21.0149 26025.5 -03485.8 -07.6286 26257.9
 20 09 2013  21 54  -21.0150 26025.6 -03485.8 -07.6286 26258.0
 20 09 2013  21 55  -21.0152 26025.7 -03485.8 -07.6287 26258.1
 20 09 2013  21 56  -21.0153 26025.7 -03485.9 -07.6287 26258.1
 20 09 2013  21 57  -21.0154 26025.9 -03485.9 -07.6287 26258.3
 20 09 2013  21 58  -21.0155 26026.0 -03485.9 -07.6288 26258.5
 20 09 2013  21 59  -21.0155 26026.1 -03486.0 -07.6288 26258.6
 20 09 2013  22 00  -21.0156 26026.2 -03485.9 -07.6287 26258.6
 20 09 2013  22 01  -21.0156 26026.3 -03486.0 -07.6288 26258.7
 20 09 2013  22 02  -21.0156 26026.7 -03486.1 -07.6290 26259.1
 20 09 2013  22 03  -21.0156 26026.5 -03486.0 -07.6288 26258.9
 20 09 2013  22 04  -21.0156 26026.1 -03485.8 -07.6284 26258.5
 20 09 2013  22 05  -21.0157 26026.1 -03485.7 -07.6283 26258.5
 20 09 2013  22 06  -21.0157 26026.3 -03485.7 -07.6283 26258.7
 20 09 2013  22 07  -21.0157 26026.4 -03485.9 -07.6285 26258.8
 20 09 2013  22 08  -21.0157 26026.5 -03485.9 -07.6285 26258.9
 20 09 2013  22 09  -21.0156 26026.9 -03486.0 -07.6288 26259.3
 20 09 2013  22 10  -21.0156 26027.2 -03486.3 -07.6292 26259.6
 20 09 2013  22 11  -21.0157 26026.9 -03486.1 -07.6289 26259.3
 20 09 2013  22 12  -21.0158 26026.6 -03485.9 -07.6286 26259.0
 20 09 2013  22 13  -21.0158 26026.4 -03485.8 -07.6285 26258.8
 20 09 2013  22 14  -21.0156 26026.5 -03485.8 -07.6285 26258.9
 20 09 2013  22 15  -21.0154 26026.7 -03486.0 -07.6287 26259.1
 20 09 2013  22 16  -21.0153 26026.6 -03486.0 -07.6287 26259.1
 20 09 2013  22 17  -21.0154 26026.3 -03485.9 -07.6286 26258.7
 20 09 2013  22 18  -21.0153 26026.5 -03485.9 -07.6287 26258.9
 20 09 2013  22 19  -21.0152 26026.4 -03486.0 -07.6288 26258.8
 20 09 2013  22 20  -21.0151 26026.2 -03485.9 -07.6286 26258.6
 20 09 2013  22 21  -21.0150 26026.1 -03485.8 -07.6286 26258.5
 20 09 2013  22 22  -21.0149 26026.0 -03485.9 -07.6286 26258.4
 20 09 2013  22 23  -21.0148 26026.0 -03485.8 -07.6286 26258.4
 20 09 2013  22 24  -21.0148 26026.2 -03486.0 -07.6288 26258.6
 20 09 2013  22 25  -21.0147 26026.4 -03486.1 -07.6291 26258.8
 20 09 2013  22 26  -21.0147 26026.5 -03486.2 -07.6293 26259.0
 20 09 2013  22 27  -21.0146 26026.7 -03486.3 -07.6293 26259.2
 20 09 2013  22 28  -21.0146 26026.8 -03486.3 -07.6295 26259.2
 20 09 2013  22 29  -21.0145 26026.9 -03486.4 -07.6295 26259.3
 20 09 2013  22 30  -21.0144 26027.0 -03486.4 -07.6296 26259.4
 20 09 2013  22 31  -21.0144 26026.8 -03486.4 -07.6295 26259.2
 20 09 2013  22 32  -21.0144 26026.7 -03486.3 -07.6294 26259.1
 20 09 2013  22 33  -21.0145 26026.3 -03486.2 -07.6293 26258.8
 20 09 2013  22 34  -21.0146 26026.1 -03486.1 -07.6291 26258.6
 20 09 2013  22 35  -21.0146 26026.1 -03486.0 -07.6290 26258.5
 20 09 2013  22 36  -21.0145 26026.0 -03486.0 -07.6290 26258.4
 20 09 2013  22 37  -21.0145 26025.8 -03485.9 -07.6289 26258.2
 20 09 2013  22 38  -21.0145 26025.7 -03485.9 -07.6288 26258.1
 20 09 2013  22 39  -21.0145 26025.5 -03485.8 -07.6287 26257.9
 20 09 2013  22 40  -21.0145 26025.4 -03485.7 -07.6286 26257.8
 20 09 2013  22 41  -21.0144 26025.3 -03485.7 -07.6286 26257.7
 20 09 2013  22 42  -21.0143 26025.1 -03485.6 -07.6284 26257.5
 20 09 2013  22 43  -21.0143 26024.9 -03485.6 -07.6284 26257.3
 20 09 2013  22 44  -21.0143 26024.9 -03485.6 -07.6284 26257.2
 20 09 2013  22 45  -21.0142 26024.9 -03485.6 -07.6285 26257.3
 20 09 2013  22 46  -21.0140 26024.8 -03485.6 -07.6285 26257.2
 20 09 2013  22 47  -21.0138 26024.8 -03485.7 -07.6285 26257.2
 20 09 2013  22 48  -21.0138 26024.9 -03485.7 -07.6287 26257.3
 20 09 2013  22 49  -21.0137 26024.9 -03485.7 -07.6287 26257.3
 20 09 2013  22 50  -21.0138 26024.7 -03485.7 -07.6287 26257.1
 20 09 2013  22 51  -21.0139 26024.8 -03485.7 -07.6287 26257.2
 20 09 2013  22 52  -21.0141 26024.7 -03485.7 -07.6287 26257.1
 20 09 2013  22 53  -21.0142 26024.8 -03485.7 -07.6287 26257.2
 20 09 2013  22 54  -21.0143 26024.7 -03485.7 -07.6287 26257.1
 20 09 2013  22 55  -21.0143 26024.6 -03485.7 -07.6286 26257.0
 20 09 2013  22 56  -21.0142 26024.5 -03485.6 -07.6285 26256.9
 20 09 2013  22 57  -21.0142 26024.3 -03485.5 -07.6283 26256.7
 20 09 2013  22 58  -21.0140 26024.2 -03485.5 -07.6283 26256.6
 20 09 2013  22 59  -21.0140 26024.3 -03485.5 -07.6283 26256.6
 20 09 2013  23 00  -21.0137 26024.3 -03485.5 -07.6284 26256.6
 20 09 2013  23 01  -21.0135 26024.3 -03485.5 -07.6284 26256.7
 20 09 2013  23 02  -21.0133 26024.4 -03485.6 -07.6284 26256.8
 20 09 2013  23 03  -21.0132 26024.5 -03485.6 -07.6286 26256.9
 20 09 2013  23 04  -21.0132 26024.6 -03485.7 -07.6288 26257.0
 20 09 2013  23 05  -21.0132 26024.7 -03485.8 -07.6289 26257.1
 20 09 2013  23 06  -21.0131 26024.8 -03485.8 -07.6290 26257.2
 20 09 2013  23 07  -21.0131 26024.8 -03485.9 -07.6290 26257.2
 20 09 2013  23 08  -21.0133 26024.5 -03485.8 -07.6288 26256.9
 20 09 2013  23 09  -21.0133 26024.3 -03485.6 -07.6287 26256.7
 20 09 2013  23 10  -21.0133 26024.2 -03485.5 -07.6285 26256.5
 20 09 2013  23 11  -21.0132 26024.1 -03485.5 -07.6284 26256.5
 20 09 2013  23 12  -21.0131 26024.2 -03485.6 -07.6286 26256.6
 20 09 2013  23 13  -21.0127 26024.4 -03485.7 -07.6287 26256.8
 20 09 2013  23 14  -21.0125 26024.6 -03485.8 -07.6289 26257.0
 20 09 2013  23 15  -21.0122 26024.9 -03485.9 -07.6291 26257.3
 20 09 2013  23 16  -21.0119 26025.1 -03486.1 -07.6293 26257.6
 20 09 2013  23 17  -21.0117 26025.3 -03486.2 -07.6295 26257.8
 20 09 2013  23 18  -21.0114 26025.5 -03486.3 -07.6297 26258.0
 20 09 2013  23 19  -21.0111 26025.7 -03486.3 -07.6298 26258.1
 20 09 2013  23 20  -21.0108 26025.7 -03486.4 -07.6298 26258.2
 20 09 2013  23 21  -21.0105 26026.0 -03486.5 -07.6299 26258.4
 20 09 2013  23 22  -21.0104 26026.0 -03486.5 -07.6300 26258.5
 20 09 2013  23 23  -21.0102 26026.0 -03486.5 -07.6300 26258.5
 20 09 2013  23 24  -21.0101 26026.0 -03486.5 -07.6300 26258.5
 20 09 2013  23 25  -21.0100 26025.9 -03486.5 -07.6299 26258.4
 20 09 2013  23 26  -21.0099 26025.9 -03486.4 -07.6299 26258.4
 20 09 2013  23 27  -21.0099 26025.9 -03486.4 -07.6299 26258.4
 20 09 2013  23 28  -21.0099 26025.9 -03486.4 -07.6299 26258.3
 20 09 2013  23 29  -21.0098 26026.0 -03486.4 -07.6299 26258.4
 20 09 2013  23 30  -21.0098 26026.1 -03486.5 -07.6300 26258.6
 20 09 2013  23 31  -21.0098 26025.9 -03486.4 -07.6299 26258.4
 20 09 2013  23 32  -21.0099 26025.7 -03486.3 -07.6297 26258.1
 20 09 2013  23 33  -21.0100 26025.5 -03486.2 -07.6295 26257.9
 20 09 2013  23 34  -21.0100 26025.4 -03486.1 -07.6294 26257.8
 20 09 2013  23 35  -21.0100 26025.4 -03486.2 -07.6295 26257.8
 20 09 2013  23 36  -21.0099 26025.5 -03486.2 -07.6296 26258.0
 20 09 2013  23 37  -21.0098 26025.7 -03486.4 -07.6298 26258.2
 20 09 2013  23 38  -21.0095 26026.0 -03486.5 -07.6300 26258.5
 20 09 2013  23 39  -21.0093 26026.3 -03486.7 -07.6303 26258.8
 20 09 2013  23 40  -21.0092 26026.5 -03486.8 -07.6305 26259.1
 20 09 2013  23 41  -21.0091 26026.7 -03486.9 -07.6307 26259.2
 20 09 2013  23 42  -21.0089 26026.9 -03487.0 -07.6308 26259.4
 20 09 2013  23 43  -21.0088 26026.9 -03486.9 -07.6307 26259.4
 20 09 2013  23 44  -21.0088 26026.7 -03486.9 -07.6306 26259.2
 20 09 2013  23 45  -21.0089 26026.5 -03486.7 -07.6303 26259.0
 20 09 2013  23 46  -21.0090 26026.2 -03486.6 -07.6301 26258.7
 20 09 2013  23 47  -21.0090 26025.9 -03486.4 -07.6299 26258.4
 20 09 2013  23 48  -21.0091 26025.7 -03486.3 -07.6297 26258.1
 20 09 2013  23 49  -21.0090 26025.5 -03486.2 -07.6296 26257.9
 20 09 2013  23 50  -21.0089 26025.4 -03486.2 -07.6296 26257.8
 20 09 2013  23 51  -21.0088 26025.3 -03486.2 -07.6296 26257.8
 20 09 2013  23 52  -21.0087 26025.4 -03486.3 -07.6297 26257.8
 20 09 2013  23 53  -21.0087 26025.4 -03486.3 -07.6299 26257.9
 20 09 2013  23 54  -21.0086 26025.5 -03486.4 -07.6300 26257.9
 20 09 2013  23 55  -21.0084 26025.6 -03486.5 -07.6301 26258.0
 20 09 2013  23 56  -21.0083 26025.7 -03486.6 -07.6303 26258.2
 20 09 2013  23 57  -21.0081 26025.9 -03486.7 -07.6305 26258.4
