SAO LUIS EMBRACE-03 <180> 1 Min. Reported data

 DD MM YYYY  HH MM   D(Deg)  H(nT)   Z(nT)   I(Deg)   F(nT)

 29 06 2013  00 00  -21.1043 25930.5 -03449.6 -07.5777 26159.0
 29 06 2013  00 01  -21.1053 25930.2 -03449.6 -07.5777 26158.7
 29 06 2013  00 02  -21.1062 25929.8 -03449.5 -07.5776 26158.2
 29 06 2013  00 03  -21.1070 25929.5 -03449.4 -07.5775 26157.9
 29 06 2013  00 04  -21.1078 25929.2 -03449.3 -07.5774 26157.6
 29 06 2013  00 05  -21.1083 25929.3 -03449.4 -07.5775 26157.7
 29 06 2013  00 06  -21.1089 25929.7 -03449.6 -07.5779 26158.1
 29 06 2013  00 07  -21.1097 25930.0 -03449.8 -07.5783 26158.5
 29 06 2013  00 08  -21.1104 25930.5 -03450.1 -07.5787 26159.0
 29 06 2013  00 09  -21.1111 25930.8 -03450.2 -07.5790 26159.4
 29 06 2013  00 10  -21.1116 25931.2 -03450.4 -07.5792 26159.7
 29 06 2013  00 11  -21.1115 25931.5 -03450.4 -07.5792 26160.0
 29 06 2013  00 12  -21.1111 25931.7 -03450.4 -07.5792 26160.2
 29 06 2013  00 13  -21.1107 25931.7 -03450.4 -07.5791 26160.3
 29 06 2013  00 14  -21.1098 25931.5 -03450.2 -07.5788 26160.0
 29 06 2013  00 15  -21.1092 25931.3 -03450.1 -07.5785 26159.8
 29 06 2013  00 16  -21.1090 25931.1 -03450.0 -07.5783 26159.6
 29 06 2013  00 17  -21.1088 25930.9 -03449.9 -07.5782 26159.3
 29 06 2013  00 18  -21.1085 25930.5 -03449.7 -07.5779 26158.9
 29 06 2013  00 19  -21.1086 25930.2 -03449.6 -07.5778 26158.7
 29 06 2013  00 20  -21.1085 25929.8 -03449.4 -07.5775 26158.2
 29 06 2013  00 21  -21.1079 25929.2 -03449.2 -07.5771 26157.6
 29 06 2013  00 22  -21.1073 25928.9 -03449.0 -07.5769 26157.3
 29 06 2013  00 23  -21.1073 25928.8 -03449.0 -07.5770 26157.2
 29 06 2013  00 24  -21.1073 25928.7 -03449.1 -07.5772 26157.1
 29 06 2013  00 25  -21.1072 25928.6 -03449.2 -07.5773 26157.0
 29 06 2013  00 26  -21.1070 25928.5 -03449.2 -07.5774 26157.0
 29 06 2013  00 27  -21.1069 25928.4 -03449.2 -07.5775 26156.9
 29 06 2013  00 28  -21.1071 25928.5 -03449.3 -07.5777 26156.9
 29 06 2013  00 29  -21.1077 25928.3 -03449.3 -07.5778 26156.7
 29 06 2013  00 30  -21.1087 25928.0 -03449.3 -07.5778 26156.5
 29 06 2013  00 31  -21.1094 25927.7 -03449.2 -07.5777 26156.1
 29 06 2013  00 32  -21.1099 25927.3 -03449.1 -07.5775 26155.8
 29 06 2013  00 33  -21.1105 25927.0 -03449.0 -07.5774 26155.4
 29 06 2013  00 34  -21.1109 25926.8 -03448.9 -07.5773 26155.2
 29 06 2013  00 35  -21.1115 25926.5 -03448.9 -07.5773 26154.9
 29 06 2013  00 36  -21.1126 25926.6 -03449.0 -07.5775 26155.0
 29 06 2013  00 37  -21.1141 25926.6 -03449.1 -07.5778 26155.0
 29 06 2013  00 38  -21.1151 25926.4 -03449.1 -07.5778 26154.9
 29 06 2013  00 39  -21.1162 25925.9 -03448.9 -07.5775 26154.3
 29 06 2013  00 40  -21.1166 25925.7 -03448.7 -07.5772 26154.1
 29 06 2013  00 41  -21.1164 25925.4 -03448.6 -07.5769 26153.8
 29 06 2013  00 42  -21.1159 25925.0 -03448.4 -07.5766 26153.4
 29 06 2013  00 43  -21.1154 25924.6 -03448.1 -07.5762 26152.9
 29 06 2013  00 44  -21.1144 25924.4 -03448.1 -07.5761 26152.7
 29 06 2013  00 45  -21.1129 25924.8 -03448.2 -07.5764 26153.1
 29 06 2013  00 46  -21.1118 25925.2 -03448.5 -07.5769 26153.6
 29 06 2013  00 47  -21.1110 25925.1 -03448.6 -07.5771 26153.5
 29 06 2013  00 48  -21.1103 25925.0 -03448.6 -07.5772 26153.3
 29 06 2013  00 49  -21.1099 25924.7 -03448.6 -07.5772 26153.1
 29 06 2013  00 50  -21.1095 25924.6 -03448.6 -07.5773 26153.0
 29 06 2013  00 51  -21.1089 25924.4 -03448.6 -07.5773 26152.8
 29 06 2013  00 52  -21.1083 25924.4 -03448.7 -07.5774 26152.7
 29 06 2013  00 53  -21.1071 25924.5 -03448.8 -07.5778 26152.9
 29 06 2013  00 54  -21.1060 25924.8 -03449.1 -07.5782 26153.3
 29 06 2013  00 55  -21.1054 25925.3 -03449.4 -07.5788 26153.7
 29 06 2013  00 56  -21.1051 25925.7 -03449.8 -07.5794 26154.3
 29 06 2013  00 57  -21.1058 25926.1 -03450.1 -07.5801 26154.7
 29 06 2013  00 58  -21.1069 25926.4 -03450.4 -07.5805 26155.0
 29 06 2013  00 59  -21.1080 25926.3 -03450.4 -07.5807 26154.9
 29 06 2013  01 00  -21.1088 25926.5 -03450.5 -07.5808 26155.1
 29 06 2013  01 01  -21.1093 25926.6 -03450.5 -07.5808 26155.2
 29 06 2013  01 02  -21.1099 25926.6 -03450.5 -07.5808 26155.2
 29 06 2013  01 03  -21.1105 25926.5 -03450.4 -07.5807 26155.0
 29 06 2013  01 04  -21.1104 25926.2 -03450.2 -07.5803 26154.7
 29 06 2013  01 05  -21.1100 25925.7 -03449.9 -07.5798 26154.3
 29 06 2013  01 06  -21.1092 25925.4 -03449.7 -07.5794 26153.9
 29 06 2013  01 07  -21.1088 25925.2 -03449.6 -07.5793 26153.7
 29 06 2013  01 08  -21.1084 25924.9 -03449.5 -07.5792 26153.4
 29 06 2013  01 09  -21.1085 25924.5 -03449.4 -07.5790 26153.0
 29 06 2013  01 10  -21.1087 25924.0 -03449.3 -07.5789 26152.5
 29 06 2013  01 11  -21.1086 25923.7 -03449.1 -07.5786 26152.1
 29 06 2013  01 12  -21.1088 25923.7 -03449.2 -07.5788 26152.1
 29 06 2013  01 13  -21.1088 25923.9 -03449.4 -07.5791 26152.4
 29 06 2013  01 14  -21.1088 25924.5 -03449.8 -07.5798 26153.0
 29 06 2013  01 15  -21.1089 25925.1 -03450.2 -07.5806 26153.7
 29 06 2013  01 16  -21.1088 25925.1 -03450.3 -07.5807 26153.7
 29 06 2013  01 17  -21.1085 25924.8 -03450.2 -07.5805 26153.4
 29 06 2013  01 18  -21.1090 25924.7 -03450.2 -07.5806 26153.3
 29 06 2013  01 19  -21.1098 25925.3 -03450.5 -07.5812 26153.9
 29 06 2013  01 20  -21.1103 25926.0 -03450.9 -07.5818 26154.7
 29 06 2013  01 21  -21.1110 25927.2 -03451.5 -07.5827 26155.9
 29 06 2013  01 22  -21.1108 25928.3 -03452.0 -07.5835 26157.1
 29 06 2013  01 23  -21.1109 25929.4 -03452.5 -07.5842 26158.2
 29 06 2013  01 24  -21.1109 25930.1 -03452.7 -07.5846 26159.0
 29 06 2013  01 25  -21.1106 25931.0 -03453.0 -07.5849 26159.8
 29 06 2013  01 26  -21.1108 25932.0 -03453.4 -07.5855 26161.0
 29 06 2013  01 27  -21.1116 25933.2 -03453.9 -07.5862 26162.2
 29 06 2013  01 28  -21.1120 25933.8 -03454.1 -07.5866 26162.8
 29 06 2013  01 29  -21.1117 25934.0 -03454.1 -07.5863 26163.0
 29 06 2013  01 30  -21.1109 25934.2 -03453.8 -07.5858 26163.1
 29 06 2013  01 31  -21.1098 25934.4 -03453.7 -07.5855 26163.4
 29 06 2013  01 32  -21.1091 25934.8 -03453.8 -07.5855 26163.8
 29 06 2013  01 33  -21.1089 25935.2 -03453.8 -07.5855 26164.2
 29 06 2013  01 34  -21.1091 25935.6 -03454.0 -07.5858 26164.5
 29 06 2013  01 35  -21.1101 25935.7 -03454.1 -07.5859 26164.7
 29 06 2013  01 36  -21.1122 25936.0 -03454.2 -07.5860 26165.0
 29 06 2013  01 37  -21.1147 25936.4 -03454.4 -07.5863 26165.4
 29 06 2013  01 38  -21.1166 25937.0 -03454.5 -07.5864 26166.0
 29 06 2013  01 39  -21.1184 25937.2 -03454.4 -07.5862 26166.2
 29 06 2013  01 40  -21.1201 25937.8 -03454.5 -07.5863 26166.8
 29 06 2013  01 41  -21.1223 25938.1 -03454.5 -07.5862 26167.1
 29 06 2013  01 42  -21.1238 25938.5 -03454.5 -07.5860 26167.5
 29 06 2013  01 43  -21.1244 25938.8 -03454.3 -07.5855 26167.8
 29 06 2013  01 44  -21.1248 25939.2 -03454.2 -07.5852 26168.2
 29 06 2013  01 45  -21.1247 25939.4 -03454.0 -07.5847 26168.3
 29 06 2013  01 46  -21.1239 25939.3 -03453.7 -07.5840 26168.2
 29 06 2013  01 47  -21.1221 25938.8 -03453.2 -07.5830 26167.7
 29 06 2013  01 48  -21.1201 25938.2 -03452.6 -07.5820 26167.0
 29 06 2013  01 49  -21.1185 25937.6 -03452.1 -07.5812 26166.3
 29 06 2013  01 50  -21.1168 25937.0 -03451.8 -07.5806 26165.6
 29 06 2013  01 51  -21.1147 25936.2 -03451.4 -07.5800 26164.8
 29 06 2013  01 52  -21.1130 25935.2 -03450.9 -07.5793 26163.8
 29 06 2013  01 53  -21.1120 25934.3 -03450.6 -07.5789 26162.9
 29 06 2013  01 54  -21.1112 25933.6 -03450.5 -07.5787 26162.2
 29 06 2013  01 55  -21.1106 25933.0 -03450.4 -07.5787 26161.5
 29 06 2013  01 56  -21.1105 25932.6 -03450.4 -07.5789 26161.1
 29 06 2013  01 57  -21.1103 25932.3 -03450.5 -07.5790 26160.8
 29 06 2013  01 58  -21.1102 25932.1 -03450.5 -07.5792 26160.6
 29 06 2013  01 59  -21.1099 25932.0 -03450.7 -07.5796 26160.5
 29 06 2013  02 00  -21.1095 25931.8 -03450.7 -07.5798 26160.4
 29 06 2013  02 01  -21.1091 25931.7 -03450.8 -07.5800 26160.3
 29 06 2013  02 02  -21.1088 25931.6 -03450.9 -07.5801 26160.2
 29 06 2013  02 03  -21.1085 25931.7 -03451.0 -07.5804 26160.3
 29 06 2013  02 04  -21.1085 25931.8 -03451.2 -07.5807 26160.4
 29 06 2013  02 05  -21.1087 25931.8 -03451.4 -07.5811 26160.5
 29 06 2013  02 06  -21.1089 25931.6 -03451.4 -07.5813 26160.3
 29 06 2013  02 07  -21.1092 25931.4 -03451.4 -07.5812 26160.1
 29 06 2013  02 08  -21.1102 25931.5 -03451.5 -07.5815 26160.1
 29 06 2013  02 09  -21.1122 25931.6 -03451.7 -07.5819 26160.3
 29 06 2013  02 10  -21.1146 25931.9 -03452.0 -07.5824 26160.7
 29 06 2013  02 11  -21.1165 25932.0 -03452.0 -07.5826 26160.7
 29 06 2013  02 12  -21.1175 25931.9 -03451.9 -07.5823 26160.7
 29 06 2013  02 13  -21.1179 25932.0 -03451.8 -07.5821 26160.7
 29 06 2013  02 14  -21.1175 25932.4 -03451.9 -07.5821 26161.1
 29 06 2013  02 15  -21.1171 25933.2 -03452.2 -07.5825 26161.9
 29 06 2013  02 16  -21.1161 25934.2 -03452.6 -07.5832 26163.1
 29 06 2013  02 17  -21.1153 25935.8 -03453.3 -07.5841 26164.7
 29 06 2013  02 18  -21.1145 25938.7 -03454.7 -07.5864 26167.8
 29 06 2013  02 19  -21.1146 25941.4 -03456.1 -07.5886 26170.6
 29 06 2013  02 20  -21.1156 25943.9 -03457.4 -07.5907 26173.2
 29 06 2013  02 21  -21.1173 25946.1 -03458.4 -07.5923 26175.6
 29 06 2013  02 22  -21.1180 25948.2 -03459.2 -07.5933 26177.7
 29 06 2013  02 23  -21.1183 25950.4 -03459.9 -07.5943 26180.0
 29 06 2013  02 24  -21.1190 25952.4 -03460.6 -07.5952 26182.1
 29 06 2013  02 25  -21.1198 25955.3 -03461.5 -07.5964 26185.1
 29 06 2013  02 26  -21.1199 25958.3 -03462.6 -07.5979 26188.2
 29 06 2013  02 27  -21.1199 25961.5 -03463.7 -07.5994 26191.5
 29 06 2013  02 28  -21.1195 25963.7 -03464.3 -07.6000 26193.8
 29 06 2013  02 29  -21.1189 25966.5 -03465.0 -07.6008 26196.6
 29 06 2013  02 30  -21.1185 25970.0 -03466.1 -07.6022 26200.3
 29 06 2013  02 31  -21.1183 25973.9 -03467.5 -07.6040 26204.3
 29 06 2013  02 32  -21.1193 25976.5 -03468.3 -07.6050 26207.0
 29 06 2013  02 33  -21.1203 25978.9 -03468.8 -07.6054 26209.5
 29 06 2013  02 34  -21.1219 25980.2 -03468.8 -07.6049 26210.8
 29 06 2013  02 35  -21.1234 25981.3 -03468.5 -07.6040 26211.8
 29 06 2013  02 36  -21.1245 25982.4 -03468.2 -07.6031 26212.8
 29 06 2013  02 37  -21.1256 25983.0 -03467.8 -07.6019 26213.4
 29 06 2013  02 38  -21.1264 25983.0 -03467.0 -07.6002 26213.3
 29 06 2013  02 39  -21.1254 25982.8 -03466.1 -07.5983 26213.0
 29 06 2013  02 40  -21.1233 25982.8 -03465.2 -07.5965 26212.8
 29 06 2013  02 41  -21.1206 25982.9 -03464.6 -07.5952 26212.9
 29 06 2013  02 42  -21.1177 25982.9 -03464.1 -07.5939 26212.8
 29 06 2013  02 43  -21.1152 25983.6 -03463.9 -07.5935 26213.5
 29 06 2013  02 44  -21.1128 25983.8 -03463.7 -07.5929 26213.7
 29 06 2013  02 45  -21.1095 25984.1 -03463.4 -07.5922 26214.0
 29 06 2013  02 46  -21.1062 25984.0 -03463.1 -07.5916 26213.8
 29 06 2013  02 47  -21.1036 25984.1 -03462.9 -07.5910 26213.8
 29 06 2013  02 48  -21.1019 25984.0 -03462.8 -07.5908 26213.7
 29 06 2013  02 49  -21.1008 25983.6 -03462.5 -07.5903 26213.3
 29 06 2013  02 50  -21.1002 25983.0 -03462.2 -07.5898 26212.7
 29 06 2013  02 51  -21.0996 25982.6 -03461.8 -07.5892 26212.2
 29 06 2013  02 52  -21.0997 25982.5 -03461.7 -07.5890 26212.1
 29 06 2013  02 53  -21.0999 25982.5 -03461.7 -07.5889 26212.1
 29 06 2013  02 54  -21.0995 25983.9 -03462.3 -07.5898 26213.5
 29 06 2013  02 55  -21.1004 25984.6 -03462.7 -07.5905 26214.3
 29 06 2013  02 56  -21.1014 25985.2 -03463.0 -07.5909 26214.9
 29 06 2013  02 57  -21.1014 25985.5 -03463.0 -07.5909 26215.2
 29 06 2013  02 58  -21.1011 25985.7 -03462.9 -07.5906 26215.4
 29 06 2013  02 59  -21.1009 25985.2 -03462.5 -07.5899 26214.9
 29 06 2013  03 00  -21.1004 25984.7 -03462.0 -07.5890 26214.3
 29 06 2013  03 01  -21.0997 25984.0 -03461.5 -07.5881 26213.6
 29 06 2013  03 02  -21.0997 25983.3 -03461.1 -07.5874 26212.8
 29 06 2013  03 03  -21.0994 25982.3 -03460.5 -07.5864 26211.7
 29 06 2013  03 04  -21.1001 25981.1 -03459.9 -07.5855 26210.4
 29 06 2013  03 05  -21.1008 25979.8 -03459.3 -07.5845 26209.1
 29 06 2013  03 06  -21.1019 25978.7 -03458.7 -07.5836 26207.9
 29 06 2013  03 07  -21.1034 25977.7 -03458.3 -07.5830 26206.9
 29 06 2013  03 08  -21.1048 25976.7 -03457.9 -07.5824 26205.8
 29 06 2013  03 09  -21.1066 25975.7 -03457.5 -07.5818 26204.8
 29 06 2013  03 10  -21.1081 25974.6 -03457.1 -07.5811 26203.6
 29 06 2013  03 11  -21.1094 25973.2 -03456.4 -07.5802 26202.2
 29 06 2013  03 12  -21.1106 25972.1 -03455.9 -07.5794 26201.0
 29 06 2013  03 13  -21.1117 25971.1 -03455.5 -07.5788 26200.0
 29 06 2013  03 14  -21.1130 25970.3 -03455.2 -07.5784 26199.1
 29 06 2013  03 15  -21.1145 25969.5 -03455.0 -07.5781 26198.3
 29 06 2013  03 16  -21.1162 25968.7 -03454.7 -07.5777 26197.5
 29 06 2013  03 17  -21.1173 25967.8 -03454.3 -07.5772 26196.5
 29 06 2013  03 18  -21.1181 25967.0 -03454.0 -07.5767 26195.7
 29 06 2013  03 19  -21.1188 25966.3 -03453.8 -07.5764 26195.0
 29 06 2013  03 20  -21.1186 25965.6 -03453.5 -07.5760 26194.3
 29 06 2013  03 21  -21.1181 25965.0 -03453.2 -07.5757 26193.6
 29 06 2013  03 22  -21.1177 25964.3 -03453.0 -07.5753 26192.9
 29 06 2013  03 23  -21.1170 25963.6 -03452.8 -07.5751 26192.2
 29 06 2013  03 24  -21.1164 25963.0 -03452.6 -07.5749 26191.6
 29 06 2013  03 25  -21.1155 25962.4 -03452.5 -07.5748 26191.0
 29 06 2013  03 26  -21.1151 25961.9 -03452.4 -07.5747 26190.4
 29 06 2013  03 27  -21.1149 25961.4 -03452.3 -07.5747 26190.0
 29 06 2013  03 28  -21.1149 25961.0 -03452.3 -07.5747 26189.6
 29 06 2013  03 29  -21.1151 25960.8 -03452.4 -07.5750 26189.3
 29 06 2013  03 30  -21.1152 25960.6 -03452.5 -07.5752 26189.2
 29 06 2013  03 31  -21.1155 25960.5 -03452.6 -07.5755 26189.1
 29 06 2013  03 32  -21.1157 25960.4 -03452.7 -07.5757 26189.0
 29 06 2013  03 33  -21.1160 25960.2 -03452.7 -07.5758 26188.8
 29 06 2013  03 34  -21.1160 25960.0 -03452.7 -07.5759 26188.6
 29 06 2013  03 35  -21.1153 25959.8 -03452.6 -07.5757 26188.4
 29 06 2013  03 36  -21.1148 25959.5 -03452.5 -07.5756 26188.1
 29 06 2013  03 37  -21.1149 25959.6 -03452.6 -07.5758 26188.1
 29 06 2013  03 38  -21.1152 25959.7 -03452.8 -07.5762 26188.3
 29 06 2013  03 39  -21.1155 25959.9 -03453.0 -07.5767 26188.5
 29 06 2013  03 40  -21.1160 25960.3 -03453.3 -07.5772 26189.0
 29 06 2013  03 41  -21.1167 25960.8 -03453.7 -07.5777 26189.5
 29 06 2013  03 42  -21.1173 25961.4 -03454.0 -07.5783 26190.1
 29 06 2013  03 43  -21.1171 25961.7 -03454.1 -07.5784 26190.5
 29 06 2013  03 44  -21.1168 25962.1 -03454.2 -07.5786 26190.9
 29 06 2013  03 45  -21.1167 25962.6 -03454.4 -07.5788 26191.4
 29 06 2013  03 46  -21.1167 25963.1 -03454.6 -07.5790 26191.9
 29 06 2013  03 47  -21.1166 25963.5 -03454.7 -07.5792 26192.3
 29 06 2013  03 48  -21.1170 25963.9 -03454.9 -07.5794 26192.8
 29 06 2013  03 49  -21.1179 25964.6 -03455.1 -07.5798 26193.5
 29 06 2013  03 50  -21.1187 25965.3 -03455.4 -07.5802 26194.2
 29 06 2013  03 51  -21.1197 25965.8 -03455.5 -07.5804 26194.8
 29 06 2013  03 52  -21.1206 25966.1 -03455.6 -07.5803 26195.0
 29 06 2013  03 53  -21.1211 25966.0 -03455.3 -07.5799 26194.9
 29 06 2013  03 54  -21.1216 25966.1 -03455.2 -07.5795 26195.0
 29 06 2013  03 55  -21.1224 25966.1 -03455.0 -07.5792 26194.9
 29 06 2013  03 56  -21.1230 25966.4 -03455.0 -07.5790 26195.2
 29 06 2013  03 57  -21.1234 25966.6 -03455.0 -07.5789 26195.5
 29 06 2013  03 58  -21.1231 25966.8 -03454.8 -07.5786 26195.6
 29 06 2013  03 59  -21.1227 25966.8 -03454.6 -07.5782 26195.6
 29 06 2013  04 00  -21.1228 25966.7 -03454.5 -07.5779 26195.4
 29 06 2013  04 01  -21.1229 25966.6 -03454.4 -07.5776 26195.4
 29 06 2013  04 02  -21.1231 25966.4 -03454.2 -07.5773 26195.1
 29 06 2013  04 03  -21.1234 25966.4 -03454.1 -07.5770 26195.1
 29 06 2013  04 04  -21.1236 25966.1 -03453.9 -07.5767 26194.8
 29 06 2013  04 05  -21.1233 25965.8 -03453.6 -07.5762 26194.5
 29 06 2013  04 06  -21.1232 25965.6 -03453.4 -07.5758 26194.2
 29 06 2013  04 07  -21.1234 25965.2 -03453.2 -07.5755 26193.8
 29 06 2013  04 08  -21.1236 25964.8 -03453.0 -07.5752 26193.4
 29 06 2013  04 09  -21.1239 25964.4 -03452.8 -07.5748 26193.0
 29 06 2013  04 10  -21.1243 25963.9 -03452.5 -07.5745 26192.4
 29 06 2013  04 11  -21.1247 25963.5 -03452.4 -07.5742 26192.1
 29 06 2013  04 12  -21.1250 25963.3 -03452.2 -07.5740 26191.8
 29 06 2013  04 13  -21.1245 25963.3 -03452.2 -07.5739 26191.8
 29 06 2013  04 14  -21.1241 25963.5 -03452.3 -07.5741 26192.0
 29 06 2013  04 15  -21.1239 25964.1 -03452.6 -07.5745 26192.7
 29 06 2013  04 16  -21.1240 25964.8 -03453.0 -07.5752 26193.4
 29 06 2013  04 17  -21.1244 25965.8 -03453.5 -07.5760 26194.4
 29 06 2013  04 18  -21.1253 25966.9 -03454.1 -07.5770 26195.6
 29 06 2013  04 19  -21.1268 25967.8 -03454.5 -07.5777 26196.5
 29 06 2013  04 20  -21.1281 25968.1 -03454.7 -07.5778 26196.9
 29 06 2013  04 21  -21.1286 25968.3 -03454.5 -07.5774 26197.0
 29 06 2013  04 22  -21.1281 25968.1 -03454.2 -07.5768 26196.8
 29 06 2013  04 23  -21.1271 25967.8 -03453.8 -07.5761 26196.5
 29 06 2013  04 24  -21.1260 25967.6 -03453.5 -07.5755 26196.2
 29 06 2013  04 25  -21.1248 25967.3 -03453.3 -07.5750 26195.9
 29 06 2013  04 26  -21.1239 25967.0 -03453.0 -07.5746 26195.6
 29 06 2013  04 27  -21.1230 25966.3 -03452.7 -07.5741 26194.9
 29 06 2013  04 28  -21.1223 25965.6 -03452.3 -07.5734 26194.1
 29 06 2013  04 29  -21.1219 25964.6 -03451.9 -07.5728 26193.1
 29 06 2013  04 30  -21.1216 25964.1 -03451.6 -07.5724 26192.5
 29 06 2013  04 31  -21.1219 25963.9 -03451.6 -07.5724 26192.3
 29 06 2013  04 32  -21.1223 25964.0 -03451.8 -07.5728 26192.4
 29 06 2013  04 33  -21.1226 25964.0 -03451.9 -07.5730 26192.5
 29 06 2013  04 34  -21.1225 25964.0 -03451.9 -07.5730 26192.5
 29 06 2013  04 35  -21.1221 25964.4 -03452.1 -07.5733 26192.8
 29 06 2013  04 36  -21.1216 25964.0 -03452.0 -07.5733 26192.5
 29 06 2013  04 37  -21.1203 25964.0 -03451.9 -07.5729 26192.5
 29 06 2013  04 38  -21.1194 25964.6 -03452.2 -07.5735 26193.1
 29 06 2013  04 39  -21.1182 25966.1 -03452.9 -07.5747 26194.7
 29 06 2013  04 40  -21.1174 25968.2 -03454.0 -07.5764 26196.9
 29 06 2013  04 41  -21.1171 25970.0 -03455.0 -07.5780 26198.8
 29 06 2013  04 42  -21.1176 25972.2 -03456.1 -07.5798 26201.2
 29 06 2013  04 43  -21.1176 25974.6 -03457.2 -07.5814 26203.6
 29 06 2013  04 44  -21.1173 25976.6 -03458.0 -07.5827 26205.8
 29 06 2013  04 45  -21.1168 25979.1 -03459.0 -07.5840 26208.4
 29 06 2013  04 46  -21.1164 25980.7 -03459.4 -07.5846 26210.0
 29 06 2013  04 47  -21.1159 25981.4 -03459.5 -07.5844 26210.7
 29 06 2013  04 48  -21.1160 25981.8 -03459.3 -07.5839 26211.0
 29 06 2013  04 49  -21.1160 25981.8 -03459.0 -07.5832 26211.1
 29 06 2013  04 50  -21.1159 25981.6 -03458.5 -07.5823 26210.8
 29 06 2013  04 51  -21.1155 25981.1 -03457.9 -07.5812 26210.2
 29 06 2013  04 52  -21.1144 25980.5 -03457.3 -07.5800 26209.5
 29 06 2013  04 53  -21.1137 25979.8 -03456.7 -07.5788 26208.8
 29 06 2013  04 54  -21.1140 25979.4 -03456.4 -07.5783 26208.3
 29 06 2013  04 55  -21.1143 25979.0 -03456.0 -07.5776 26207.8
 29 06 2013  04 56  -21.1152 25979.0 -03455.9 -07.5773 26207.9
 29 06 2013  04 57  -21.1163 25979.0 -03455.9 -07.5773 26207.9
 29 06 2013  04 58  -21.1173 25978.8 -03455.7 -07.5770 26207.7
 29 06 2013  04 59  -21.1184 25978.5 -03455.5 -07.5765 26207.3
 29 06 2013  05 00  -21.1188 25977.8 -03454.9 -07.5756 26206.6
 29 06 2013  05 01  -21.1190 25976.8 -03454.3 -07.5745 26205.5
 29 06 2013  05 02  -21.1194 25976.2 -03453.8 -07.5737 26204.8
 29 06 2013  05 03  -21.1194 25976.0 -03453.7 -07.5735 26204.6
 29 06 2013  05 04  -21.1193 25976.1 -03453.7 -07.5735 26204.7
 29 06 2013  05 05  -21.1189 25976.0 -03453.7 -07.5734 26204.5
 29 06 2013  05 06  -21.1185 25975.3 -03453.3 -07.5728 26203.8
 29 06 2013  05 07  -21.1175 25974.7 -03453.0 -07.5724 26203.3
 29 06 2013  05 08  -21.1164 25973.7 -03452.5 -07.5716 26202.1
 29 06 2013  05 09  -21.1163 25972.7 -03452.2 -07.5711 26201.1
 29 06 2013  05 10  -21.1160 25971.7 -03451.8 -07.5707 26200.1
 29 06 2013  05 11  -21.1145 25971.0 -03451.6 -07.5704 26199.4
 29 06 2013  05 12  -21.1134 25970.3 -03451.5 -07.5702 26198.7
 29 06 2013  05 13  -21.1128 25969.9 -03451.5 -07.5705 26198.3
 29 06 2013  05 14  -21.1131 25969.8 -03451.9 -07.5713 26198.2
 29 06 2013  05 15  -21.1130 25969.8 -03452.1 -07.5718 26198.3
 29 06 2013  05 16  -21.1135 25969.8 -03452.4 -07.5724 26198.3
 29 06 2013  05 17  -21.1139 25969.7 -03452.6 -07.5728 26198.2
 29 06 2013  05 18  -21.1140 25969.4 -03452.6 -07.5730 26197.9
 29 06 2013  05 19  -21.1132 25969.2 -03452.6 -07.5730 26197.7
 29 06 2013  05 20  -21.1120 25968.7 -03452.4 -07.5728 26197.2
 29 06 2013  05 21  -21.1103 25968.2 -03452.3 -07.5726 26196.7
 29 06 2013  05 22  -21.1089 25967.9 -03452.2 -07.5726 26196.4
 29 06 2013  05 23  -21.1087 25968.0 -03452.5 -07.5732 26196.5
 29 06 2013  05 24  -21.1080 25968.1 -03452.8 -07.5737 26196.6
 29 06 2013  05 25  -21.1063 25968.1 -03452.9 -07.5740 26196.7
 29 06 2013  05 26  -21.1049 25968.5 -03453.2 -07.5746 26197.1
 29 06 2013  05 27  -21.1042 25969.0 -03453.6 -07.5752 26197.6
 29 06 2013  05 28  -21.1031 25969.5 -03454.0 -07.5759 26198.2
 29 06 2013  05 29  -21.1023 25969.7 -03454.2 -07.5763 26198.4
 29 06 2013  05 30  -21.1014 25970.0 -03454.4 -07.5767 26198.8
 29 06 2013  05 31  -21.1010 25970.5 -03454.7 -07.5772 26199.2
 29 06 2013  05 32  -21.1001 25971.4 -03455.1 -07.5779 26200.2
 29 06 2013  05 33  -21.0997 25972.6 -03455.8 -07.5790 26201.5
 29 06 2013  05 34  -21.1006 25972.8 -03456.1 -07.5795 26201.7
 29 06 2013  05 35  -21.1017 25973.4 -03456.3 -07.5800 26202.3
 29 06 2013  05 36  -21.1026 25974.0 -03456.7 -07.5804 26203.0
 29 06 2013  05 37  -21.1030 25974.6 -03456.8 -07.5807 26203.6
 29 06 2013  05 38  -21.1033 25975.0 -03456.9 -07.5807 26204.0
 29 06 2013  05 39  -21.1037 25975.0 -03456.8 -07.5805 26204.0
 29 06 2013  05 40  -21.1041 25974.8 -03456.6 -07.5802 26203.8
 29 06 2013  05 41  -21.1047 25974.6 -03456.4 -07.5797 26203.6
 29 06 2013  05 42  -21.1052 25974.5 -03456.1 -07.5792 26203.4
 29 06 2013  05 43  -21.1058 25974.4 -03456.0 -07.5789 26203.3
 29 06 2013  05 44  -21.1064 25974.5 -03456.0 -07.5788 26203.4
 29 06 2013  05 45  -21.1061 25975.4 -03456.2 -07.5791 26204.4
 29 06 2013  05 46  -21.1056 25977.1 -03456.9 -07.5802 26206.1
 29 06 2013  05 47  -21.1056 25978.2 -03457.5 -07.5810 26207.3
 29 06 2013  05 48  -21.1055 25979.2 -03457.9 -07.5816 26208.3
 29 06 2013  05 49  -21.1053 25980.2 -03458.2 -07.5820 26209.3
 29 06 2013  05 50  -21.1050 25981.1 -03458.5 -07.5824 26210.3
 29 06 2013  05 51  -21.1046 25982.0 -03458.8 -07.5827 26211.2
 29 06 2013  05 52  -21.1044 25982.6 -03458.9 -07.5828 26211.8
 29 06 2013  05 53  -21.1040 25983.2 -03458.9 -07.5827 26212.4
 29 06 2013  05 54  -21.1044 25984.0 -03459.1 -07.5829 26213.3
 29 06 2013  05 55  -21.1044 25984.7 -03459.3 -07.5831 26214.0
 29 06 2013  05 56  -21.1039 25986.1 -03459.7 -07.5835 26215.3
 29 06 2013  05 57  -21.1032 25987.0 -03460.0 -07.5840 26216.4
 29 06 2013  05 58  -21.1019 25987.9 -03460.2 -07.5842 26217.3
 29 06 2013  05 59  -21.1008 25988.5 -03460.3 -07.5842 26217.9
 29 06 2013  06 00  -21.0997 25989.1 -03460.4 -07.5841 26218.5
 29 06 2013  06 01  -21.0989 25989.7 -03460.5 -07.5842 26219.1
 29 06 2013  06 02  -21.0989 25990.4 -03460.6 -07.5843 26219.8
 29 06 2013  06 03  -21.0987 25991.2 -03460.8 -07.5845 26220.6
 29 06 2013  06 04  -21.0986 25992.3 -03461.2 -07.5850 26221.8
 29 06 2013  06 05  -21.0983 25993.3 -03461.5 -07.5853 26222.8
 29 06 2013  06 06  -21.0979 25994.2 -03461.7 -07.5855 26223.6
 29 06 2013  06 07  -21.0972 25995.2 -03461.9 -07.5857 26224.7
 29 06 2013  06 08  -21.0968 25996.2 -03462.2 -07.5860 26225.8
 29 06 2013  06 09  -21.0966 25997.5 -03462.5 -07.5864 26227.0
 29 06 2013  06 10  -21.0964 25998.5 -03462.8 -07.5867 26228.1
 29 06 2013  06 11  -21.0965 25998.8 -03462.7 -07.5865 26228.4
 29 06 2013  06 12  -21.0965 25998.8 -03462.4 -07.5858 26228.3
 29 06 2013  06 13  -21.0962 25998.7 -03462.1 -07.5851 26228.2
 29 06 2013  06 14  -21.0962 25998.4 -03461.7 -07.5844 26227.8
 29 06 2013  06 15  -21.0964 25997.7 -03461.1 -07.5833 26227.1
 29 06 2013  06 16  -21.0962 25997.2 -03460.7 -07.5825 26226.5
 29 06 2013  06 17  -21.0961 25996.8 -03460.3 -07.5818 26226.1
 29 06 2013  06 18  -21.0960 25996.4 -03460.0 -07.5813 26225.7
 29 06 2013  06 19  -21.0956 25996.3 -03459.8 -07.5809 26225.5
 29 06 2013  06 20  -21.0951 25995.8 -03459.5 -07.5802 26225.0
 29 06 2013  06 21  -21.0950 25994.9 -03458.9 -07.5794 26224.0
 29 06 2013  06 22  -21.0945 25993.8 -03458.3 -07.5784 26222.9
 29 06 2013  06 23  -21.0931 25993.0 -03457.8 -07.5775 26222.0
 29 06 2013  06 24  -21.0915 25992.3 -03457.4 -07.5768 26221.2
 29 06 2013  06 25  -21.0905 25991.9 -03457.3 -07.5766 26220.8
 29 06 2013  06 26  -21.0899 25991.7 -03457.3 -07.5768 26220.6
 29 06 2013  06 27  -21.0892 25991.0 -03457.1 -07.5766 26219.9
 29 06 2013  06 28  -21.0887 25990.0 -03456.8 -07.5761 26218.9
 29 06 2013  06 29  -21.0871 25989.4 -03456.5 -07.5756 26218.2
 29 06 2013  06 30  -21.0864 25988.6 -03456.2 -07.5753 26217.4
 29 06 2013  06 31  -21.0866 25987.8 -03456.0 -07.5749 26216.6
 29 06 2013  06 32  -21.0869 25986.9 -03455.7 -07.5746 26215.6
 29 06 2013  06 33  -21.0875 25986.1 -03455.4 -07.5743 26214.8
 29 06 2013  06 34  -21.0875 25985.3 -03455.1 -07.5738 26214.0
 29 06 2013  06 35  -21.0872 25984.3 -03454.8 -07.5734 26213.0
 29 06 2013  06 36  -21.0867 25983.7 -03454.5 -07.5730 26212.3
 29 06 2013  06 37  -21.0864 25983.2 -03454.4 -07.5729 26211.8
 29 06 2013  06 38  -21.0862 25982.8 -03454.4 -07.5730 26211.4
 29 06 2013  06 39  -21.0859 25982.5 -03454.4 -07.5730 26211.1
 29 06 2013  06 40  -21.0856 25982.2 -03454.4 -07.5731 26210.9
 29 06 2013  06 41  -21.0861 25981.8 -03454.3 -07.5732 26210.5
 29 06 2013  06 42  -21.0867 25981.3 -03454.3 -07.5731 26210.0
 29 06 2013  06 43  -21.0873 25981.1 -03454.2 -07.5732 26209.7
 29 06 2013  06 44  -21.0879 25981.1 -03454.3 -07.5733 26209.7
 29 06 2013  06 45  -21.0886 25981.0 -03454.4 -07.5735 26209.7
 29 06 2013  06 46  -21.0894 25980.9 -03454.4 -07.5735 26209.5
 29 06 2013  06 47  -21.0897 25981.2 -03454.4 -07.5736 26209.8
 29 06 2013  06 48  -21.0903 25981.3 -03454.6 -07.5739 26209.9
 29 06 2013  06 49  -21.0907 25981.4 -03454.7 -07.5740 26210.1
 29 06 2013  06 50  -21.0908 25981.5 -03454.7 -07.5740 26210.2
 29 06 2013  06 51  -21.0912 25981.6 -03454.8 -07.5742 26210.3
 29 06 2013  06 52  -21.0909 25981.9 -03454.9 -07.5744 26210.6
 29 06 2013  06 53  -21.0908 25982.1 -03455.0 -07.5745 26210.8
 29 06 2013  06 54  -21.0913 25982.7 -03455.3 -07.5750 26211.4
 29 06 2013  06 55  -21.0918 25983.7 -03455.8 -07.5757 26212.5
 29 06 2013  06 56  -21.0924 25984.2 -03456.1 -07.5763 26213.1
 29 06 2013  06 57  -21.0930 25984.5 -03456.2 -07.5764 26213.3
 29 06 2013  06 58  -21.0938 25985.6 -03456.6 -07.5770 26214.5
 29 06 2013  06 59  -21.0943 25987.2 -03457.3 -07.5781 26216.2
 29 06 2013  07 00  -21.0942 25989.3 -03458.3 -07.5795 26218.4
 29 06 2013  07 01  -21.0945 25990.6 -03458.8 -07.5804 26219.7
 29 06 2013  07 02  -21.0947 25991.7 -03459.2 -07.5809 26220.9
 29 06 2013  07 03  -21.0940 25993.4 -03459.8 -07.5817 26222.7
 29 06 2013  07 04  -21.0942 25994.2 -03460.1 -07.5821 26223.5
 29 06 2013  07 05  -21.0946 25994.8 -03460.2 -07.5822 26224.1
 29 06 2013  07 06  -21.0947 25995.3 -03460.1 -07.5818 26224.5
 29 06 2013  07 07  -21.0949 25996.0 -03460.2 -07.5818 26225.3
 29 06 2013  07 08  -21.0955 25996.3 -03460.1 -07.5814 26225.5
 29 06 2013  07 09  -21.0959 25996.1 -03459.8 -07.5808 26225.3
 29 06 2013  07 10  -21.0950 25995.3 -03459.1 -07.5795 26224.4
 29 06 2013  07 11  -21.0943 25994.9 -03458.6 -07.5786 26223.9
 29 06 2013  07 12  -21.0935 25994.6 -03458.3 -07.5780 26223.6
 29 06 2013  07 13  -21.0926 25994.3 -03458.0 -07.5776 26223.3
 29 06 2013  07 14  -21.0918 25994.0 -03457.8 -07.5772 26223.0
 29 06 2013  07 15  -21.0911 25994.0 -03457.8 -07.5771 26223.0
 29 06 2013  07 16  -21.0906 25994.1 -03457.9 -07.5773 26223.1
 29 06 2013  07 17  -21.0906 25994.3 -03458.0 -07.5775 26223.3
 29 06 2013  07 18  -21.0905 25994.2 -03458.0 -07.5775 26223.2
 29 06 2013  07 19  -21.0906 25994.3 -03458.0 -07.5775 26223.3
 29 06 2013  07 20  -21.0913 25994.3 -03458.0 -07.5775 26223.3
 29 06 2013  07 21  -21.0920 25994.1 -03458.0 -07.5775 26223.1
 29 06 2013  07 22  -21.0922 25993.7 -03457.7 -07.5770 26222.6
 29 06 2013  07 23  -21.0927 25993.0 -03457.3 -07.5763 26221.9
 29 06 2013  07 24  -21.0937 25992.6 -03457.0 -07.5759 26221.5
 29 06 2013  07 25  -21.0940 25991.9 -03456.7 -07.5753 26220.8
 29 06 2013  07 26  -21.0939 25991.4 -03456.3 -07.5747 26220.2
 29 06 2013  07 27  -21.0934 25990.9 -03456.0 -07.5742 26219.7
 29 06 2013  07 28  -21.0931 25990.5 -03455.9 -07.5739 26219.3
 29 06 2013  07 29  -21.0929 25990.5 -03455.8 -07.5739 26219.2
 29 06 2013  07 30  -21.0923 25990.4 -03455.8 -07.5739 26219.1
 29 06 2013  07 31  -21.0922 25990.2 -03455.8 -07.5739 26218.9
 29 06 2013  07 32  -21.0922 25990.0 -03455.7 -07.5738 26218.7
 29 06 2013  07 33  -21.0912 25989.6 -03455.5 -07.5735 26218.3
 29 06 2013  07 34  -21.0892 25988.9 -03455.2 -07.5729 26217.6
 29 06 2013  07 35  -21.0873 25988.4 -03454.9 -07.5725 26217.1
 29 06 2013  07 36  -21.0866 25987.9 -03454.8 -07.5723 26216.5
 29 06 2013  07 37  -21.0861 25987.7 -03454.8 -07.5725 26216.3
 29 06 2013  07 38  -21.0851 25987.4 -03454.8 -07.5725 26216.0
 29 06 2013  07 39  -21.0842 25987.2 -03454.8 -07.5725 26215.8
 29 06 2013  07 40  -21.0836 25987.0 -03454.8 -07.5727 26215.7
 29 06 2013  07 41  -21.0835 25986.8 -03454.9 -07.5730 26215.5
 29 06 2013  07 42  -21.0835 25986.4 -03454.9 -07.5730 26215.0
 29 06 2013  07 43  -21.0838 25986.2 -03454.9 -07.5732 26214.9
 29 06 2013  07 44  -21.0839 25986.0 -03454.9 -07.5732 26214.7
 29 06 2013  07 45  -21.0836 25985.7 -03454.8 -07.5731 26214.3
 29 06 2013  07 46  -21.0823 25985.4 -03454.7 -07.5729 26214.0
 29 06 2013  07 47  -21.0814 25985.1 -03454.6 -07.5728 26213.8
 29 06 2013  07 48  -21.0812 25985.2 -03454.8 -07.5731 26213.8
 29 06 2013  07 49  -21.0804 25985.3 -03454.9 -07.5734 26214.0
 29 06 2013  07 50  -21.0795 25985.5 -03455.1 -07.5737 26214.2
 29 06 2013  07 51  -21.0791 25985.5 -03455.1 -07.5738 26214.2
 29 06 2013  07 52  -21.0781 25985.3 -03455.1 -07.5738 26214.0
 29 06 2013  07 53  -21.0774 25984.8 -03454.9 -07.5736 26213.5
 29 06 2013  07 54  -21.0768 25984.5 -03454.8 -07.5735 26213.2
 29 06 2013  07 55  -21.0762 25984.2 -03454.8 -07.5735 26212.9
 29 06 2013  07 56  -21.0754 25983.9 -03454.7 -07.5733 26212.6
 29 06 2013  07 57  -21.0750 25983.9 -03454.8 -07.5735 26212.6
 29 06 2013  07 58  -21.0745 25983.8 -03454.8 -07.5737 26212.5
 29 06 2013  07 59  -21.0737 25983.6 -03454.9 -07.5739 26212.3
 29 06 2013  08 00  -21.0732 25983.5 -03455.0 -07.5740 26212.2
 29 06 2013  08 01  -21.0734 25983.6 -03455.2 -07.5745 26212.3
 29 06 2013  08 02  -21.0736 25983.5 -03455.3 -07.5748 26212.2
 29 06 2013  08 03  -21.0740 25983.3 -03455.3 -07.5749 26212.0
 29 06 2013  08 04  -21.0748 25983.2 -03455.4 -07.5752 26212.0
 29 06 2013  08 05  -21.0752 25983.1 -03455.5 -07.5753 26211.9
 29 06 2013  08 06  -21.0753 25983.0 -03455.5 -07.5752 26211.8
 29 06 2013  08 07  -21.0745 25982.6 -03455.2 -07.5748 26211.3
 29 06 2013  08 08  -21.0743 25982.4 -03455.1 -07.5747 26211.1
 29 06 2013  08 09  -21.0743 25982.4 -03455.2 -07.5748 26211.2
 29 06 2013  08 10  -21.0742 25982.5 -03455.3 -07.5751 26211.3
 29 06 2013  08 11  -21.0745 25982.9 -03455.6 -07.5755 26211.7
 29 06 2013  08 12  -21.0753 25983.9 -03456.2 -07.5765 26212.7
 29 06 2013  08 13  -21.0762 25984.3 -03456.5 -07.5772 26213.2
 29 06 2013  08 14  -21.0764 25985.1 -03456.9 -07.5778 26214.0
 29 06 2013  08 15  -21.0762 25985.8 -03457.2 -07.5783 26214.8
 29 06 2013  08 16  -21.0757 25986.3 -03457.4 -07.5785 26215.3
 29 06 2013  08 17  -21.0753 25986.7 -03457.5 -07.5787 26215.7
 29 06 2013  08 18  -21.0740 25987.1 -03457.6 -07.5787 26216.1
 29 06 2013  08 19  -21.0726 25987.4 -03457.7 -07.5788 26216.5
 29 06 2013  08 20  -21.0709 25987.9 -03457.8 -07.5789 26216.9
 29 06 2013  08 21  -21.0692 25987.9 -03457.7 -07.5786 26216.9
 29 06 2013  08 22  -21.0672 25987.7 -03457.5 -07.5783 26216.6
 29 06 2013  08 23  -21.0654 25987.4 -03457.3 -07.5780 26216.3
 29 06 2013  08 24  -21.0638 25987.2 -03457.2 -07.5778 26216.2
 29 06 2013  08 25  -21.0624 25987.0 -03457.1 -07.5778 26216.0
 29 06 2013  08 26  -21.0613 25987.0 -03457.2 -07.5778 26216.0
 29 06 2013  08 27  -21.0601 25986.9 -03457.2 -07.5778 26215.8
 29 06 2013  08 28  -21.0593 25986.7 -03457.2 -07.5780 26215.7
 29 06 2013  08 29  -21.0591 25986.9 -03457.4 -07.5784 26215.9
 29 06 2013  08 30  -21.0598 25987.1 -03457.7 -07.5788 26216.1
 29 06 2013  08 31  -21.0601 25987.0 -03457.7 -07.5790 26216.1
 29 06 2013  08 32  -21.0607 25987.2 -03457.8 -07.5791 26216.3
 29 06 2013  08 33  -21.0620 25987.8 -03458.2 -07.5797 26216.9
 29 06 2013  08 34  -21.0627 25988.1 -03458.2 -07.5798 26217.2
 29 06 2013  08 35  -21.0627 25988.3 -03458.2 -07.5796 26217.4
 29 06 2013  08 36  -21.0631 25988.6 -03458.2 -07.5795 26217.7
 29 06 2013  08 37  -21.0635 25988.6 -03458.0 -07.5793 26217.6
 29 06 2013  08 38  -21.0639 25988.6 -03457.9 -07.5789 26217.6
 29 06 2013  08 39  -21.0632 25988.3 -03457.6 -07.5784 26217.3
 29 06 2013  08 40  -21.0623 25988.0 -03457.4 -07.5781 26217.0
 29 06 2013  08 41  -21.0606 25987.3 -03457.0 -07.5773 26216.2
 29 06 2013  08 42  -21.0600 25986.9 -03456.8 -07.5769 26215.8
 29 06 2013  08 43  -21.0594 25986.6 -03456.6 -07.5767 26215.5
 29 06 2013  08 44  -21.0595 25986.5 -03456.6 -07.5767 26215.4
 29 06 2013  08 45  -21.0589 25986.5 -03456.6 -07.5768 26215.4
 29 06 2013  08 46  -21.0582 25986.1 -03456.5 -07.5766 26214.9
 29 06 2013  08 47  -21.0580 25986.1 -03456.5 -07.5767 26214.9
 29 06 2013  08 48  -21.0573 25985.9 -03456.6 -07.5768 26214.8
 29 06 2013  08 49  -21.0561 25985.8 -03456.6 -07.5770 26214.7
 29 06 2013  08 50  -21.0550 25986.6 -03457.0 -07.5777 26215.5
 29 06 2013  08 51  -21.0535 25987.1 -03457.4 -07.5782 26216.0
 29 06 2013  08 52  -21.0516 25987.7 -03457.7 -07.5787 26216.7
 29 06 2013  08 53  -21.0526 25988.1 -03457.9 -07.5792 26217.2
 29 06 2013  08 54  -21.0528 25988.1 -03457.8 -07.5789 26217.1
 29 06 2013  08 55  -21.0526 25988.0 -03457.7 -07.5786 26217.0
 29 06 2013  08 56  -21.0519 25987.6 -03457.5 -07.5783 26216.6
 29 06 2013  08 57  -21.0502 25987.4 -03457.4 -07.5781 26216.4
 29 06 2013  08 58  -21.0501 25987.0 -03457.4 -07.5782 26216.0
 29 06 2013  08 59  -21.0500 25986.7 -03457.5 -07.5786 26215.7
 29 06 2013  09 00  -21.0488 25986.4 -03457.6 -07.5790 26215.4
 29 06 2013  09 01  -21.0471 25986.2 -03457.8 -07.5793 26215.2
 29 06 2013  09 02  -21.0411 25986.8 -03458.1 -07.5798 26215.8
 29 06 2013  09 03  -21.0354 25986.6 -03457.9 -07.5794 26215.7
 29 06 2013  09 04  -21.0322 25986.3 -03457.9 -07.5795 26215.4
 29 06 2013  09 05  -21.0278 25985.9 -03457.8 -07.5795 26214.9
 29 06 2013  09 06  -21.0246 25985.3 -03458.0 -07.5800 26214.4
 29 06 2013  09 07  -21.0233 25984.8 -03458.2 -07.5808 26213.9
 29 06 2013  09 08  -21.0228 25983.6 -03458.4 -07.5814 26212.7
 29 06 2013  09 09  -21.0239 25983.6 -03459.1 -07.5829 26212.8
 29 06 2013  09 10  -21.0255 25983.8 -03460.0 -07.5848 26213.2
 29 06 2013  09 11  -21.0266 25984.3 -03460.8 -07.5865 26213.7
 29 06 2013  09 12  -21.0262 25985.0 -03461.6 -07.5880 26214.6
 29 06 2013  09 13  -21.0240 25985.4 -03462.0 -07.5888 26215.0
 29 06 2013  09 14  -21.0216 25985.8 -03462.3 -07.5893 26215.4
 29 06 2013  09 15  -21.0191 25985.5 -03462.2 -07.5892 26215.2
 29 06 2013  09 16  -21.0158 25984.5 -03461.8 -07.5887 26214.1
 29 06 2013  09 17  -21.0139 25983.6 -03461.6 -07.5884 26213.2
 29 06 2013  09 18  -21.0131 25982.7 -03461.6 -07.5886 26212.3
 29 06 2013  09 19  -21.0144 25981.5 -03461.6 -07.5889 26211.1
 29 06 2013  09 20  -21.0131 25981.1 -03461.7 -07.5894 26210.7
 29 06 2013  09 21  -21.0110 25981.0 -03462.0 -07.5900 26210.7
 29 06 2013  09 22  -21.0087 25981.5 -03462.5 -07.5909 26211.2
 29 06 2013  09 23  -21.0090 25981.0 -03462.7 -07.5914 26210.7
 29 06 2013  09 24  -21.0106 25980.4 -03462.9 -07.5922 26210.2
 29 06 2013  09 25  -21.0130 25980.0 -03463.3 -07.5931 26209.8
 29 06 2013  09 26  -21.0153 25979.7 -03463.5 -07.5937 26209.6
 29 06 2013  09 27  -21.0151 25979.7 -03463.7 -07.5941 26209.6
 29 06 2013  09 28  -21.0152 25980.0 -03464.0 -07.5946 26209.9
 29 06 2013  09 29  -21.0137 25980.9 -03464.4 -07.5952 26210.9
 29 06 2013  09 30  -21.0100 25982.0 -03464.7 -07.5956 26212.0
 29 06 2013  09 31  -21.0054 25982.9 -03464.9 -07.5958 26212.9
 29 06 2013  09 32  -21.0033 25983.5 -03465.2 -07.5962 26213.6
 29 06 2013  09 33  -21.0025 25983.8 -03465.5 -07.5968 26213.9
 29 06 2013  09 34  -21.0004 25983.6 -03465.5 -07.5969 26213.7
 29 06 2013  09 35  -21.0003 25983.1 -03465.7 -07.5973 26213.2
 29 06 2013  09 36  -21.0048 25982.8 -03466.0 -07.5982 26212.9
 29 06 2013  09 37  -21.0075 25980.9 -03465.6 -07.5979 26211.0
 29 06 2013  09 38  -21.0077 25979.5 -03465.4 -07.5977 26209.6
 29 06 2013  09 39  -21.0062 25979.1 -03465.7 -07.5985 26209.3
 29 06 2013  09 40  -21.0044 25979.8 -03466.4 -07.5998 26210.0
 29 06 2013  09 41  -21.0033 25981.4 -03467.5 -07.6017 26211.7
 29 06 2013  09 42  -21.0008 25981.8 -03467.8 -07.6024 26212.2
 29 06 2013  09 43  -20.9992 25982.4 -03468.3 -07.6033 26212.8
 29 06 2013  09 44  -20.9983 25982.9 -03468.8 -07.6041 26213.4
 29 06 2013  09 45  -20.9988 25983.7 -03469.4 -07.6054 26214.3
 29 06 2013  09 46  -20.9989 25984.6 -03470.1 -07.6065 26215.3
 29 06 2013  09 47  -20.9988 25985.9 -03470.7 -07.6075 26216.6
 29 06 2013  09 48  -20.9989 25986.7 -03471.2 -07.6083 26217.5
 29 06 2013  09 49  -20.9961 25987.7 -03471.6 -07.6089 26218.6
 29 06 2013  09 50  -20.9934 25988.6 -03472.0 -07.6094 26219.5
 29 06 2013  09 51  -20.9936 25988.7 -03472.1 -07.6097 26219.7
 29 06 2013  09 52  -20.9952 25988.0 -03472.1 -07.6098 26218.9
 29 06 2013  09 53  -20.9968 25987.1 -03472.1 -07.6101 26218.1
 29 06 2013  09 54  -20.9962 25986.8 -03472.3 -07.6105 26217.8
 29 06 2013  09 55  -20.9953 25986.3 -03472.3 -07.6108 26217.2
 29 06 2013  09 56  -20.9965 25985.1 -03472.3 -07.6111 26216.1
 29 06 2013  09 57  -20.9961 25984.4 -03472.3 -07.6114 26215.4
 29 06 2013  09 58  -20.9959 25983.9 -03472.6 -07.6120 26214.9
 29 06 2013  09 59  -20.9944 25983.5 -03472.8 -07.6128 26214.6
 29 06 2013  10 00  -20.9923 25982.3 -03472.7 -07.6129 26213.4
 29 06 2013  10 01  -20.9904 25981.5 -03472.8 -07.6132 26212.5
 29 06 2013  10 02  -20.9884 25980.4 -03472.8 -07.6137 26211.5
 29 06 2013  10 03  -20.9881 25979.2 -03472.8 -07.6139 26210.2
 29 06 2013  10 04  -20.9900 25978.2 -03473.0 -07.6146 26209.3
 29 06 2013  10 05  -20.9924 25978.2 -03473.7 -07.6161 26209.4
 29 06 2013  10 06  -20.9946 25978.6 -03474.4 -07.6176 26209.9
 29 06 2013  10 07  -20.9950 25979.3 -03475.1 -07.6188 26210.7
 29 06 2013  10 08  -20.9952 25979.2 -03475.3 -07.6194 26210.7
 29 06 2013  10 09  -20.9942 25979.6 -03475.7 -07.6201 26211.1
 29 06 2013  10 10  -20.9925 25979.4 -03475.8 -07.6203 26210.9
 29 06 2013  10 11  -20.9914 25978.7 -03475.7 -07.6203 26210.1
 29 06 2013  10 12  -20.9909 25977.7 -03475.5 -07.6201 26209.2
 29 06 2013  10 13  -20.9900 25976.6 -03475.2 -07.6199 26208.0
 29 06 2013  10 14  -20.9897 25976.1 -03475.3 -07.6202 26207.5
 29 06 2013  10 15  -20.9897 25975.6 -03475.5 -07.6207 26207.0
 29 06 2013  10 16  -20.9904 25974.8 -03475.5 -07.6211 26206.2
 29 06 2013  10 17  -20.9908 25973.9 -03475.5 -07.6212 26205.4
 29 06 2013  10 18  -20.9909 25973.4 -03475.5 -07.6216 26204.9
 29 06 2013  10 19  -20.9908 25973.3 -03475.8 -07.6221 26204.9
 29 06 2013  10 20  -20.9900 25973.2 -03476.0 -07.6225 26204.8
 29 06 2013  10 21  -20.9903 25973.4 -03476.2 -07.6230 26205.0
 29 06 2013  10 22  -20.9908 25974.7 -03476.9 -07.6241 26206.4
 29 06 2013  10 23  -20.9923 25974.5 -03477.1 -07.6247 26206.2
 29 06 2013  10 24  -20.9919 25975.7 -03477.6 -07.6253 26207.4
 29 06 2013  10 25  -20.9923 25976.2 -03477.8 -07.6257 26208.0
 29 06 2013  10 26  -20.9940 25976.8 -03478.2 -07.6263 26208.6
 29 06 2013  10 27  -20.9952 25976.7 -03478.1 -07.6262 26208.5
 29 06 2013  10 28  -20.9964 25976.8 -03478.2 -07.6263 26208.6
 29 06 2013  10 29  -20.9974 25976.9 -03478.2 -07.6264 26208.8
 29 06 2013  10 30  -20.9968 25977.1 -03478.1 -07.6261 26208.9
 29 06 2013  10 31  -20.9971 25977.3 -03478.1 -07.6260 26209.1
 29 06 2013  10 32  -20.9975 25977.4 -03478.2 -07.6260 26209.3
 29 06 2013  10 33  -20.9977 25977.9 -03478.3 -07.6263 26209.8
 29 06 2013  10 34  -20.9981 25978.6 -03478.5 -07.6265 26210.4
 29 06 2013  10 35  -20.9987 25980.1 -03479.0 -07.6272 26212.0
 29 06 2013  10 36  -20.9996 25981.1 -03479.4 -07.6276 26213.0
 29 06 2013  10 37  -20.9999 25981.8 -03479.5 -07.6277 26213.7
 29 06 2013  10 38  -21.0002 25983.0 -03479.9 -07.6282 26215.0
 29 06 2013  10 39  -21.0011 25983.7 -03480.0 -07.6282 26215.7
 29 06 2013  10 40  -21.0029 25985.4 -03480.6 -07.6290 26217.4
 29 06 2013  10 41  -21.0047 25986.8 -03481.2 -07.6298 26219.0
 29 06 2013  10 42  -21.0064 25987.2 -03481.2 -07.6298 26219.3
 29 06 2013  10 43  -21.0071 25987.6 -03481.2 -07.6297 26219.7
 29 06 2013  10 44  -21.0073 25988.3 -03481.4 -07.6299 26220.4
 29 06 2013  10 45  -21.0088 25989.0 -03481.6 -07.6302 26221.1
 29 06 2013  10 46  -21.0083 25989.5 -03481.7 -07.6302 26221.7
 29 06 2013  10 47  -21.0053 25988.9 -03481.3 -07.6294 26221.0
 29 06 2013  10 48  -21.0035 25987.7 -03480.7 -07.6286 26219.8
 29 06 2013  10 49  -21.0031 25986.8 -03480.5 -07.6285 26218.9
 29 06 2013  10 50  -21.0021 25986.0 -03480.4 -07.6284 26218.0
 29 06 2013  10 51  -21.0020 25985.8 -03480.5 -07.6287 26217.9
 29 06 2013  10 52  -21.0036 25986.2 -03480.9 -07.6295 26218.3
 29 06 2013  10 53  -21.0049 25986.6 -03481.2 -07.6300 26218.7
 29 06 2013  10 54  -21.0051 25987.1 -03481.5 -07.6305 26219.2
 29 06 2013  10 55  -21.0052 25986.4 -03481.3 -07.6302 26218.5
 29 06 2013  10 56  -21.0050 25985.3 -03481.0 -07.6299 26217.4
 29 06 2013  10 57  -21.0059 25985.6 -03481.3 -07.6305 26217.8
 29 06 2013  10 58  -21.0062 25985.5 -03481.5 -07.6309 26217.7
 29 06 2013  10 59  -21.0073 25985.4 -03481.6 -07.6313 26217.6
 29 06 2013  11 00  -21.0092 25985.3 -03481.8 -07.6316 26217.6
 29 06 2013  11 01  -21.0100 25984.7 -03481.6 -07.6314 26217.0
 29 06 2013  11 02  -21.0103 25984.9 -03481.7 -07.6315 26217.2
 29 06 2013  11 03  -21.0113 25985.9 -03482.1 -07.6321 26218.2
 29 06 2013  11 04  -21.0118 25985.4 -03481.8 -07.6316 26217.6
 29 06 2013  11 05  -21.0131 25984.4 -03481.4 -07.6310 26216.5
 29 06 2013  11 06  -21.0154 25982.9 -03481.0 -07.6306 26215.0
 29 06 2013  11 07  -21.0172 25982.7 -03481.2 -07.6311 26214.9
 29 06 2013  11 08  -21.0181 25982.3 -03481.4 -07.6317 26214.5
 29 06 2013  11 09  -21.0193 25980.9 -03481.1 -07.6315 26213.1
 29 06 2013  11 10  -21.0212 25980.7 -03481.4 -07.6321 26212.9
 29 06 2013  11 11  -21.0211 25981.0 -03481.6 -07.6326 26213.2
 29 06 2013  11 12  -21.0219 25981.8 -03482.1 -07.6333 26214.1
 29 06 2013  11 13  -21.0214 25982.2 -03482.3 -07.6335 26214.5
 29 06 2013  11 14  -21.0214 25981.4 -03481.9 -07.6330 26213.7
 29 06 2013  11 15  -21.0217 25981.3 -03482.0 -07.6333 26213.6
 29 06 2013  11 16  -21.0219 25981.4 -03482.2 -07.6335 26213.7
 29 06 2013  11 17  -21.0229 25982.4 -03482.6 -07.6342 26214.7
 29 06 2013  11 18  -21.0241 25981.9 -03482.4 -07.6339 26214.2
 29 06 2013  11 19  -21.0257 25980.2 -03481.6 -07.6328 26212.5
 29 06 2013  11 20  -21.0271 25980.5 -03481.7 -07.6328 26212.8
 29 06 2013  11 21  -21.0279 25980.2 -03481.4 -07.6323 26212.4
 29 06 2013  11 22  -21.0277 25979.4 -03480.9 -07.6314 26211.6
 29 06 2013  11 23  -21.0266 25979.6 -03480.8 -07.6312 26211.7
 29 06 2013  11 24  -21.0262 25979.6 -03480.9 -07.6313 26211.7
 29 06 2013  11 25  -21.0258 25979.0 -03480.8 -07.6313 26211.2
 29 06 2013  11 26  -21.0260 25980.1 -03481.5 -07.6325 26212.4
 29 06 2013  11 27  -21.0266 25981.3 -03482.1 -07.6333 26213.6
 29 06 2013  11 28  -21.0260 25982.9 -03482.5 -07.6338 26215.3
 29 06 2013  11 29  -21.0266 25984.1 -03482.8 -07.6341 26216.5
 29 06 2013  11 30  -21.0270 25985.5 -03483.0 -07.6342 26217.9
 29 06 2013  11 31  -21.0281 25986.9 -03483.2 -07.6341 26219.3
 29 06 2013  11 32  -21.0284 25987.3 -03482.8 -07.6332 26219.6
 29 06 2013  11 33  -21.0289 25986.4 -03482.0 -07.6317 26218.7
 29 06 2013  11 34  -21.0296 25986.5 -03481.7 -07.6311 26218.7
 29 06 2013  11 35  -21.0301 25986.2 -03481.5 -07.6308 26218.4
 29 06 2013  11 36  -21.0312 25985.4 -03481.3 -07.6306 26217.6
 29 06 2013  11 37  -21.0315 25985.7 -03481.5 -07.6310 26217.9
 29 06 2013  11 38  -21.0319 25987.8 -03482.7 -07.6328 26220.2
 29 06 2013  11 39  -21.0312 25988.1 -03482.7 -07.6327 26220.4
 29 06 2013  11 40  -21.0321 25990.0 -03483.1 -07.6332 26222.4
 29 06 2013  11 41  -21.0322 25991.9 -03483.6 -07.6336 26224.3
 29 06 2013  11 42  -21.0311 25993.2 -03483.7 -07.6335 26225.6
 29 06 2013  11 43  -21.0291 25993.6 -03483.5 -07.6328 26225.9
 29 06 2013  11 44  -21.0276 25993.1 -03483.0 -07.6320 26225.4
 29 06 2013  11 45  -21.0274 25993.6 -03483.1 -07.6321 26225.9
 29 06 2013  11 46  -21.0282 25995.5 -03483.9 -07.6333 26228.0
 29 06 2013  11 47  -21.0287 25997.0 -03484.4 -07.6339 26229.4
 29 06 2013  11 48  -21.0280 25998.0 -03484.5 -07.6338 26230.5
 29 06 2013  11 49  -21.0275 25998.8 -03484.5 -07.6336 26231.3
 29 06 2013  11 50  -21.0269 25999.4 -03484.4 -07.6333 26231.8
 29 06 2013  11 51  -21.0266 25999.9 -03484.4 -07.6330 26232.4
 29 06 2013  11 52  -21.0264 26000.1 -03484.3 -07.6328 26232.5
 29 06 2013  11 53  -21.0269 26000.1 -03484.2 -07.6327 26232.5
 29 06 2013  11 54  -21.0280 26000.7 -03484.4 -07.6328 26233.1
 29 06 2013  11 55  -21.0286 26000.9 -03484.3 -07.6326 26233.3
 29 06 2013  11 56  -21.0287 26000.8 -03484.1 -07.6322 26233.2
 29 06 2013  11 57  -21.0294 26000.9 -03484.1 -07.6321 26233.3
 29 06 2013  11 58  -21.0299 26001.3 -03484.2 -07.6322 26233.7
 29 06 2013  11 59  -21.0299 26001.7 -03484.4 -07.6324 26234.2
 29 06 2013  12 00  -21.0296 26002.2 -03484.4 -07.6324 26234.6
 29 06 2013  12 01  -21.0294 26002.8 -03484.5 -07.6324 26235.3
 29 06 2013  12 02  -21.0284 26004.0 -03485.0 -07.6331 26236.5
 29 06 2013  12 03  -21.0274 26004.2 -03485.0 -07.6330 26236.7
 29 06 2013  12 04  -21.0269 26005.2 -03485.1 -07.6331 26237.7
 29 06 2013  12 05  -21.0277 26006.3 -03485.3 -07.6332 26238.8
 29 06 2013  12 06  -21.0284 26006.6 -03485.0 -07.6324 26239.0
 29 06 2013  12 07  -21.0291 26004.5 -03483.8 -07.6304 26236.9
 29 06 2013  12 08  -21.0292 26003.6 -03483.4 -07.6298 26235.9
 29 06 2013  12 09  -21.0277 26003.8 -03483.7 -07.6303 26236.1
 29 06 2013  12 10  -21.0279 26004.4 -03483.9 -07.6307 26236.7
 29 06 2013  12 11  -21.0299 26005.0 -03484.4 -07.6316 26237.4
 29 06 2013  12 12  -21.0296 26005.8 -03484.6 -07.6318 26238.2
 29 06 2013  12 13  -21.0289 26004.7 -03483.9 -07.6306 26237.0
 29 06 2013  12 14  -21.0321 26003.7 -03483.4 -07.6298 26236.0
 29 06 2013  12 15  -21.0357 26001.3 -03482.5 -07.6285 26233.4
 29 06 2013  12 16  -21.0382 25999.3 -03482.1 -07.6282 26231.5
 29 06 2013  12 17  -21.0391 25997.8 -03482.0 -07.6284 26230.0
 29 06 2013  12 18  -21.0401 25997.2 -03482.3 -07.6293 26229.4
 29 06 2013  12 19  -21.0416 25997.9 -03483.0 -07.6305 26230.1
 29 06 2013  12 20  -21.0430 25999.0 -03483.6 -07.6315 26231.3
 29 06 2013  12 21  -21.0440 26000.0 -03483.9 -07.6320 26232.3
 29 06 2013  12 22  -21.0443 26001.5 -03484.2 -07.6322 26233.9
 29 06 2013  12 23  -21.0447 26003.2 -03484.3 -07.6319 26235.6
 29 06 2013  12 24  -21.0460 26004.0 -03484.0 -07.6309 26236.4
 29 06 2013  12 25  -21.0471 26004.3 -03483.4 -07.6296 26236.6
 29 06 2013  12 26  -21.0486 26004.1 -03482.7 -07.6280 26236.3
 29 06 2013  12 27  -21.0501 26004.5 -03482.2 -07.6271 26236.6
 29 06 2013  12 28  -21.0519 26005.1 -03481.9 -07.6261 26237.2
 29 06 2013  12 29  -21.0541 26006.2 -03481.7 -07.6254 26238.2
 29 06 2013  12 30  -21.0555 26006.0 -03481.0 -07.6238 26237.9
 29 06 2013  12 31  -21.0564 26006.0 -03480.4 -07.6226 26237.9
 29 06 2013  12 32  -21.0578 26006.2 -03480.0 -07.6216 26238.0
 29 06 2013  12 33  -21.0587 26006.5 -03479.6 -07.6207 26238.2
 29 06 2013  12 34  -21.0590 26006.4 -03479.1 -07.6198 26238.1
 29 06 2013  12 35  -21.0594 26006.2 -03478.7 -07.6189 26237.8
 29 06 2013  12 36  -21.0597 26005.9 -03478.3 -07.6182 26237.5
 29 06 2013  12 37  -21.0616 26006.3 -03478.4 -07.6183 26237.9
 29 06 2013  12 38  -21.0637 26006.4 -03478.3 -07.6179 26238.0
 29 06 2013  12 39  -21.0653 26005.9 -03478.0 -07.6174 26237.5
 29 06 2013  12 40  -21.0664 26004.5 -03477.3 -07.6163 26236.0
 29 06 2013  12 41  -21.0673 26003.0 -03476.8 -07.6156 26234.4
 29 06 2013  12 42  -21.0683 26002.3 -03476.6 -07.6155 26233.6
 29 06 2013  12 43  -21.0699 26001.9 -03476.8 -07.6159 26233.3
 29 06 2013  12 44  -21.0715 26001.8 -03476.9 -07.6163 26233.2
 29 06 2013  12 45  -21.0733 26001.5 -03477.0 -07.6165 26233.0
 29 06 2013  12 46  -21.0747 26001.0 -03476.8 -07.6163 26232.4
 29 06 2013  12 47  -21.0752 26000.0 -03476.4 -07.6157 26231.4
 29 06 2013  12 48  -21.0756 25998.8 -03476.0 -07.6152 26230.2
 29 06 2013  12 49  -21.0754 25997.8 -03475.7 -07.6148 26229.1
 29 06 2013  12 50  -21.0760 25997.5 -03475.7 -07.6149 26228.8
 29 06 2013  12 51  -21.0762 25996.7 -03475.5 -07.6147 26228.0
 29 06 2013  12 52  -21.0775 25997.0 -03475.7 -07.6152 26228.3
 29 06 2013  12 53  -21.0781 25997.6 -03476.0 -07.6156 26229.0
 29 06 2013  12 54  -21.0786 25998.0 -03476.0 -07.6155 26229.4
 29 06 2013  12 55  -21.0799 25998.3 -03476.0 -07.6153 26229.6
 29 06 2013  12 56  -21.0799 25998.2 -03475.7 -07.6147 26229.5
 29 06 2013  12 57  -21.0791 25998.2 -03475.4 -07.6141 26229.4
 29 06 2013  12 58  -21.0786 25998.9 -03475.4 -07.6139 26230.2
 29 06 2013  12 59  -21.0791 25999.5 -03475.3 -07.6135 26230.8
 29 06 2013  13 00  -21.0800 26000.2 -03475.2 -07.6131 26231.5
 29 06 2013  13 01  -21.0807 26000.9 -03475.1 -07.6126 26232.1
 29 06 2013  13 02  -21.0805 26000.7 -03474.5 -07.6114 26231.8
 29 06 2013  13 03  -21.0805 26000.5 -03474.1 -07.6105 26231.5
 29 06 2013  13 04  -21.0811 26000.8 -03474.0 -07.6102 26231.9
 29 06 2013  13 05  -21.0826 26001.5 -03474.0 -07.6101 26232.6
 29 06 2013  13 06  -21.0847 26002.1 -03474.0 -07.6099 26233.1
 29 06 2013  13 07  -21.0866 26002.5 -03473.9 -07.6095 26233.5
 29 06 2013  13 08  -21.0879 26002.9 -03473.6 -07.6088 26233.9
 29 06 2013  13 09  -21.0890 26003.0 -03473.3 -07.6080 26233.9
 29 06 2013  13 10  -21.0897 26002.6 -03472.8 -07.6071 26233.5
 29 06 2013  13 11  -21.0900 26002.0 -03472.2 -07.6061 26232.8
 29 06 2013  13 12  -21.0902 26001.4 -03471.9 -07.6055 26232.2
 29 06 2013  13 13  -21.0910 26000.9 -03471.7 -07.6052 26231.7
 29 06 2013  13 14  -21.0918 26000.9 -03471.7 -07.6052 26231.6
 29 06 2013  13 15  -21.0924 26001.3 -03471.8 -07.6054 26232.0
 29 06 2013  13 16  -21.0930 26001.8 -03471.9 -07.6055 26232.6
 29 06 2013  13 17  -21.0932 26002.0 -03471.8 -07.6051 26232.7
 29 06 2013  13 18  -21.0932 26002.1 -03471.6 -07.6046 26232.8
 29 06 2013  13 19  -21.0936 26001.9 -03471.2 -07.6040 26232.6
 29 06 2013  13 20  -21.0940 26001.8 -03471.0 -07.6035 26232.5
 29 06 2013  13 21  -21.0939 26001.9 -03470.8 -07.6029 26232.5
 29 06 2013  13 22  -21.0934 26002.0 -03470.6 -07.6025 26232.6
 29 06 2013  13 23  -21.0923 26002.2 -03470.3 -07.6019 26232.7
 29 06 2013  13 24  -21.0909 26002.6 -03470.2 -07.6015 26233.1
 29 06 2013  13 25  -21.0902 26003.1 -03470.1 -07.6012 26233.7
 29 06 2013  13 26  -21.0894 26003.2 -03469.8 -07.6005 26233.7
 29 06 2013  13 27  -21.0889 26003.1 -03469.5 -07.5998 26233.5
 29 06 2013  13 28  -21.0885 26003.2 -03469.3 -07.5994 26233.6
 29 06 2013  13 29  -21.0880 26003.7 -03469.2 -07.5990 26234.1
 29 06 2013  13 30  -21.0874 26004.5 -03469.1 -07.5986 26234.8
 29 06 2013  13 31  -21.0868 26005.3 -03469.1 -07.5983 26235.6
 29 06 2013  13 32  -21.0861 26005.6 -03468.8 -07.5976 26235.9
 29 06 2013  13 33  -21.0848 26005.4 -03468.3 -07.5966 26235.7
 29 06 2013  13 34  -21.0836 26005.8 -03468.1 -07.5961 26236.1
 29 06 2013  13 35  -21.0831 26006.5 -03468.1 -07.5957 26236.8
 29 06 2013  13 36  -21.0822 26007.1 -03467.9 -07.5953 26237.3
 29 06 2013  13 37  -21.0811 26007.3 -03467.6 -07.5946 26237.4
 29 06 2013  13 38  -21.0800 26007.1 -03467.3 -07.5939 26237.2
 29 06 2013  13 39  -21.0791 26007.2 -03467.1 -07.5934 26237.3
 29 06 2013  13 40  -21.0784 26007.9 -03467.2 -07.5934 26238.0
 29 06 2013  13 41  -21.0779 26008.8 -03467.3 -07.5934 26238.9
 29 06 2013  13 42  -21.0772 26009.3 -03467.2 -07.5931 26239.4
 29 06 2013  13 43  -21.0759 26009.4 -03466.9 -07.5924 26239.5
 29 06 2013  13 44  -21.0749 26009.6 -03466.7 -07.5918 26239.6
 29 06 2013  13 45  -21.0743 26009.9 -03466.5 -07.5914 26239.9
 29 06 2013  13 46  -21.0736 26010.1 -03466.3 -07.5910 26240.1
 29 06 2013  13 47  -21.0736 26010.0 -03466.1 -07.5905 26240.0
 29 06 2013  13 48  -21.0737 26009.9 -03465.9 -07.5900 26239.8
 29 06 2013  13 49  -21.0738 26010.1 -03465.8 -07.5898 26240.0
 29 06 2013  13 50  -21.0736 26010.5 -03465.8 -07.5898 26240.4
 29 06 2013  13 51  -21.0733 26011.3 -03466.0 -07.5899 26241.2
 29 06 2013  13 52  -21.0729 26012.0 -03466.1 -07.5899 26241.9
 29 06 2013  13 53  -21.0726 26012.6 -03466.1 -07.5898 26242.5
 29 06 2013  13 54  -21.0716 26012.9 -03466.0 -07.5895 26242.8
 29 06 2013  13 55  -21.0710 26013.3 -03466.1 -07.5895 26243.2
 29 06 2013  13 56  -21.0707 26013.9 -03466.2 -07.5897 26243.8
 29 06 2013  13 57  -21.0704 26014.7 -03466.4 -07.5898 26244.6
 29 06 2013  13 58  -21.0697 26015.6 -03466.5 -07.5897 26245.5
 29 06 2013  13 59  -21.0690 26016.5 -03466.6 -07.5897 26246.4
 29 06 2013  14 00  -21.0688 26017.3 -03466.7 -07.5896 26247.2
 29 06 2013  14 01  -21.0682 26017.9 -03466.6 -07.5894 26247.8
 29 06 2013  14 02  -21.0680 26018.5 -03466.7 -07.5893 26248.4
 29 06 2013  14 03  -21.0673 26019.0 -03466.6 -07.5891 26249.0
 29 06 2013  14 04  -21.0667 26019.2 -03466.5 -07.5888 26249.1
 29 06 2013  14 05  -21.0669 26019.5 -03466.5 -07.5886 26249.4
 29 06 2013  14 06  -21.0679 26020.1 -03466.5 -07.5886 26250.0
 29 06 2013  14 07  -21.0686 26020.1 -03466.4 -07.5883 26250.0
 29 06 2013  14 08  -21.0689 26020.1 -03466.3 -07.5880 26250.0
 29 06 2013  14 09  -21.0696 26020.5 -03466.4 -07.5881 26250.4
 29 06 2013  14 10  -21.0700 26021.0 -03466.5 -07.5883 26250.9
 29 06 2013  14 11  -21.0700 26021.5 -03466.6 -07.5883 26251.4
 29 06 2013  14 12  -21.0705 26022.0 -03466.6 -07.5882 26251.9
 29 06 2013  14 13  -21.0712 26022.4 -03466.7 -07.5882 26252.3
 29 06 2013  14 14  -21.0713 26022.2 -03466.4 -07.5877 26252.1
 29 06 2013  14 15  -21.0713 26022.5 -03466.5 -07.5877 26252.3
 29 06 2013  14 16  -21.0712 26023.1 -03466.7 -07.5880 26253.0
 29 06 2013  14 17  -21.0710 26023.9 -03466.9 -07.5882 26253.8
 29 06 2013  14 18  -21.0709 26024.9 -03467.1 -07.5884 26254.8
 29 06 2013  14 19  -21.0706 26025.8 -03467.3 -07.5885 26255.8
 29 06 2013  14 20  -21.0703 26026.6 -03467.3 -07.5884 26256.6
 29 06 2013  14 21  -21.0703 26027.3 -03467.4 -07.5884 26257.2
 29 06 2013  14 22  -21.0703 26028.1 -03467.5 -07.5884 26258.0
 29 06 2013  14 23  -21.0703 26028.9 -03467.6 -07.5883 26258.9
 29 06 2013  14 24  -21.0701 26029.9 -03467.6 -07.5880 26259.8
 29 06 2013  14 25  -21.0701 26030.9 -03467.8 -07.5881 26260.8
 29 06 2013  14 26  -21.0704 26032.0 -03467.9 -07.5882 26262.0
 29 06 2013  14 27  -21.0702 26033.3 -03468.1 -07.5881 26263.3
 29 06 2013  14 28  -21.0701 26034.2 -03468.1 -07.5878 26264.1
 29 06 2013  14 29  -21.0701 26034.9 -03468.0 -07.5874 26264.8
 29 06 2013  14 30  -21.0701 26035.3 -03467.8 -07.5869 26265.3
 29 06 2013  14 31  -21.0696 26035.7 -03467.6 -07.5864 26265.6
 29 06 2013  14 32  -21.0688 26035.6 -03467.3 -07.5857 26265.5
 29 06 2013  14 33  -21.0685 26035.7 -03467.1 -07.5852 26265.6
 29 06 2013  14 34  -21.0679 26036.5 -03467.2 -07.5852 26266.4
 29 06 2013  14 35  -21.0675 26037.9 -03467.6 -07.5857 26267.8
 29 06 2013  14 36  -21.0670 26039.0 -03467.7 -07.5856 26268.9
 29 06 2013  14 37  -21.0665 26039.6 -03467.6 -07.5852 26269.5
 29 06 2013  14 38  -21.0657 26039.9 -03467.3 -07.5845 26269.7
 29 06 2013  14 39  -21.0656 26041.1 -03467.5 -07.5846 26270.9
 29 06 2013  14 40  -21.0651 26041.8 -03467.4 -07.5843 26271.6
 29 06 2013  14 41  -21.0645 26041.7 -03467.1 -07.5835 26271.4
 29 06 2013  14 42  -21.0645 26042.1 -03467.0 -07.5832 26271.8
 29 06 2013  14 43  -21.0651 26043.0 -03467.2 -07.5833 26272.7
 29 06 2013  14 44  -21.0646 26043.2 -03467.0 -07.5829 26272.9
 29 06 2013  14 45  -21.0639 26043.2 -03466.8 -07.5824 26273.0
 29 06 2013  14 46  -21.0636 26043.4 -03466.8 -07.5824 26273.1
 29 06 2013  14 47  -21.0643 26043.4 -03466.8 -07.5824 26273.1
 29 06 2013  14 48  -21.0659 26043.7 -03467.0 -07.5827 26273.4
 29 06 2013  14 49  -21.0672 26043.8 -03467.0 -07.5828 26273.6
 29 06 2013  14 50  -21.0677 26043.6 -03466.9 -07.5826 26273.4
 29 06 2013  14 51  -21.0683 26043.5 -03466.8 -07.5825 26273.2
 29 06 2013  14 52  -21.0685 26044.0 -03467.0 -07.5827 26273.7
 29 06 2013  14 53  -21.0692 26045.0 -03467.4 -07.5833 26274.8
 29 06 2013  14 54  -21.0705 26045.1 -03467.5 -07.5834 26274.9
 29 06 2013  14 55  -21.0709 26044.0 -03466.9 -07.5825 26273.7
 29 06 2013  14 56  -21.0717 26043.3 -03466.8 -07.5824 26273.0
 29 06 2013  14 57  -21.0727 26043.0 -03466.9 -07.5827 26272.8
 29 06 2013  14 58  -21.0732 26042.5 -03466.9 -07.5829 26272.3
 29 06 2013  14 59  -21.0747 26043.1 -03467.4 -07.5838 26272.9
 29 06 2013  15 00  -21.0767 26043.8 -03467.9 -07.5847 26273.7
 29 06 2013  15 01  -21.0791 26044.1 -03468.1 -07.5850 26274.0
 29 06 2013  15 02  -21.0806 26044.3 -03468.0 -07.5848 26274.2
 29 06 2013  15 03  -21.0816 26044.4 -03467.8 -07.5842 26274.2
 29 06 2013  15 04  -21.0823 26044.6 -03467.6 -07.5838 26274.4
 29 06 2013  15 05  -21.0835 26045.0 -03467.5 -07.5835 26274.9
 29 06 2013  15 06  -21.0841 26045.4 -03467.4 -07.5830 26275.2
 29 06 2013  15 07  -21.0852 26045.6 -03467.2 -07.5827 26275.4
 29 06 2013  15 08  -21.0867 26045.9 -03467.0 -07.5822 26275.6
 29 06 2013  15 09  -21.0882 26046.2 -03466.9 -07.5817 26275.9
 29 06 2013  15 10  -21.0887 26046.1 -03466.5 -07.5811 26275.8
 29 06 2013  15 11  -21.0896 26046.6 -03466.5 -07.5809 26276.2
 29 06 2013  15 12  -21.0905 26047.5 -03466.6 -07.5807 26277.2
 29 06 2013  15 13  -21.0904 26047.6 -03466.1 -07.5798 26277.3
 29 06 2013  15 14  -21.0902 26046.5 -03465.3 -07.5782 26276.0
 29 06 2013  15 15  -21.0900 26045.1 -03464.5 -07.5769 26274.5
 29 06 2013  15 16  -21.0900 26043.3 -03463.8 -07.5759 26272.7
 29 06 2013  15 17  -21.0900 26041.2 -03463.2 -07.5753 26270.4
 29 06 2013  15 18  -21.0900 26040.6 -03463.5 -07.5761 26269.9
 29 06 2013  15 19  -21.0904 26041.4 -03464.3 -07.5776 26270.9
 29 06 2013  15 20  -21.0905 26042.5 -03465.1 -07.5789 26272.0
 29 06 2013  15 21  -21.0898 26042.9 -03465.3 -07.5793 26272.4
 29 06 2013  15 22  -21.0894 26043.4 -03465.6 -07.5797 26273.0
 29 06 2013  15 23  -21.0893 26043.6 -03465.7 -07.5801 26273.2
 29 06 2013  15 24  -21.0896 26042.9 -03465.6 -07.5799 26272.5
 29 06 2013  15 25  -21.0898 26041.0 -03465.0 -07.5793 26270.6
 29 06 2013  15 26  -21.0900 26038.1 -03464.4 -07.5787 26267.6
 29 06 2013  15 27  -21.0900 26035.1 -03464.0 -07.5788 26264.5
 29 06 2013  15 28  -21.0904 26032.4 -03464.1 -07.5796 26261.8
 29 06 2013  15 29  -21.0905 26030.6 -03464.5 -07.5810 26260.1
 29 06 2013  15 30  -21.0903 26029.3 -03465.1 -07.5828 26258.9
 29 06 2013  15 31  -21.0902 26028.5 -03465.8 -07.5846 26258.2
 29 06 2013  15 32  -21.0904 26028.4 -03466.8 -07.5867 26258.2
 29 06 2013  15 33  -21.0910 26028.5 -03467.7 -07.5886 26258.5
 29 06 2013  15 34  -21.0918 26028.6 -03468.3 -07.5900 26258.7
 29 06 2013  15 35  -21.0922 26028.2 -03468.7 -07.5909 26258.3
 29 06 2013  15 36  -21.0918 26027.3 -03468.9 -07.5915 26257.5
 29 06 2013  15 37  -21.0916 26026.6 -03469.1 -07.5922 26256.8
 29 06 2013  15 38  -21.0912 26026.0 -03469.3 -07.5928 26256.2
 29 06 2013  15 39  -21.0907 26025.8 -03469.7 -07.5938 26256.1
 29 06 2013  15 40  -21.0902 26025.6 -03470.1 -07.5946 26256.0
 29 06 2013  15 41  -21.0900 26025.4 -03470.4 -07.5953 26255.8
 29 06 2013  15 42  -21.0902 26025.4 -03470.7 -07.5961 26255.8
 29 06 2013  15 43  -21.0905 26025.4 -03471.1 -07.5968 26255.8
 29 06 2013  15 44  -21.0908 26025.7 -03471.4 -07.5975 26256.2
 29 06 2013  15 45  -21.0905 26026.1 -03471.7 -07.5980 26256.6
 29 06 2013  15 46  -21.0910 26026.9 -03472.1 -07.5987 26257.4
 29 06 2013  15 47  -21.0914 26027.4 -03472.4 -07.5991 26258.0
 29 06 2013  15 48  -21.0914 26027.7 -03472.4 -07.5991 26258.3
 29 06 2013  15 49  -21.0908 26027.8 -03472.5 -07.5991 26258.4
 29 06 2013  15 50  -21.0907 26028.0 -03472.6 -07.5994 26258.6
 29 06 2013  15 51  -21.0905 26028.4 -03472.8 -07.5996 26259.0
 29 06 2013  15 52  -21.0903 26028.6 -03472.8 -07.5998 26259.2
 29 06 2013  15 53  -21.0898 26028.8 -03472.9 -07.5998 26259.5
 29 06 2013  15 54  -21.0895 26029.3 -03473.1 -07.6001 26260.0
 29 06 2013  15 55  -21.0902 26030.1 -03473.4 -07.6006 26260.8
 29 06 2013  15 56  -21.0911 26030.7 -03473.6 -07.6007 26261.5
 29 06 2013  15 57  -21.0920 26031.1 -03473.6 -07.6006 26261.9
 29 06 2013  15 58  -21.0925 26031.2 -03473.3 -07.6000 26261.9
 29 06 2013  15 59  -21.0933 26031.5 -03473.2 -07.5997 26262.2
 29 06 2013  16 00  -21.0937 26031.7 -03473.0 -07.5993 26262.4
 29 06 2013  16 01  -21.0938 26032.1 -03472.9 -07.5989 26262.7
 29 06 2013  16 02  -21.0937 26032.4 -03472.9 -07.5987 26263.0
 29 06 2013  16 03  -21.0934 26032.6 -03472.7 -07.5984 26263.2
 29 06 2013  16 04  -21.0940 26033.0 -03472.8 -07.5984 26263.6
 29 06 2013  16 05  -21.0946 26033.6 -03472.9 -07.5984 26264.2
 29 06 2013  16 06  -21.0954 26034.2 -03472.9 -07.5983 26264.8
 29 06 2013  16 07  -21.0955 26034.4 -03472.7 -07.5977 26265.0
 29 06 2013  16 08  -21.0960 26034.5 -03472.4 -07.5971 26265.0
 29 06 2013  16 09  -21.0964 26034.3 -03472.1 -07.5964 26264.8
 29 06 2013  16 10  -21.0968 26034.1 -03471.7 -07.5958 26264.6
 29 06 2013  16 11  -21.0973 26033.6 -03471.3 -07.5950 26264.0
 29 06 2013  16 12  -21.0976 26033.5 -03471.0 -07.5943 26263.8
 29 06 2013  16 13  -21.0980 26033.4 -03470.7 -07.5937 26263.7
 29 06 2013  16 14  -21.0989 26033.5 -03470.5 -07.5932 26263.8
 29 06 2013  16 15  -21.1000 26033.5 -03470.1 -07.5923 26263.7
 29 06 2013  16 16  -21.1000 26033.2 -03469.5 -07.5911 26263.4
 29 06 2013  16 17  -21.1004 26033.9 -03469.4 -07.5907 26264.0
 29 06 2013  16 18  -21.1019 26035.0 -03469.5 -07.5908 26265.1
 29 06 2013  16 19  -21.1028 26035.6 -03469.4 -07.5902 26265.8
 29 06 2013  16 20  -21.1039 26036.7 -03469.3 -07.5898 26266.8
 29 06 2013  16 21  -21.1045 26037.0 -03468.9 -07.5889 26267.1
 29 06 2013  16 22  -21.1045 26036.6 -03468.3 -07.5875 26266.6
 29 06 2013  16 23  -21.1045 26036.2 -03467.7 -07.5864 26266.1
 29 06 2013  16 24  -21.1041 26035.7 -03467.1 -07.5854 26265.5
 29 06 2013  16 25  -21.1039 26035.1 -03466.7 -07.5845 26264.9
 29 06 2013  16 26  -21.1044 26034.7 -03466.4 -07.5841 26264.4
 29 06 2013  16 27  -21.1050 26034.5 -03466.2 -07.5836 26264.3
 29 06 2013  16 28  -21.1051 26034.3 -03465.9 -07.5831 26264.0
 29 06 2013  16 29  -21.1051 26034.7 -03465.8 -07.5828 26264.4
 29 06 2013  16 30  -21.1064 26035.4 -03465.9 -07.5829 26265.1
 29 06 2013  16 31  -21.1072 26036.0 -03465.9 -07.5826 26265.7
 29 06 2013  16 32  -21.1083 26036.6 -03465.8 -07.5823 26266.3
 29 06 2013  16 33  -21.1088 26036.9 -03465.5 -07.5815 26266.5
 29 06 2013  16 34  -21.1090 26036.8 -03465.1 -07.5806 26266.4
 29 06 2013  16 35  -21.1103 26036.8 -03464.8 -07.5800 26266.3
 29 06 2013  16 36  -21.1120 26036.7 -03464.5 -07.5794 26266.2
 29 06 2013  16 37  -21.1128 26036.1 -03464.0 -07.5785 26265.6
 29 06 2013  16 38  -21.1127 26035.2 -03463.4 -07.5774 26264.5
 29 06 2013  16 39  -21.1126 26034.3 -03462.9 -07.5766 26263.6
 29 06 2013  16 40  -21.1131 26034.0 -03462.7 -07.5763 26263.3
 29 06 2013  16 41  -21.1142 26033.7 -03462.6 -07.5760 26262.9
 29 06 2013  16 42  -21.1145 26033.0 -03462.2 -07.5754 26262.2
 29 06 2013  16 43  -21.1153 26032.8 -03462.1 -07.5752 26262.0
 29 06 2013  16 44  -21.1151 26032.6 -03461.8 -07.5748 26261.8
 29 06 2013  16 45  -21.1155 26032.7 -03461.8 -07.5747 26261.9
 29 06 2013  16 46  -21.1155 26033.0 -03461.8 -07.5747 26262.2
 29 06 2013  16 47  -21.1161 26033.2 -03461.8 -07.5746 26262.4
 29 06 2013  16 48  -21.1167 26033.7 -03461.8 -07.5743 26262.9
 29 06 2013  16 49  -21.1179 26034.6 -03461.9 -07.5743 26263.8
 29 06 2013  16 50  -21.1177 26034.5 -03461.4 -07.5734 26263.6
 29 06 2013  16 51  -21.1174 26033.9 -03460.9 -07.5723 26263.0
 29 06 2013  16 52  -21.1174 26033.2 -03460.3 -07.5714 26262.1
 29 06 2013  16 53  -21.1163 26032.0 -03459.7 -07.5703 26260.9
 29 06 2013  16 54  -21.1164 26031.5 -03459.6 -07.5703 26260.3
 29 06 2013  16 55  -21.1175 26031.0 -03459.7 -07.5706 26259.9
 29 06 2013  16 56  -21.1182 26030.8 -03459.7 -07.5706 26259.7
 29 06 2013  16 57  -21.1191 26030.5 -03459.6 -07.5706 26259.4
 29 06 2013  16 58  -21.1199 26030.6 -03459.6 -07.5706 26259.5
 29 06 2013  16 59  -21.1193 26030.1 -03459.4 -07.5701 26259.0
 29 06 2013  17 00  -21.1189 26029.7 -03459.2 -07.5699 26258.5
 29 06 2013  17 01  -21.1192 26028.9 -03459.0 -07.5697 26257.7
 29 06 2013  17 02  -21.1193 26027.9 -03458.8 -07.5696 26256.7
 29 06 2013  17 03  -21.1195 26027.1 -03458.7 -07.5696 26255.9
 29 06 2013  17 04  -21.1196 26026.9 -03458.8 -07.5699 26255.7
 29 06 2013  17 05  -21.1194 26026.6 -03459.0 -07.5703 26255.5
 29 06 2013  17 06  -21.1194 26026.2 -03459.0 -07.5704 26255.1
 29 06 2013  17 07  -21.1193 26025.3 -03458.7 -07.5702 26254.2
 29 06 2013  17 08  -21.1201 26024.9 -03458.8 -07.5704 26253.7
 29 06 2013  17 09  -21.1192 26024.0 -03458.6 -07.5702 26252.8
 29 06 2013  17 10  -21.1178 26022.9 -03458.4 -07.5701 26251.6
 29 06 2013  17 11  -21.1184 26023.4 -03459.0 -07.5713 26252.3
 29 06 2013  17 12  -21.1193 26024.3 -03459.6 -07.5722 26253.2
 29 06 2013  17 13  -21.1195 26024.7 -03459.7 -07.5724 26253.6
 29 06 2013  17 14  -21.1205 26024.8 -03459.6 -07.5723 26253.8
 29 06 2013  17 15  -21.1206 26024.4 -03459.3 -07.5716 26253.3
 29 06 2013  17 16  -21.1203 26023.6 -03458.8 -07.5709 26252.4
 29 06 2013  17 17  -21.1194 26022.8 -03458.5 -07.5704 26251.7
 29 06 2013  17 18  -21.1192 26022.7 -03458.5 -07.5705 26251.5
 29 06 2013  17 19  -21.1196 26022.7 -03458.6 -07.5707 26251.6
 29 06 2013  17 20  -21.1200 26022.7 -03458.7 -07.5708 26251.5
 29 06 2013  17 21  -21.1208 26023.0 -03458.8 -07.5710 26251.9
 29 06 2013  17 22  -21.1207 26023.2 -03458.7 -07.5708 26252.1
 29 06 2013  17 23  -21.1206 26023.4 -03458.7 -07.5706 26252.2
 29 06 2013  17 24  -21.1209 26023.8 -03458.8 -07.5707 26252.6
 29 06 2013  17 25  -21.1209 26024.0 -03458.7 -07.5705 26252.8
 29 06 2013  17 26  -21.1200 26023.6 -03458.4 -07.5699 26252.4
 29 06 2013  17 27  -21.1190 26022.6 -03457.9 -07.5690 26251.3
 29 06 2013  17 28  -21.1184 26021.5 -03457.5 -07.5686 26250.2
 29 06 2013  17 29  -21.1181 26020.4 -03457.2 -07.5683 26249.1
 29 06 2013  17 30  -21.1180 26019.8 -03457.2 -07.5684 26248.5
 29 06 2013  17 31  -21.1182 26019.4 -03457.3 -07.5687 26248.1
 29 06 2013  17 32  -21.1187 26019.4 -03457.4 -07.5691 26248.1
 29 06 2013  17 33  -21.1189 26019.4 -03457.5 -07.5693 26248.2
 29 06 2013  17 34  -21.1188 26019.5 -03457.5 -07.5693 26248.2
 29 06 2013  17 35  -21.1185 26019.3 -03457.5 -07.5693 26248.0
 29 06 2013  17 36  -21.1185 26019.0 -03457.6 -07.5695 26247.7
 29 06 2013  17 37  -21.1188 26019.4 -03457.8 -07.5699 26248.1
 29 06 2013  17 38  -21.1187 26019.7 -03458.0 -07.5703 26248.5
 29 06 2013  17 39  -21.1185 26019.6 -03458.0 -07.5703 26248.4
 29 06 2013  17 40  -21.1181 26019.3 -03457.9 -07.5702 26248.1
 29 06 2013  17 41  -21.1176 26018.9 -03457.8 -07.5700 26247.7
 29 06 2013  17 42  -21.1168 26018.6 -03457.8 -07.5701 26247.3
 29 06 2013  17 43  -21.1164 26018.4 -03457.9 -07.5703 26247.2
 29 06 2013  17 44  -21.1159 26017.9 -03457.9 -07.5706 26246.6
 29 06 2013  17 45  -21.1158 26017.8 -03458.1 -07.5710 26246.6
 29 06 2013  17 46  -21.1154 26017.8 -03458.3 -07.5714 26246.6
 29 06 2013  17 47  -21.1146 26017.4 -03458.3 -07.5714 26246.2
 29 06 2013  17 48  -21.1138 26016.9 -03458.3 -07.5716 26245.8
 29 06 2013  17 49  -21.1135 26016.3 -03458.3 -07.5719 26245.2
 29 06 2013  17 50  -21.1132 26015.8 -03458.4 -07.5723 26244.7
 29 06 2013  17 51  -21.1128 26015.3 -03458.5 -07.5726 26244.2
 29 06 2013  17 52  -21.1127 26014.6 -03458.6 -07.5730 26243.5
 29 06 2013  17 53  -21.1120 26014.2 -03458.7 -07.5733 26243.1
 29 06 2013  17 54  -21.1121 26014.1 -03459.0 -07.5739 26243.0
 29 06 2013  17 55  -21.1125 26014.0 -03459.2 -07.5745 26243.0
 29 06 2013  17 56  -21.1130 26014.1 -03459.5 -07.5750 26243.2
 29 06 2013  17 57  -21.1134 26014.3 -03459.7 -07.5755 26243.4
 29 06 2013  17 58  -21.1132 26014.3 -03459.9 -07.5758 26243.4
 29 06 2013  17 59  -21.1129 26014.1 -03460.0 -07.5761 26243.2
 29 06 2013  18 00  -21.1123 26013.7 -03460.0 -07.5763 26242.8
 29 06 2013  18 01  -21.1121 26013.3 -03460.2 -07.5767 26242.5
 29 06 2013  18 02  -21.1121 26013.0 -03460.3 -07.5772 26242.2
 29 06 2013  18 03  -21.1119 26012.8 -03460.5 -07.5775 26241.9
 29 06 2013  18 04  -21.1115 26012.5 -03460.5 -07.5777 26241.7
 29 06 2013  18 05  -21.1112 26012.2 -03460.6 -07.5780 26241.4
 29 06 2013  18 06  -21.1106 26011.7 -03460.6 -07.5781 26240.9
 29 06 2013  18 07  -21.1107 26011.4 -03460.7 -07.5784 26240.6
 29 06 2013  18 08  -21.1108 26011.4 -03460.9 -07.5789 26240.7
 29 06 2013  18 09  -21.1114 26011.8 -03461.2 -07.5794 26241.1
 29 06 2013  18 10  -21.1115 26012.1 -03461.3 -07.5795 26241.4
 29 06 2013  18 11  -21.1118 26012.2 -03461.3 -07.5795 26241.4
 29 06 2013  18 12  -21.1123 26012.3 -03461.3 -07.5794 26241.6
 29 06 2013  18 13  -21.1128 26012.8 -03461.3 -07.5794 26242.1
 29 06 2013  18 14  -21.1135 26013.4 -03461.5 -07.5795 26242.6
 29 06 2013  18 15  -21.1145 26013.8 -03461.5 -07.5794 26243.1
 29 06 2013  18 16  -21.1143 26013.6 -03461.2 -07.5789 26242.9
 29 06 2013  18 17  -21.1142 26013.6 -03461.0 -07.5785 26242.8
 29 06 2013  18 18  -21.1144 26013.6 -03460.9 -07.5783 26242.8
 29 06 2013  18 19  -21.1146 26013.4 -03460.8 -07.5780 26242.6
 29 06 2013  18 20  -21.1148 26013.2 -03460.6 -07.5776 26242.4
 29 06 2013  18 21  -21.1148 26013.2 -03460.5 -07.5775 26242.3
 29 06 2013  18 22  -21.1149 26013.0 -03460.4 -07.5773 26242.2
 29 06 2013  18 23  -21.1156 26013.2 -03460.5 -07.5774 26242.3
 29 06 2013  18 24  -21.1162 26013.5 -03460.6 -07.5776 26242.7
 29 06 2013  18 25  -21.1167 26013.7 -03460.7 -07.5777 26242.9
 29 06 2013  18 26  -21.1170 26013.6 -03460.6 -07.5777 26242.8
 29 06 2013  18 27  -21.1180 26014.2 -03460.8 -07.5780 26243.4
 29 06 2013  18 28  -21.1188 26015.1 -03461.1 -07.5783 26244.4
 29 06 2013  18 29  -21.1188 26015.8 -03461.2 -07.5781 26245.0
 29 06 2013  18 30  -21.1197 26016.5 -03461.2 -07.5780 26245.7
 29 06 2013  18 31  -21.1207 26017.0 -03461.0 -07.5775 26246.2
 29 06 2013  18 32  -21.1214 26017.1 -03460.6 -07.5766 26246.3
 29 06 2013  18 33  -21.1226 26016.7 -03460.0 -07.5753 26245.7
 29 06 2013  18 34  -21.1233 26016.0 -03459.3 -07.5740 26245.0
 29 06 2013  18 35  -21.1233 26014.9 -03458.6 -07.5728 26243.8
 29 06 2013  18 36  -21.1229 26013.2 -03457.8 -07.5716 26242.1
 29 06 2013  18 37  -21.1231 26012.0 -03457.4 -07.5710 26240.7
 29 06 2013  18 38  -21.1231 26010.9 -03457.1 -07.5708 26239.6
 29 06 2013  18 39  -21.1234 26010.0 -03457.0 -07.5707 26238.8
 29 06 2013  18 40  -21.1239 26009.6 -03457.0 -07.5710 26238.3
 29 06 2013  18 41  -21.1242 26009.3 -03457.1 -07.5712 26238.1
 29 06 2013  18 42  -21.1234 26009.2 -03457.2 -07.5714 26238.0
 29 06 2013  18 43  -21.1251 26010.1 -03457.7 -07.5723 26239.0
 29 06 2013  18 44  -21.1260 26011.1 -03458.0 -07.5727 26240.0
 29 06 2013  18 45  -21.1265 26012.1 -03458.2 -07.5729 26240.9
 29 06 2013  18 46  -21.1272 26013.2 -03458.5 -07.5731 26242.1
 29 06 2013  18 47  -21.1276 26013.8 -03458.5 -07.5730 26242.6
 29 06 2013  18 48  -21.1279 26014.0 -03458.4 -07.5727 26242.9
 29 06 2013  18 49  -21.1278 26013.9 -03458.2 -07.5723 26242.8
 29 06 2013  18 50  -21.1286 26013.7 -03458.0 -07.5720 26242.5
 29 06 2013  18 51  -21.1291 26013.2 -03457.7 -07.5713 26241.9
 29 06 2013  18 52  -21.1298 26013.0 -03457.5 -07.5710 26241.7
 29 06 2013  18 53  -21.1299 26012.5 -03457.2 -07.5705 26241.2
 29 06 2013  18 54  -21.1300 26012.1 -03456.9 -07.5701 26240.8
 29 06 2013  18 55  -21.1301 26011.5 -03456.6 -07.5696 26240.2
 29 06 2013  18 56  -21.1303 26011.1 -03456.4 -07.5692 26239.8
 29 06 2013  18 57  -21.1299 26010.7 -03456.2 -07.5688 26239.3
 29 06 2013  18 58  -21.1298 26010.2 -03455.9 -07.5685 26238.8
 29 06 2013  18 59  -21.1295 26009.5 -03455.6 -07.5679 26238.1
 29 06 2013  19 00  -21.1295 26009.3 -03455.4 -07.5676 26237.8
 29 06 2013  19 01  -21.1295 26009.3 -03455.3 -07.5673 26237.8
 29 06 2013  19 02  -21.1300 26009.2 -03455.1 -07.5669 26237.7
 29 06 2013  19 03  -21.1300 26008.9 -03454.7 -07.5663 26237.3
 29 06 2013  19 04  -21.1302 26008.5 -03454.4 -07.5656 26236.9
 29 06 2013  19 05  -21.1298 26008.2 -03454.0 -07.5649 26236.5
 29 06 2013  19 06  -21.1295 26008.2 -03453.9 -07.5645 26236.6
 29 06 2013  19 07  -21.1291 26008.1 -03453.6 -07.5641 26236.4
 29 06 2013  19 08  -21.1291 26007.8 -03453.4 -07.5637 26236.1
 29 06 2013  19 09  -21.1293 26007.7 -03453.2 -07.5634 26235.9
 29 06 2013  19 10  -21.1296 26007.7 -03453.1 -07.5630 26235.9
 29 06 2013  19 11  -21.1291 26007.1 -03452.7 -07.5622 26235.3
 29 06 2013  19 12  -21.1285 26006.5 -03452.2 -07.5615 26234.6
 29 06 2013  19 13  -21.1286 26006.3 -03452.0 -07.5612 26234.4
 29 06 2013  19 14  -21.1291 26006.6 -03452.1 -07.5612 26234.7
 29 06 2013  19 15  -21.1295 26006.7 -03452.0 -07.5609 26234.8
 29 06 2013  19 16  -21.1292 26006.0 -03451.5 -07.5599 26234.1
 29 06 2013  19 17  -21.1289 26004.9 -03450.8 -07.5588 26232.8
 29 06 2013  19 18  -21.1290 26004.1 -03450.3 -07.5580 26232.0
 29 06 2013  19 19  -21.1289 26003.7 -03450.0 -07.5576 26231.6
 29 06 2013  19 20  -21.1281 26002.9 -03449.6 -07.5569 26230.7
 29 06 2013  19 21  -21.1277 26002.2 -03449.4 -07.5566 26230.0
 29 06 2013  19 22  -21.1273 26001.7 -03449.2 -07.5563 26229.4
 29 06 2013  19 23  -21.1271 26001.3 -03449.1 -07.5562 26229.0
 29 06 2013  19 24  -21.1267 26000.5 -03448.8 -07.5559 26228.2
 29 06 2013  19 25  -21.1261 25999.6 -03448.5 -07.5555 26227.3
 29 06 2013  19 26  -21.1254 25998.9 -03448.3 -07.5551 26226.6
 29 06 2013  19 27  -21.1253 25998.7 -03448.3 -07.5553 26226.4
 29 06 2013  19 28  -21.1254 25998.7 -03448.4 -07.5555 26226.4
 29 06 2013  19 29  -21.1253 25998.9 -03448.5 -07.5557 26226.6
 29 06 2013  19 30  -21.1248 25998.8 -03448.6 -07.5558 26226.6
 29 06 2013  19 31  -21.1243 25998.6 -03448.5 -07.5557 26226.3
 29 06 2013  19 32  -21.1238 25998.4 -03448.5 -07.5557 26226.1
 29 06 2013  19 33  -21.1239 25998.3 -03448.5 -07.5557 26226.0
 29 06 2013  19 34  -21.1238 25997.9 -03448.3 -07.5554 26225.6
 29 06 2013  19 35  -21.1232 25997.5 -03448.1 -07.5551 26225.2
 29 06 2013  19 36  -21.1223 25997.2 -03448.0 -07.5549 26224.8
 29 06 2013  19 37  -21.1215 25996.5 -03447.7 -07.5546 26224.1
 29 06 2013  19 38  -21.1210 25995.7 -03447.5 -07.5543 26223.3
 29 06 2013  19 39  -21.1207 25995.1 -03447.4 -07.5543 26222.7
 29 06 2013  19 40  -21.1203 25994.5 -03447.3 -07.5543 26222.1
 29 06 2013  19 41  -21.1201 25993.7 -03447.1 -07.5541 26221.3
 29 06 2013  19 42  -21.1200 25993.0 -03447.0 -07.5541 26220.6
 29 06 2013  19 43  -21.1198 25992.4 -03447.0 -07.5542 26219.9
 29 06 2013  19 44  -21.1194 25991.7 -03446.9 -07.5543 26219.3
 29 06 2013  19 45  -21.1192 25991.3 -03447.0 -07.5544 26218.9
 29 06 2013  19 46  -21.1192 25990.7 -03446.8 -07.5543 26218.3
 29 06 2013  19 47  -21.1188 25989.7 -03446.5 -07.5539 26217.3
 29 06 2013  19 48  -21.1185 25989.3 -03446.5 -07.5540 26216.8
 29 06 2013  19 49  -21.1181 25989.1 -03446.5 -07.5540 26216.6
 29 06 2013  19 50  -21.1176 25989.1 -03446.6 -07.5542 26216.6
 29 06 2013  19 51  -21.1169 25989.2 -03446.6 -07.5544 26216.8
 29 06 2013  19 52  -21.1167 25989.3 -03446.7 -07.5545 26216.8
 29 06 2013  19 53  -21.1166 25988.9 -03446.6 -07.5544 26216.5
 29 06 2013  19 54  -21.1159 25988.1 -03446.2 -07.5538 26215.6
 29 06 2013  19 55  -21.1152 25987.5 -03445.9 -07.5533 26215.0
 29 06 2013  19 56  -21.1146 25986.6 -03445.7 -07.5530 26214.1
 29 06 2013  19 57  -21.1140 25985.8 -03445.4 -07.5526 26213.3
 29 06 2013  19 58  -21.1131 25985.5 -03445.3 -07.5526 26212.9
 29 06 2013  19 59  -21.1125 25985.0 -03445.3 -07.5526 26212.4
 29 06 2013  20 00  -21.1123 25984.8 -03445.3 -07.5527 26212.2
 29 06 2013  20 01  -21.1118 25984.5 -03445.3 -07.5528 26211.9
 29 06 2013  20 02  -21.1117 25984.3 -03445.4 -07.5530 26211.8
 29 06 2013  20 03  -21.1115 25984.1 -03445.4 -07.5532 26211.5
 29 06 2013  20 04  -21.1107 25983.4 -03445.2 -07.5529 26210.8
 29 06 2013  20 05  -21.1101 25982.8 -03445.1 -07.5528 26210.2
 29 06 2013  20 06  -21.1100 25982.7 -03445.2 -07.5531 26210.1
 29 06 2013  20 07  -21.1102 25982.7 -03445.4 -07.5536 26210.2
 29 06 2013  20 08  -21.1100 25982.8 -03445.6 -07.5540 26210.3
 29 06 2013  20 09  -21.1102 25982.9 -03445.9 -07.5546 26210.4
 29 06 2013  20 10  -21.1108 25982.4 -03445.9 -07.5547 26209.9
 29 06 2013  20 11  -21.1105 25981.6 -03445.8 -07.5546 26209.1
 29 06 2013  20 12  -21.1101 25980.9 -03445.6 -07.5544 26208.4
 29 06 2013  20 13  -21.1096 25980.4 -03445.5 -07.5544 26207.8
 29 06 2013  20 14  -21.1089 25979.6 -03445.4 -07.5543 26207.1
 29 06 2013  20 15  -21.1083 25978.6 -03445.2 -07.5543 26206.0
 29 06 2013  20 16  -21.1076 25977.8 -03445.1 -07.5542 26205.2
 29 06 2013  20 17  -21.1073 25977.3 -03445.1 -07.5546 26204.7
 29 06 2013  20 18  -21.1081 25977.4 -03445.5 -07.5552 26204.9
 29 06 2013  20 19  -21.1077 25977.5 -03445.8 -07.5559 26205.1
 29 06 2013  20 20  -21.1080 25977.8 -03446.2 -07.5566 26205.4
 29 06 2013  20 21  -21.1081 25978.4 -03446.6 -07.5573 26206.0
 29 06 2013  20 22  -21.1081 25979.0 -03447.1 -07.5582 26206.7
 29 06 2013  20 23  -21.1075 25979.6 -03447.4 -07.5588 26207.3
 29 06 2013  20 24  -21.1071 25980.1 -03447.8 -07.5594 26207.9
 29 06 2013  20 25  -21.1060 25979.8 -03447.7 -07.5594 26207.6
 29 06 2013  20 26  -21.1047 25979.5 -03447.7 -07.5594 26207.3
 29 06 2013  20 27  -21.1044 25979.9 -03448.0 -07.5600 26207.7
 29 06 2013  20 28  -21.1042 25980.0 -03448.3 -07.5606 26207.8
 29 06 2013  20 29  -21.1036 25980.3 -03448.7 -07.5613 26208.2
 29 06 2013  20 30  -21.1032 25980.7 -03449.0 -07.5619 26208.6
 29 06 2013  20 31  -21.1024 25980.7 -03449.2 -07.5623 26208.7
 29 06 2013  20 32  -21.1020 25981.4 -03449.5 -07.5628 26209.4
 29 06 2013  20 33  -21.1015 25982.0 -03449.9 -07.5634 26210.1
 29 06 2013  20 34  -21.1008 25982.2 -03450.0 -07.5637 26210.3
 29 06 2013  20 35  -21.1000 25982.1 -03450.1 -07.5639 26210.2
 29 06 2013  20 36  -21.0992 25982.0 -03450.1 -07.5639 26210.0
 29 06 2013  20 37  -21.0986 25982.4 -03450.4 -07.5644 26210.5
 29 06 2013  20 38  -21.0976 25983.0 -03450.7 -07.5650 26211.2
 29 06 2013  20 39  -21.0971 25983.2 -03450.9 -07.5653 26211.3
 29 06 2013  20 40  -21.0963 25983.4 -03451.0 -07.5656 26211.6
 29 06 2013  20 41  -21.0957 25983.7 -03451.3 -07.5661 26211.9
 29 06 2013  20 42  -21.0949 25983.5 -03451.4 -07.5663 26211.7
 29 06 2013  20 43  -21.0940 25983.2 -03451.3 -07.5663 26211.4
 29 06 2013  20 44  -21.0933 25983.0 -03451.3 -07.5663 26211.2
 29 06 2013  20 45  -21.0925 25982.8 -03451.3 -07.5664 26211.0
 29 06 2013  20 46  -21.0919 25982.5 -03451.4 -07.5666 26210.8
 29 06 2013  20 47  -21.0913 25982.2 -03451.4 -07.5667 26210.4
 29 06 2013  20 48  -21.0918 25982.3 -03451.5 -07.5670 26210.5
 29 06 2013  20 49  -21.0923 25982.0 -03451.6 -07.5672 26210.2
 29 06 2013  20 50  -21.0928 25981.9 -03451.8 -07.5677 26210.1
 29 06 2013  20 51  -21.0930 25981.8 -03452.0 -07.5681 26210.1
 29 06 2013  20 52  -21.0930 25980.7 -03451.6 -07.5676 26209.0
 29 06 2013  20 53  -21.0929 25980.0 -03451.4 -07.5673 26208.3
 29 06 2013  20 54  -21.0932 25979.5 -03451.4 -07.5674 26207.8
 29 06 2013  20 55  -21.0936 25979.8 -03451.6 -07.5677 26208.0
 29 06 2013  20 56  -21.0936 25980.0 -03451.8 -07.5682 26208.3
 29 06 2013  20 57  -21.0932 25980.0 -03451.8 -07.5683 26208.4
 29 06 2013  20 58  -21.0923 25980.0 -03451.8 -07.5682 26208.3
 29 06 2013  20 59  -21.0913 25980.3 -03451.9 -07.5683 26208.6
 29 06 2013  21 00  -21.0904 25980.5 -03452.0 -07.5686 26208.8
 29 06 2013  21 01  -21.0894 25980.5 -03452.1 -07.5686 26208.9
 29 06 2013  21 02  -21.0886 25980.4 -03452.0 -07.5686 26208.7
 29 06 2013  21 03  -21.0877 25980.1 -03451.9 -07.5684 26208.4
 29 06 2013  21 04  -21.0865 25980.0 -03451.9 -07.5685 26208.3
 29 06 2013  21 05  -21.0858 25980.0 -03452.0 -07.5686 26208.4
 29 06 2013  21 06  -21.0855 25980.1 -03452.1 -07.5688 26208.4
 29 06 2013  21 07  -21.0854 25980.2 -03452.2 -07.5691 26208.6
 29 06 2013  21 08  -21.0852 25980.3 -03452.4 -07.5693 26208.7
 29 06 2013  21 09  -21.0850 25980.1 -03452.3 -07.5693 26208.5
 29 06 2013  21 10  -21.0840 25979.9 -03452.3 -07.5693 26208.3
 29 06 2013  21 11  -21.0833 25979.7 -03452.3 -07.5693 26208.1
 29 06 2013  21 12  -21.0831 25979.7 -03452.3 -07.5694 26208.1
 29 06 2013  21 13  -21.0826 25980.0 -03452.5 -07.5696 26208.4
 29 06 2013  21 14  -21.0824 25980.1 -03452.6 -07.5699 26208.5
 29 06 2013  21 15  -21.0823 25980.2 -03452.7 -07.5701 26208.6
 29 06 2013  21 16  -21.0823 25980.3 -03452.8 -07.5703 26208.7
 29 06 2013  21 17  -21.0822 25980.5 -03452.9 -07.5705 26208.9
 29 06 2013  21 18  -21.0817 25980.6 -03453.0 -07.5706 26209.0
 29 06 2013  21 19  -21.0811 25980.9 -03453.1 -07.5708 26209.4
 29 06 2013  21 20  -21.0804 25981.4 -03453.4 -07.5712 26209.9
 29 06 2013  21 21  -21.0797 25981.7 -03453.6 -07.5715 26210.2
 29 06 2013  21 22  -21.0788 25982.0 -03453.7 -07.5718 26210.5
 29 06 2013  21 23  -21.0780 25981.9 -03453.7 -07.5717 26210.4
 29 06 2013  21 24  -21.0770 25982.0 -03453.7 -07.5718 26210.5
 29 06 2013  21 25  -21.0760 25981.9 -03453.7 -07.5718 26210.4
 29 06 2013  21 26  -21.0749 25982.0 -03453.9 -07.5721 26210.6
 29 06 2013  21 27  -21.0740 25982.4 -03454.1 -07.5725 26211.0
 29 06 2013  21 28  -21.0731 25982.8 -03454.4 -07.5730 26211.5
 29 06 2013  21 29  -21.0726 25983.1 -03454.6 -07.5734 26211.8
 29 06 2013  21 30  -21.0719 25983.6 -03454.9 -07.5739 26212.3
 29 06 2013  21 31  -21.0714 25984.1 -03455.2 -07.5744 26212.8
 29 06 2013  21 32  -21.0709 25984.5 -03455.4 -07.5747 26213.2
 29 06 2013  21 33  -21.0705 25984.7 -03455.6 -07.5750 26213.5
 29 06 2013  21 34  -21.0702 25984.7 -03455.6 -07.5751 26213.4
 29 06 2013  21 35  -21.0699 25984.6 -03455.6 -07.5750 26213.4
 29 06 2013  21 36  -21.0695 25984.6 -03455.6 -07.5751 26213.3
 29 06 2013  21 37  -21.0690 25984.5 -03455.6 -07.5751 26213.2
 29 06 2013  21 38  -21.0687 25984.5 -03455.6 -07.5751 26213.2
 29 06 2013  21 39  -21.0682 25984.5 -03455.6 -07.5752 26213.2
 29 06 2013  21 40  -21.0677 25984.4 -03455.7 -07.5753 26213.2
 29 06 2013  21 41  -21.0672 25984.4 -03455.7 -07.5753 26213.2
 29 06 2013  21 42  -21.0671 25984.4 -03455.8 -07.5755 26213.2
 29 06 2013  21 43  -21.0669 25984.5 -03455.9 -07.5757 26213.4
 29 06 2013  21 44  -21.0669 25984.7 -03456.0 -07.5760 26213.5
 29 06 2013  21 45  -21.0667 25984.7 -03456.1 -07.5762 26213.6
 29 06 2013  21 46  -21.0666 25984.8 -03456.2 -07.5763 26213.6
 29 06 2013  21 47  -21.0666 25984.7 -03456.2 -07.5763 26213.6
 29 06 2013  21 48  -21.0669 25984.7 -03456.2 -07.5764 26213.6
 29 06 2013  21 49  -21.0670 25984.7 -03456.2 -07.5764 26213.5
 29 06 2013  21 50  -21.0669 25984.7 -03456.3 -07.5765 26213.5
 29 06 2013  21 51  -21.0669 25984.7 -03456.3 -07.5766 26213.6
 29 06 2013  21 52  -21.0674 25984.9 -03456.4 -07.5768 26213.8
 29 06 2013  21 53  -21.0676 25985.1 -03456.5 -07.5770 26214.0
 29 06 2013  21 54  -21.0678 25985.4 -03456.7 -07.5772 26214.3
 29 06 2013  21 55  -21.0682 25986.0 -03456.9 -07.5776 26214.9
 29 06 2013  21 56  -21.0686 25986.7 -03457.3 -07.5782 26215.6
 29 06 2013  21 57  -21.0691 25987.4 -03457.6 -07.5786 26216.4
 29 06 2013  21 58  -21.0697 25988.1 -03457.9 -07.5791 26217.1
 29 06 2013  21 59  -21.0703 25988.8 -03458.1 -07.5794 26217.8
 29 06 2013  22 00  -21.0709 25989.3 -03458.3 -07.5796 26218.4
 29 06 2013  22 01  -21.0712 25989.8 -03458.4 -07.5797 26218.9
 29 06 2013  22 02  -21.0711 25990.7 -03458.6 -07.5799 26219.8
 29 06 2013  22 03  -21.0709 25991.6 -03458.9 -07.5803 26220.7
 29 06 2013  22 04  -21.0707 25992.3 -03459.1 -07.5805 26221.4
 29 06 2013  22 05  -21.0705 25992.8 -03459.2 -07.5805 26222.0
 29 06 2013  22 06  -21.0701 25993.4 -03459.3 -07.5805 26222.6
 29 06 2013  22 07  -21.0697 25994.5 -03459.6 -07.5809 26223.7
 29 06 2013  22 08  -21.0690 25996.2 -03460.3 -07.5819 26225.5
 29 06 2013  22 09  -21.0687 25997.3 -03460.7 -07.5825 26226.7
 29 06 2013  22 10  -21.0691 25997.8 -03460.8 -07.5825 26227.1
 29 06 2013  22 11  -21.0702 25998.1 -03460.8 -07.5825 26227.5
 29 06 2013  22 12  -21.0714 25998.6 -03460.8 -07.5824 26227.9
 29 06 2013  22 13  -21.0724 25998.6 -03460.6 -07.5820 26227.9
 29 06 2013  22 14  -21.0730 25998.4 -03460.3 -07.5813 26227.6
 29 06 2013  22 15  -21.0734 25998.2 -03459.9 -07.5806 26227.5
 29 06 2013  22 16  -21.0734 25998.1 -03459.7 -07.5800 26227.3
 29 06 2013  22 17  -21.0734 25997.9 -03459.4 -07.5794 26227.0
 29 06 2013  22 18  -21.0732 25997.7 -03459.1 -07.5789 26226.8
 29 06 2013  22 19  -21.0729 25997.6 -03458.9 -07.5785 26226.7
 29 06 2013  22 20  -21.0728 25997.8 -03458.9 -07.5784 26226.9
 29 06 2013  22 21  -21.0728 25998.0 -03458.9 -07.5785 26227.1
 29 06 2013  22 22  -21.0728 25998.2 -03459.0 -07.5784 26227.3
 29 06 2013  22 23  -21.0728 25998.2 -03458.9 -07.5783 26227.3
 29 06 2013  22 24  -21.0731 25998.0 -03458.7 -07.5780 26227.1
 29 06 2013  22 25  -21.0732 25998.0 -03458.5 -07.5776 26227.0
 29 06 2013  22 26  -21.0732 25997.8 -03458.4 -07.5774 26226.8
 29 06 2013  22 27  -21.0731 25997.7 -03458.2 -07.5770 26226.7
 29 06 2013  22 28  -21.0726 25998.2 -03458.4 -07.5772 26227.3
 29 06 2013  22 29  -21.0720 25999.1 -03458.7 -07.5777 26228.1
 29 06 2013  22 30  -21.0719 25999.4 -03458.9 -07.5779 26228.5
 29 06 2013  22 31  -21.0721 25999.6 -03458.9 -07.5779 26228.7
 29 06 2013  22 32  -21.0725 25999.3 -03458.7 -07.5775 26228.3
 29 06 2013  22 33  -21.0725 25998.9 -03458.4 -07.5770 26227.9
 29 06 2013  22 34  -21.0726 25998.6 -03458.1 -07.5765 26227.6
 29 06 2013  22 35  -21.0722 25998.1 -03457.8 -07.5759 26227.0
 29 06 2013  22 36  -21.0716 25997.8 -03457.5 -07.5754 26226.7
 29 06 2013  22 37  -21.0713 25998.3 -03457.7 -07.5757 26227.2
 29 06 2013  22 38  -21.0709 25998.3 -03457.7 -07.5757 26227.2
 29 06 2013  22 39  -21.0706 25998.0 -03457.6 -07.5756 26227.0
 29 06 2013  22 40  -21.0702 25998.1 -03457.6 -07.5755 26227.0
 29 06 2013  22 41  -21.0699 25998.0 -03457.6 -07.5755 26226.9
 29 06 2013  22 42  -21.0702 25997.6 -03457.4 -07.5752 26226.5
 29 06 2013  22 43  -21.0709 25997.0 -03457.2 -07.5749 26225.9
 29 06 2013  22 44  -21.0717 25996.3 -03456.9 -07.5745 26225.1
 29 06 2013  22 45  -21.0722 25995.5 -03456.5 -07.5739 26224.3
 29 06 2013  22 46  -21.0725 25995.2 -03456.3 -07.5736 26224.0
 29 06 2013  22 47  -21.0723 25995.6 -03456.5 -07.5738 26224.4
 29 06 2013  22 48  -21.0725 25996.0 -03456.8 -07.5743 26224.8
 29 06 2013  22 49  -21.0729 25996.0 -03456.8 -07.5745 26224.9
 29 06 2013  22 50  -21.0732 25995.7 -03456.7 -07.5744 26224.5
 29 06 2013  22 51  -21.0732 25995.6 -03456.6 -07.5742 26224.4
 29 06 2013  22 52  -21.0728 25995.5 -03456.5 -07.5740 26224.3
 29 06 2013  22 53  -21.0725 25995.3 -03456.5 -07.5739 26224.1
 29 06 2013  22 54  -21.0725 25994.7 -03456.2 -07.5735 26223.5
 29 06 2013  22 55  -21.0727 25994.1 -03455.9 -07.5730 26222.8
 29 06 2013  22 56  -21.0727 25993.4 -03455.6 -07.5725 26222.0
 29 06 2013  22 57  -21.0722 25992.9 -03455.3 -07.5721 26221.5
 29 06 2013  22 58  -21.0723 25992.3 -03455.1 -07.5718 26220.9
 29 06 2013  22 59  -21.0726 25991.9 -03455.0 -07.5717 26220.6
 29 06 2013  23 00  -21.0724 25991.6 -03454.9 -07.5716 26220.3
 29 06 2013  23 01  -21.0722 25991.4 -03454.8 -07.5715 26220.0
 29 06 2013  23 02  -21.0723 25991.0 -03454.7 -07.5714 26219.6
 29 06 2013  23 03  -21.0723 25990.9 -03454.7 -07.5714 26219.5
 29 06 2013  23 04  -21.0720 25990.4 -03454.6 -07.5712 26219.0
 29 06 2013  23 05  -21.0720 25990.3 -03454.5 -07.5711 26218.8
 29 06 2013  23 06  -21.0719 25990.1 -03454.5 -07.5712 26218.6
 29 06 2013  23 07  -21.0720 25989.5 -03454.3 -07.5710 26218.0
 29 06 2013  23 08  -21.0723 25988.8 -03454.1 -07.5707 26217.3
 29 06 2013  23 09  -21.0725 25988.3 -03453.9 -07.5705 26216.8
 29 06 2013  23 10  -21.0725 25987.9 -03453.8 -07.5702 26216.4
 29 06 2013  23 11  -21.0724 25987.7 -03453.8 -07.5703 26216.2
 29 06 2013  23 12  -21.0723 25987.7 -03453.9 -07.5705 26216.2
 29 06 2013  23 13  -21.0722 25987.7 -03454.0 -07.5707 26216.3
 29 06 2013  23 14  -21.0721 25987.9 -03454.1 -07.5710 26216.4
 29 06 2013  23 15  -21.0718 25988.0 -03454.3 -07.5713 26216.5
 29 06 2013  23 16  -21.0715 25988.0 -03454.4 -07.5714 26216.6
 29 06 2013  23 17  -21.0713 25987.9 -03454.4 -07.5715 26216.5
 29 06 2013  23 18  -21.0712 25987.8 -03454.4 -07.5715 26216.3
 29 06 2013  23 19  -21.0716 25987.5 -03454.4 -07.5716 26216.1
 29 06 2013  23 20  -21.0719 25987.1 -03454.2 -07.5714 26215.6
 29 06 2013  23 21  -21.0718 25987.1 -03454.2 -07.5714 26215.6
 29 06 2013  23 22  -21.0713 25987.2 -03454.3 -07.5716 26215.8
 29 06 2013  23 23  -21.0710 25987.5 -03454.5 -07.5719 26216.1
 29 06 2013  23 24  -21.0711 25988.0 -03454.8 -07.5724 26216.6
 29 06 2013  23 25  -21.0713 25988.5 -03455.1 -07.5730 26217.1
 29 06 2013  23 26  -21.0717 25988.5 -03455.2 -07.5732 26217.2
 29 06 2013  23 27  -21.0724 25987.9 -03455.0 -07.5729 26216.6
 29 06 2013  23 28  -21.0728 25987.5 -03454.8 -07.5725 26216.1
 29 06 2013  23 29  -21.0724 25987.3 -03454.6 -07.5722 26216.0
 29 06 2013  23 30  -21.0718 25987.6 -03454.7 -07.5724 26216.3
 29 06 2013  23 31  -21.0712 25988.4 -03455.1 -07.5730 26217.0
 29 06 2013  23 32  -21.0707 25989.2 -03455.6 -07.5737 26217.9
 29 06 2013  23 33  -21.0704 25990.1 -03456.1 -07.5745 26218.8
 29 06 2013  23 34  -21.0703 25991.0 -03456.6 -07.5753 26219.9
 29 06 2013  23 35  -21.0705 25991.6 -03456.9 -07.5758 26220.5
 29 06 2013  23 36  -21.0706 25991.8 -03456.9 -07.5759 26220.7
 29 06 2013  23 37  -21.0707 25991.7 -03456.8 -07.5756 26220.5
 29 06 2013  23 38  -21.0708 25991.6 -03456.6 -07.5754 26220.4
 29 06 2013  23 39  -21.0710 25991.3 -03456.5 -07.5750 26220.2
 29 06 2013  23 40  -21.0712 25991.2 -03456.3 -07.5748 26220.0
 29 06 2013  23 41  -21.0715 25991.2 -03456.3 -07.5747 26220.0
 29 06 2013  23 42  -21.0715 25991.3 -03456.3 -07.5747 26220.1
 29 06 2013  23 43  -21.0715 25991.2 -03456.2 -07.5746 26220.0
 29 06 2013  23 44  -21.0716 25991.0 -03456.2 -07.5745 26219.8
 29 06 2013  23 45  -21.0718 25990.9 -03456.1 -07.5743 26219.7
 29 06 2013  23 46  -21.0718 25990.8 -03456.0 -07.5743 26219.5
 29 06 2013  23 47  -21.0718 25990.6 -03455.9 -07.5741 26219.3
 29 06 2013  23 48  -21.0721 25990.2 -03455.7 -07.5738 26218.9
 29 06 2013  23 49  -21.0722 25990.0 -03455.6 -07.5736 26218.7
 29 06 2013  23 50  -21.0723 25989.9 -03455.6 -07.5736 26218.6
 29 06 2013  23 51  -21.0723 25990.0 -03455.7 -07.5737 26218.7
 29 06 2013  23 52  -21.0723 25990.1 -03455.7 -07.5738 26218.8
 29 06 2013  23 53  -21.0723 25990.2 -03455.8 -07.5739 26218.9
 29 06 2013  23 54  -21.0723 25990.4 -03455.9 -07.5742 26219.2
 29 06 2013  23 55  -21.0722 25990.6 -03456.1 -07.5744 26219.4
 29 06 2013  23 56  -21.0721 25990.9 -03456.2 -07.5746 26219.7
 29 06 2013  23 57  -21.0719 25991.1 -03456.3 -07.5748 26219.9
