SAO LUIS EMBRACE-03 <324> 1 Min. Reported data

 DD MM YYYY  HH MM   D(Deg)  H(nT)   Z(nT)   I(Deg)   F(nT)

 20 11 2013  00 00  -21.0014 26016.6 -03507.2 -07.6775 26252.0
 20 11 2013  00 01  -21.0016 26016.5 -03507.1 -07.6774 26251.8
 20 11 2013  00 02  -21.0016 26016.4 -03507.1 -07.6774 26251.7
 20 11 2013  00 03  -21.0016 26016.4 -03507.1 -07.6773 26251.7
 20 11 2013  00 04  -21.0016 26016.2 -03507.0 -07.6773 26251.5
 20 11 2013  00 05  -21.0017 26016.2 -03507.0 -07.6773 26251.5
 20 11 2013  00 06  -21.0019 26016.1 -03507.0 -07.6772 26251.4
 20 11 2013  00 07  -21.0023 26015.8 -03506.9 -07.6771 26251.1
 20 11 2013  00 08  -21.0026 26015.5 -03506.7 -07.6768 26250.7
 20 11 2013  00 09  -21.0026 26015.1 -03506.6 -07.6766 26250.4
 20 11 2013  00 10  -21.0028 26015.0 -03506.5 -07.6765 26250.2
 20 11 2013  00 11  -21.0029 26015.1 -03506.6 -07.6766 26250.3
 20 11 2013  00 12  -21.0026 26015.2 -03506.6 -07.6767 26250.5
 20 11 2013  00 13  -21.0026 26015.3 -03506.7 -07.6769 26250.6
 20 11 2013  00 14  -21.0026 26015.4 -03506.8 -07.6770 26250.6
 20 11 2013  00 15  -21.0026 26015.4 -03506.9 -07.6771 26250.7
 20 11 2013  00 16  -21.0027 26015.5 -03506.9 -07.6773 26250.9
 20 11 2013  00 17  -21.0028 26015.6 -03507.0 -07.6774 26250.9
 20 11 2013  00 18  -21.0028 26015.6 -03507.0 -07.6774 26250.9
 20 11 2013  00 19  -21.0030 26015.5 -03507.0 -07.6774 26250.8
 20 11 2013  00 20  -21.0031 26015.4 -03506.9 -07.6773 26250.7
 20 11 2013  00 21  -21.0031 26015.3 -03506.9 -07.6772 26250.6
 20 11 2013  00 22  -21.0030 26015.1 -03506.8 -07.6771 26250.4
 20 11 2013  00 23  -21.0032 26014.9 -03506.7 -07.6770 26250.2
 20 11 2013  00 24  -21.0029 26014.8 -03506.7 -07.6769 26250.1
 20 11 2013  00 25  -21.0027 26014.7 -03506.6 -07.6769 26250.0
 20 11 2013  00 26  -21.0025 26014.7 -03506.6 -07.6769 26249.9
 20 11 2013  00 27  -21.0025 26014.5 -03506.6 -07.6768 26249.7
 20 11 2013  00 28  -21.0025 26014.2 -03506.5 -07.6767 26249.5
 20 11 2013  00 29  -21.0025 26014.0 -03506.5 -07.6767 26249.3
 20 11 2013  00 30  -21.0027 26013.9 -03506.5 -07.6768 26249.2
 20 11 2013  00 31  -21.0027 26013.9 -03506.5 -07.6768 26249.1
 20 11 2013  00 32  -21.0028 26013.9 -03506.6 -07.6770 26249.2
 20 11 2013  00 33  -21.0028 26013.9 -03506.7 -07.6771 26249.2
 20 11 2013  00 34  -21.0029 26013.9 -03506.7 -07.6773 26249.2
 20 11 2013  00 35  -21.0029 26014.0 -03506.8 -07.6774 26249.3
 20 11 2013  00 36  -21.0026 26014.0 -03506.9 -07.6775 26249.4
 20 11 2013  00 37  -21.0026 26014.0 -03506.9 -07.6776 26249.4
 20 11 2013  00 38  -21.0027 26014.1 -03507.0 -07.6777 26249.5
 20 11 2013  00 39  -21.0027 26014.1 -03507.0 -07.6778 26249.5
 20 11 2013  00 40  -21.0025 26014.1 -03507.1 -07.6780 26249.5
 20 11 2013  00 41  -21.0025 26014.2 -03507.1 -07.6780 26249.5
 20 11 2013  00 42  -21.0027 26014.0 -03507.1 -07.6780 26249.4
 20 11 2013  00 43  -21.0029 26013.9 -03507.1 -07.6780 26249.3
 20 11 2013  00 44  -21.0030 26013.7 -03506.9 -07.6778 26249.0
 20 11 2013  00 45  -21.0029 26013.5 -03506.8 -07.6776 26248.8
 20 11 2013  00 46  -21.0028 26013.4 -03506.8 -07.6775 26248.7
 20 11 2013  00 47  -21.0027 26013.4 -03506.8 -07.6776 26248.7
 20 11 2013  00 48  -21.0026 26013.2 -03506.8 -07.6776 26248.5
 20 11 2013  00 49  -21.0026 26013.1 -03506.8 -07.6777 26248.4
 20 11 2013  00 50  -21.0026 26012.9 -03506.7 -07.6776 26248.2
 20 11 2013  00 51  -21.0026 26012.8 -03506.7 -07.6776 26248.1
 20 11 2013  00 52  -21.0027 26012.7 -03506.7 -07.6776 26248.0
 20 11 2013  00 53  -21.0028 26012.5 -03506.7 -07.6776 26247.8
 20 11 2013  00 54  -21.0029 26012.5 -03506.7 -07.6778 26247.8
 20 11 2013  00 55  -21.0028 26012.4 -03506.8 -07.6778 26247.7
 20 11 2013  00 56  -21.0027 26012.3 -03506.8 -07.6778 26247.6
 20 11 2013  00 57  -21.0028 26012.3 -03506.8 -07.6778 26247.6
 20 11 2013  00 58  -21.0028 26012.2 -03506.7 -07.6778 26247.5
 20 11 2013  00 59  -21.0029 26012.1 -03506.8 -07.6780 26247.4
 20 11 2013  01 00  -21.0031 26012.1 -03506.8 -07.6781 26247.4
 20 11 2013  01 01  -21.0031 26012.0 -03506.9 -07.6781 26247.4
 20 11 2013  01 02  -21.0033 26011.9 -03506.8 -07.6781 26247.3
 20 11 2013  01 03  -21.0034 26011.8 -03506.8 -07.6780 26247.1
 20 11 2013  01 04  -21.0035 26011.7 -03506.8 -07.6780 26247.0
 20 11 2013  01 05  -21.0038 26011.8 -03506.8 -07.6781 26247.1
 20 11 2013  01 06  -21.0038 26011.8 -03506.8 -07.6781 26247.1
 20 11 2013  01 07  -21.0037 26011.8 -03506.9 -07.6782 26247.1
 20 11 2013  01 08  -21.0035 26011.8 -03506.9 -07.6782 26247.2
 20 11 2013  01 09  -21.0036 26011.9 -03507.0 -07.6784 26247.3
 20 11 2013  01 10  -21.0039 26012.1 -03507.1 -07.6786 26247.4
 20 11 2013  01 11  -21.0044 26012.2 -03507.2 -07.6787 26247.5
 20 11 2013  01 12  -21.0045 26012.1 -03507.2 -07.6788 26247.5
 20 11 2013  01 13  -21.0047 26012.1 -03507.1 -07.6787 26247.5
 20 11 2013  01 14  -21.0048 26012.1 -03507.1 -07.6787 26247.5
 20 11 2013  01 15  -21.0049 26012.0 -03507.1 -07.6786 26247.3
 20 11 2013  01 16  -21.0049 26011.9 -03507.0 -07.6785 26247.2
 20 11 2013  01 17  -21.0049 26011.8 -03506.9 -07.6783 26247.1
 20 11 2013  01 18  -21.0048 26011.7 -03506.9 -07.6783 26247.1
 20 11 2013  01 19  -21.0050 26011.6 -03506.9 -07.6784 26247.0
 20 11 2013  01 20  -21.0048 26011.5 -03506.8 -07.6783 26246.8
 20 11 2013  01 21  -21.0048 26011.5 -03506.8 -07.6782 26246.8
 20 11 2013  01 22  -21.0047 26011.3 -03506.8 -07.6782 26246.6
 20 11 2013  01 23  -21.0046 26011.2 -03506.8 -07.6781 26246.5
 20 11 2013  01 24  -21.0043 26011.2 -03506.8 -07.6782 26246.5
 20 11 2013  01 25  -21.0040 26011.2 -03506.8 -07.6783 26246.5
 20 11 2013  01 26  -21.0037 26011.3 -03506.9 -07.6784 26246.6
 20 11 2013  01 27  -21.0038 26011.4 -03507.1 -07.6787 26246.8
 20 11 2013  01 28  -21.0040 26011.6 -03507.2 -07.6790 26247.0
 20 11 2013  01 29  -21.0045 26011.7 -03507.3 -07.6792 26247.1
 20 11 2013  01 30  -21.0047 26011.7 -03507.3 -07.6793 26247.1
 20 11 2013  01 31  -21.0048 26011.6 -03507.3 -07.6793 26247.0
 20 11 2013  01 32  -21.0049 26011.6 -03507.3 -07.6793 26247.0
 20 11 2013  01 33  -21.0050 26011.6 -03507.4 -07.6793 26247.0
 20 11 2013  01 34  -21.0051 26011.3 -03507.2 -07.6791 26246.7
 20 11 2013  01 35  -21.0054 26011.1 -03507.1 -07.6790 26246.4
 20 11 2013  01 36  -21.0056 26010.8 -03507.0 -07.6788 26246.1
 20 11 2013  01 37  -21.0058 26010.6 -03507.0 -07.6788 26246.0
 20 11 2013  01 38  -21.0061 26010.5 -03506.9 -07.6787 26245.8
 20 11 2013  01 39  -21.0062 26010.4 -03506.9 -07.6787 26245.8
 20 11 2013  01 40  -21.0066 26010.3 -03506.9 -07.6787 26245.6
 20 11 2013  01 41  -21.0072 26010.1 -03506.8 -07.6786 26245.4
 20 11 2013  01 42  -21.0075 26009.8 -03506.8 -07.6786 26245.1
 20 11 2013  01 43  -21.0076 26009.6 -03506.7 -07.6784 26244.9
 20 11 2013  01 44  -21.0074 26009.4 -03506.5 -07.6782 26244.7
 20 11 2013  01 45  -21.0071 26009.1 -03506.4 -07.6780 26244.4
 20 11 2013  01 46  -21.0065 26008.9 -03506.3 -07.6779 26244.1
 20 11 2013  01 47  -21.0060 26008.6 -03506.2 -07.6778 26243.8
 20 11 2013  01 48  -21.0055 26008.5 -03506.3 -07.6778 26243.8
 20 11 2013  01 49  -21.0051 26008.6 -03506.4 -07.6781 26243.9
 20 11 2013  01 50  -21.0048 26008.8 -03506.6 -07.6784 26244.1
 20 11 2013  01 51  -21.0044 26009.2 -03506.8 -07.6789 26244.5
 20 11 2013  01 52  -21.0040 26009.4 -03507.0 -07.6793 26244.7
 20 11 2013  01 53  -21.0037 26009.5 -03507.2 -07.6796 26244.9
 20 11 2013  01 54  -21.0039 26009.6 -03507.3 -07.6797 26245.0
 20 11 2013  01 55  -21.0043 26009.5 -03507.3 -07.6798 26244.9
 20 11 2013  01 56  -21.0047 26009.5 -03507.3 -07.6799 26244.9
 20 11 2013  01 57  -21.0054 26009.4 -03507.3 -07.6799 26244.8
 20 11 2013  01 58  -21.0062 26009.3 -03507.3 -07.6799 26244.7
 20 11 2013  01 59  -21.0068 26009.3 -03507.3 -07.6799 26244.7
 20 11 2013  02 00  -21.0074 26009.3 -03507.3 -07.6799 26244.7
 20 11 2013  02 01  -21.0080 26009.1 -03507.2 -07.6797 26244.5
 20 11 2013  02 02  -21.0084 26009.1 -03507.2 -07.6797 26244.5
 20 11 2013  02 03  -21.0085 26009.1 -03507.1 -07.6796 26244.4
 20 11 2013  02 04  -21.0086 26009.0 -03507.1 -07.6796 26244.4
 20 11 2013  02 05  -21.0085 26009.0 -03507.1 -07.6795 26244.4
 20 11 2013  02 06  -21.0085 26009.0 -03507.1 -07.6795 26244.4
 20 11 2013  02 07  -21.0087 26009.0 -03507.1 -07.6795 26244.4
 20 11 2013  02 08  -21.0090 26009.1 -03507.2 -07.6798 26244.5
 20 11 2013  02 09  -21.0095 26009.2 -03507.3 -07.6800 26244.7
 20 11 2013  02 10  -21.0101 26009.4 -03507.4 -07.6801 26244.8
 20 11 2013  02 11  -21.0109 26009.5 -03507.5 -07.6802 26244.9
 20 11 2013  02 12  -21.0116 26009.4 -03507.4 -07.6801 26244.8
 20 11 2013  02 13  -21.0123 26009.3 -03507.3 -07.6800 26244.7
 20 11 2013  02 14  -21.0127 26009.1 -03507.2 -07.6797 26244.5
 20 11 2013  02 15  -21.0128 26008.9 -03507.1 -07.6795 26244.2
 20 11 2013  02 16  -21.0128 26008.6 -03506.9 -07.6792 26244.0
 20 11 2013  02 17  -21.0130 26008.5 -03506.8 -07.6790 26243.8
 20 11 2013  02 18  -21.0134 26008.5 -03506.8 -07.6791 26243.8
 20 11 2013  02 19  -21.0139 26008.4 -03506.8 -07.6791 26243.7
 20 11 2013  02 20  -21.0143 26008.4 -03506.8 -07.6790 26243.7
 20 11 2013  02 21  -21.0148 26008.4 -03506.8 -07.6790 26243.7
 20 11 2013  02 22  -21.0152 26008.4 -03506.8 -07.6791 26243.7
 20 11 2013  02 23  -21.0156 26008.4 -03506.9 -07.6792 26243.8
 20 11 2013  02 24  -21.0158 26008.4 -03506.8 -07.6791 26243.7
 20 11 2013  02 25  -21.0160 26008.4 -03506.8 -07.6791 26243.8
 20 11 2013  02 26  -21.0159 26008.4 -03506.8 -07.6790 26243.7
 20 11 2013  02 27  -21.0157 26008.4 -03506.8 -07.6791 26243.7
 20 11 2013  02 28  -21.0154 26008.3 -03506.8 -07.6791 26243.6
 20 11 2013  02 29  -21.0153 26008.3 -03506.8 -07.6791 26243.6
 20 11 2013  02 30  -21.0153 26008.2 -03506.8 -07.6791 26243.5
 20 11 2013  02 31  -21.0156 26008.2 -03506.9 -07.6792 26243.6
 20 11 2013  02 32  -21.0159 26008.2 -03506.9 -07.6792 26243.5
 20 11 2013  02 33  -21.0163 26008.1 -03506.8 -07.6792 26243.4
 20 11 2013  02 34  -21.0165 26007.9 -03506.8 -07.6791 26243.3
 20 11 2013  02 35  -21.0166 26007.7 -03506.7 -07.6790 26243.1
 20 11 2013  02 36  -21.0166 26007.6 -03506.6 -07.6789 26242.9
 20 11 2013  02 37  -21.0163 26007.4 -03506.5 -07.6787 26242.7
 20 11 2013  02 38  -21.0164 26007.3 -03506.5 -07.6787 26242.6
 20 11 2013  02 39  -21.0162 26007.3 -03506.5 -07.6787 26242.6
 20 11 2013  02 40  -21.0161 26007.2 -03506.5 -07.6787 26242.5
 20 11 2013  02 41  -21.0162 26007.3 -03506.6 -07.6789 26242.7
 20 11 2013  02 42  -21.0162 26007.4 -03506.7 -07.6791 26242.8
 20 11 2013  02 43  -21.0161 26007.5 -03506.7 -07.6791 26242.9
 20 11 2013  02 44  -21.0162 26007.6 -03506.8 -07.6793 26242.9
 20 11 2013  02 45  -21.0162 26007.6 -03506.8 -07.6794 26243.0
 20 11 2013  02 46  -21.0163 26007.6 -03506.9 -07.6795 26243.0
 20 11 2013  02 47  -21.0161 26007.6 -03506.9 -07.6795 26242.9
 20 11 2013  02 48  -21.0159 26007.6 -03506.9 -07.6794 26243.0
 20 11 2013  02 49  -21.0157 26007.7 -03507.0 -07.6796 26243.1
 20 11 2013  02 50  -21.0157 26007.9 -03507.1 -07.6797 26243.3
 20 11 2013  02 51  -21.0157 26008.0 -03507.1 -07.6799 26243.4
 20 11 2013  02 52  -21.0156 26008.1 -03507.2 -07.6800 26243.5
 20 11 2013  02 53  -21.0153 26008.2 -03507.2 -07.6800 26243.6
 20 11 2013  02 54  -21.0153 26008.2 -03507.3 -07.6801 26243.6
 20 11 2013  02 55  -21.0153 26008.1 -03507.2 -07.6801 26243.5
 20 11 2013  02 56  -21.0150 26008.0 -03507.1 -07.6799 26243.4
 20 11 2013  02 57  -21.0148 26007.9 -03507.1 -07.6799 26243.3
 20 11 2013  02 58  -21.0147 26007.8 -03507.1 -07.6798 26243.2
 20 11 2013  02 59  -21.0146 26007.8 -03507.1 -07.6799 26243.2
 20 11 2013  03 00  -21.0147 26007.8 -03507.2 -07.6800 26243.2
 20 11 2013  03 01  -21.0149 26007.9 -03507.2 -07.6801 26243.3
 20 11 2013  03 02  -21.0151 26007.9 -03507.3 -07.6802 26243.3
 20 11 2013  03 03  -21.0150 26007.9 -03507.3 -07.6803 26243.3
 20 11 2013  03 04  -21.0150 26007.9 -03507.3 -07.6802 26243.4
 20 11 2013  03 05  -21.0149 26008.0 -03507.3 -07.6804 26243.4
 20 11 2013  03 06  -21.0147 26008.0 -03507.3 -07.6803 26243.4
 20 11 2013  03 07  -21.0149 26008.1 -03507.5 -07.6806 26243.5
 20 11 2013  03 08  -21.0150 26008.2 -03507.6 -07.6807 26243.7
 20 11 2013  03 09  -21.0151 26008.4 -03507.7 -07.6809 26243.9
 20 11 2013  03 10  -21.0150 26008.6 -03507.7 -07.6810 26244.1
 20 11 2013  03 11  -21.0149 26008.8 -03507.8 -07.6811 26244.3
 20 11 2013  03 12  -21.0149 26008.9 -03507.9 -07.6813 26244.4
 20 11 2013  03 13  -21.0147 26009.1 -03508.0 -07.6815 26244.6
 20 11 2013  03 14  -21.0147 26009.2 -03508.1 -07.6816 26244.8
 20 11 2013  03 15  -21.0148 26009.3 -03508.1 -07.6817 26244.8
 20 11 2013  03 16  -21.0149 26009.4 -03508.2 -07.6817 26244.9
 20 11 2013  03 17  -21.0153 26009.4 -03508.2 -07.6817 26244.9
 20 11 2013  03 18  -21.0156 26009.4 -03508.2 -07.6817 26245.0
 20 11 2013  03 19  -21.0159 26009.5 -03508.2 -07.6818 26245.1
 20 11 2013  03 20  -21.0162 26009.6 -03508.3 -07.6819 26245.2
 20 11 2013  03 21  -21.0166 26009.8 -03508.3 -07.6820 26245.4
 20 11 2013  03 22  -21.0168 26010.0 -03508.4 -07.6820 26245.6
 20 11 2013  03 23  -21.0172 26010.2 -03508.5 -07.6821 26245.8
 20 11 2013  03 24  -21.0174 26010.4 -03508.6 -07.6823 26246.0
 20 11 2013  03 25  -21.0176 26010.6 -03508.6 -07.6823 26246.2
 20 11 2013  03 26  -21.0177 26010.8 -03508.7 -07.6824 26246.4
 20 11 2013  03 27  -21.0178 26011.1 -03508.7 -07.6825 26246.6
 20 11 2013  03 28  -21.0178 26011.3 -03508.8 -07.6825 26246.9
 20 11 2013  03 29  -21.0179 26011.4 -03508.8 -07.6825 26247.0
 20 11 2013  03 30  -21.0180 26011.4 -03508.8 -07.6825 26247.0
 20 11 2013  03 31  -21.0182 26011.4 -03508.8 -07.6824 26247.0
 20 11 2013  03 32  -21.0181 26011.4 -03508.7 -07.6823 26247.0
 20 11 2013  03 33  -21.0180 26011.5 -03508.6 -07.6821 26247.0
 20 11 2013  03 34  -21.0179 26011.6 -03508.6 -07.6821 26247.1
 20 11 2013  03 35  -21.0179 26011.5 -03508.6 -07.6821 26247.1
 20 11 2013  03 36  -21.0177 26011.6 -03508.6 -07.6821 26247.2
 20 11 2013  03 37  -21.0177 26011.7 -03508.7 -07.6821 26247.3
 20 11 2013  03 38  -21.0176 26011.8 -03508.7 -07.6821 26247.4
 20 11 2013  03 39  -21.0176 26011.8 -03508.7 -07.6821 26247.4
 20 11 2013  03 40  -21.0174 26011.8 -03508.6 -07.6820 26247.4
 20 11 2013  03 41  -21.0171 26011.9 -03508.6 -07.6820 26247.4
 20 11 2013  03 42  -21.0168 26011.9 -03508.6 -07.6820 26247.5
 20 11 2013  03 43  -21.0165 26012.1 -03508.7 -07.6820 26247.6
 20 11 2013  03 44  -21.0161 26012.2 -03508.7 -07.6821 26247.7
 20 11 2013  03 45  -21.0157 26012.2 -03508.7 -07.6820 26247.8
 20 11 2013  03 46  -21.0153 26012.3 -03508.8 -07.6822 26247.8
 20 11 2013  03 47  -21.0148 26012.3 -03508.8 -07.6822 26247.9
 20 11 2013  03 48  -21.0145 26012.4 -03508.9 -07.6824 26248.0
 20 11 2013  03 49  -21.0140 26012.5 -03508.9 -07.6825 26248.1
 20 11 2013  03 50  -21.0137 26012.7 -03509.0 -07.6826 26248.3
 20 11 2013  03 51  -21.0134 26012.7 -03509.1 -07.6827 26248.4
 20 11 2013  03 52  -21.0132 26012.9 -03509.1 -07.6828 26248.5
 20 11 2013  03 53  -21.0129 26012.9 -03509.2 -07.6829 26248.5
 20 11 2013  03 54  -21.0126 26012.8 -03509.2 -07.6829 26248.5
 20 11 2013  03 55  -21.0124 26012.9 -03509.2 -07.6829 26248.5
 20 11 2013  03 56  -21.0120 26012.9 -03509.2 -07.6830 26248.6
 20 11 2013  03 57  -21.0117 26013.2 -03509.4 -07.6833 26248.8
 20 11 2013  03 58  -21.0116 26013.2 -03509.4 -07.6834 26248.9
 20 11 2013  03 59  -21.0115 26013.4 -03509.6 -07.6835 26249.1
 20 11 2013  04 00  -21.0114 26013.6 -03509.6 -07.6837 26249.2
 20 11 2013  04 01  -21.0114 26013.4 -03509.6 -07.6837 26249.1
 20 11 2013  04 02  -21.0117 26013.2 -03509.5 -07.6835 26248.9
 20 11 2013  04 03  -21.0120 26013.0 -03509.4 -07.6833 26248.6
 20 11 2013  04 04  -21.0124 26012.8 -03509.3 -07.6832 26248.5
 20 11 2013  04 05  -21.0127 26012.8 -03509.3 -07.6831 26248.4
 20 11 2013  04 06  -21.0129 26012.7 -03509.3 -07.6831 26248.4
 20 11 2013  04 07  -21.0132 26012.9 -03509.4 -07.6833 26248.6
 20 11 2013  04 08  -21.0134 26013.1 -03509.4 -07.6834 26248.8
 20 11 2013  04 09  -21.0134 26013.3 -03509.5 -07.6835 26248.9
 20 11 2013  04 10  -21.0133 26013.4 -03509.6 -07.6836 26249.0
 20 11 2013  04 11  -21.0133 26013.5 -03509.6 -07.6837 26249.2
 20 11 2013  04 12  -21.0134 26013.6 -03509.7 -07.6837 26249.3
 20 11 2013  04 13  -21.0134 26013.7 -03509.7 -07.6838 26249.4
 20 11 2013  04 14  -21.0134 26013.9 -03509.8 -07.6839 26249.6
 20 11 2013  04 15  -21.0134 26014.0 -03509.8 -07.6840 26249.7
 20 11 2013  04 16  -21.0132 26014.2 -03509.9 -07.6841 26249.9
 20 11 2013  04 17  -21.0130 26014.3 -03510.0 -07.6842 26250.1
 20 11 2013  04 18  -21.0128 26014.4 -03510.0 -07.6842 26250.1
 20 11 2013  04 19  -21.0124 26014.4 -03510.0 -07.6841 26250.1
 20 11 2013  04 20  -21.0120 26014.5 -03510.0 -07.6841 26250.2
 20 11 2013  04 21  -21.0118 26014.5 -03510.0 -07.6841 26250.2
 20 11 2013  04 22  -21.0116 26014.5 -03509.9 -07.6841 26250.2
 20 11 2013  04 23  -21.0114 26014.5 -03509.9 -07.6841 26250.2
 20 11 2013  04 24  -21.0112 26014.5 -03509.9 -07.6840 26250.3
 20 11 2013  04 25  -21.0110 26014.5 -03509.9 -07.6841 26250.2
 20 11 2013  04 26  -21.0108 26014.5 -03509.9 -07.6840 26250.2
 20 11 2013  04 27  -21.0107 26014.4 -03509.9 -07.6839 26250.1
 20 11 2013  04 28  -21.0107 26014.3 -03509.8 -07.6839 26250.0
 20 11 2013  04 29  -21.0106 26014.3 -03509.8 -07.6839 26250.0
 20 11 2013  04 30  -21.0104 26014.2 -03509.8 -07.6839 26249.9
 20 11 2013  04 31  -21.0102 26014.1 -03509.8 -07.6838 26249.8
 20 11 2013  04 32  -21.0100 26014.0 -03509.8 -07.6838 26249.7
 20 11 2013  04 33  -21.0098 26014.0 -03509.7 -07.6838 26249.7
 20 11 2013  04 34  -21.0098 26014.0 -03509.8 -07.6839 26249.7
 20 11 2013  04 35  -21.0098 26013.9 -03509.7 -07.6838 26249.6
 20 11 2013  04 36  -21.0099 26013.8 -03509.7 -07.6838 26249.5
 20 11 2013  04 37  -21.0100 26013.7 -03509.7 -07.6838 26249.4
 20 11 2013  04 38  -21.0101 26013.6 -03509.6 -07.6837 26249.3
 20 11 2013  04 39  -21.0102 26013.5 -03509.6 -07.6836 26249.2
 20 11 2013  04 40  -21.0104 26013.3 -03509.5 -07.6835 26249.0
 20 11 2013  04 41  -21.0107 26013.2 -03509.5 -07.6834 26248.9
 20 11 2013  04 42  -21.0109 26013.1 -03509.4 -07.6833 26248.7
 20 11 2013  04 43  -21.0113 26013.0 -03509.4 -07.6833 26248.6
 20 11 2013  04 44  -21.0114 26012.9 -03509.4 -07.6833 26248.5
 20 11 2013  04 45  -21.0114 26012.8 -03509.3 -07.6832 26248.4
 20 11 2013  04 46  -21.0115 26012.8 -03509.3 -07.6833 26248.4
 20 11 2013  04 47  -21.0115 26012.8 -03509.3 -07.6833 26248.4
 20 11 2013  04 48  -21.0116 26012.6 -03509.3 -07.6832 26248.2
 20 11 2013  04 49  -21.0117 26012.4 -03509.2 -07.6831 26248.1
 20 11 2013  04 50  -21.0116 26012.5 -03509.2 -07.6831 26248.1
 20 11 2013  04 51  -21.0117 26012.7 -03509.3 -07.6833 26248.4
 20 11 2013  04 52  -21.0119 26013.1 -03509.5 -07.6836 26248.7
 20 11 2013  04 53  -21.0122 26013.4 -03509.7 -07.6839 26249.0
 20 11 2013  04 54  -21.0125 26013.5 -03509.8 -07.6841 26249.2
 20 11 2013  04 55  -21.0130 26013.4 -03509.8 -07.6840 26249.1
 20 11 2013  04 56  -21.0135 26013.1 -03509.6 -07.6837 26248.8
 20 11 2013  04 57  -21.0141 26012.9 -03509.5 -07.6835 26248.6
 20 11 2013  04 58  -21.0146 26012.9 -03509.4 -07.6834 26248.6
 20 11 2013  04 59  -21.0149 26013.3 -03509.6 -07.6836 26248.9
 20 11 2013  05 00  -21.0153 26013.3 -03509.6 -07.6836 26248.9
 20 11 2013  05 01  -21.0157 26013.6 -03509.6 -07.6837 26249.2
 20 11 2013  05 02  -21.0161 26013.7 -03509.7 -07.6838 26249.4
 20 11 2013  05 03  -21.0164 26013.9 -03509.8 -07.6839 26249.6
 20 11 2013  05 04  -21.0167 26013.9 -03509.7 -07.6838 26249.6
 20 11 2013  05 05  -21.0170 26014.3 -03509.8 -07.6839 26250.0
 20 11 2013  05 06  -21.0170 26014.7 -03510.0 -07.6841 26250.5
 20 11 2013  05 07  -21.0172 26015.3 -03510.2 -07.6844 26251.0
 20 11 2013  05 08  -21.0174 26015.6 -03510.3 -07.6846 26251.4
 20 11 2013  05 09  -21.0177 26016.0 -03510.4 -07.6847 26251.7
 20 11 2013  05 10  -21.0180 26016.2 -03510.5 -07.6848 26252.0
 20 11 2013  05 11  -21.0183 26016.3 -03510.4 -07.6846 26252.1
 20 11 2013  05 12  -21.0186 26016.6 -03510.4 -07.6845 26252.3
 20 11 2013  05 13  -21.0188 26016.7 -03510.4 -07.6845 26252.4
 20 11 2013  05 14  -21.0192 26016.5 -03510.2 -07.6842 26252.2
 20 11 2013  05 15  -21.0194 26016.6 -03510.2 -07.6840 26252.3
 20 11 2013  05 16  -21.0195 26016.6 -03510.1 -07.6838 26252.3
 20 11 2013  05 17  -21.0198 26016.5 -03510.0 -07.6836 26252.2
 20 11 2013  05 18  -21.0199 26016.7 -03510.0 -07.6835 26252.4
 20 11 2013  05 19  -21.0201 26017.0 -03510.1 -07.6836 26252.7
 20 11 2013  05 20  -21.0201 26017.3 -03510.1 -07.6837 26253.0
 20 11 2013  05 21  -21.0202 26017.6 -03510.2 -07.6838 26253.3
 20 11 2013  05 22  -21.0202 26017.7 -03510.2 -07.6838 26253.4
 20 11 2013  05 23  -21.0202 26017.6 -03510.1 -07.6836 26253.4
 20 11 2013  05 24  -21.0201 26017.6 -03510.1 -07.6834 26253.3
 20 11 2013  05 25  -21.0201 26017.6 -03510.0 -07.6833 26253.3
 20 11 2013  05 26  -21.0200 26017.6 -03509.9 -07.6832 26253.3
 20 11 2013  05 27  -21.0200 26017.5 -03509.8 -07.6829 26253.2
 20 11 2013  05 28  -21.0200 26017.5 -03509.8 -07.6828 26253.2
 20 11 2013  05 29  -21.0201 26017.5 -03509.7 -07.6827 26253.2
 20 11 2013  05 30  -21.0202 26017.5 -03509.7 -07.6827 26253.2
 20 11 2013  05 31  -21.0205 26017.5 -03509.7 -07.6826 26253.2
 20 11 2013  05 32  -21.0207 26017.4 -03509.7 -07.6826 26253.0
 20 11 2013  05 33  -21.0209 26017.4 -03509.6 -07.6825 26253.0
 20 11 2013  05 34  -21.0211 26017.4 -03509.6 -07.6824 26253.0
 20 11 2013  05 35  -21.0214 26017.3 -03509.5 -07.6823 26252.9
 20 11 2013  05 36  -21.0216 26017.1 -03509.3 -07.6820 26252.7
 20 11 2013  05 37  -21.0218 26017.0 -03509.2 -07.6818 26252.6
 20 11 2013  05 38  -21.0218 26017.0 -03509.2 -07.6817 26252.6
 20 11 2013  05 39  -21.0218 26017.0 -03509.2 -07.6817 26252.6
 20 11 2013  05 40  -21.0217 26016.9 -03509.2 -07.6817 26252.5
 20 11 2013  05 41  -21.0216 26016.9 -03509.1 -07.6816 26252.4
 20 11 2013  05 42  -21.0215 26016.9 -03509.1 -07.6815 26252.4
 20 11 2013  05 43  -21.0213 26016.8 -03509.0 -07.6814 26252.4
 20 11 2013  05 44  -21.0210 26016.8 -03509.0 -07.6814 26252.4
 20 11 2013  05 45  -21.0206 26016.8 -03509.0 -07.6814 26252.3
 20 11 2013  05 46  -21.0200 26016.7 -03509.0 -07.6813 26252.3
 20 11 2013  05 47  -21.0192 26016.6 -03508.9 -07.6812 26252.2
 20 11 2013  05 48  -21.0184 26016.6 -03508.9 -07.6812 26252.1
 20 11 2013  05 49  -21.0176 26016.4 -03508.9 -07.6812 26252.0
 20 11 2013  05 50  -21.0169 26016.3 -03508.8 -07.6812 26251.9
 20 11 2013  05 51  -21.0161 26016.1 -03508.8 -07.6812 26251.7
 20 11 2013  05 52  -21.0156 26016.0 -03508.8 -07.6812 26251.5
 20 11 2013  05 53  -21.0151 26015.8 -03508.9 -07.6813 26251.4
 20 11 2013  05 54  -21.0147 26015.7 -03508.8 -07.6813 26251.2
 20 11 2013  05 55  -21.0145 26015.6 -03508.9 -07.6814 26251.2
 20 11 2013  05 56  -21.0143 26015.6 -03509.0 -07.6816 26251.2
 20 11 2013  05 57  -21.0142 26015.7 -03509.1 -07.6818 26251.3
 20 11 2013  05 58  -21.0141 26015.9 -03509.2 -07.6820 26251.5
 20 11 2013  05 59  -21.0139 26016.1 -03509.4 -07.6823 26251.7
 20 11 2013  06 00  -21.0139 26016.3 -03509.5 -07.6827 26251.9
 20 11 2013  06 01  -21.0139 26016.4 -03509.7 -07.6829 26252.1
 20 11 2013  06 02  -21.0140 26016.5 -03509.8 -07.6831 26252.2
 20 11 2013  06 03  -21.0141 26016.6 -03509.8 -07.6832 26252.3
 20 11 2013  06 04  -21.0141 26016.6 -03509.8 -07.6832 26252.3
 20 11 2013  06 05  -21.0142 26016.6 -03509.8 -07.6832 26252.3
 20 11 2013  06 06  -21.0143 26016.5 -03509.8 -07.6832 26252.2
 20 11 2013  06 07  -21.0146 26016.4 -03509.7 -07.6830 26252.1
 20 11 2013  06 08  -21.0147 26016.2 -03509.7 -07.6829 26251.9
 20 11 2013  06 09  -21.0149 26016.0 -03509.5 -07.6827 26251.6
 20 11 2013  06 10  -21.0151 26015.8 -03509.4 -07.6825 26251.4
 20 11 2013  06 11  -21.0154 26015.7 -03509.4 -07.6825 26251.3
 20 11 2013  06 12  -21.0156 26015.7 -03509.4 -07.6824 26251.4
 20 11 2013  06 13  -21.0159 26015.9 -03509.4 -07.6826 26251.5
 20 11 2013  06 14  -21.0161 26016.0 -03509.5 -07.6827 26251.6
 20 11 2013  06 15  -21.0163 26016.1 -03509.6 -07.6828 26251.8
 20 11 2013  06 16  -21.0164 26016.2 -03509.7 -07.6830 26251.9
 20 11 2013  06 17  -21.0164 26016.4 -03509.7 -07.6830 26252.0
 20 11 2013  06 18  -21.0163 26016.4 -03509.7 -07.6831 26252.1
 20 11 2013  06 19  -21.0161 26016.4 -03509.7 -07.6830 26252.1
 20 11 2013  06 20  -21.0160 26016.3 -03509.7 -07.6829 26252.0
 20 11 2013  06 21  -21.0159 26016.1 -03509.6 -07.6828 26251.8
 20 11 2013  06 22  -21.0160 26015.9 -03509.4 -07.6825 26251.5
 20 11 2013  06 23  -21.0161 26015.8 -03509.3 -07.6824 26251.4
 20 11 2013  06 24  -21.0162 26015.7 -03509.3 -07.6823 26251.3
 20 11 2013  06 25  -21.0166 26015.6 -03509.3 -07.6823 26251.2
 20 11 2013  06 26  -21.0168 26015.7 -03509.3 -07.6823 26251.3
 20 11 2013  06 27  -21.0171 26015.7 -03509.3 -07.6824 26251.3
 20 11 2013  06 28  -21.0173 26015.8 -03509.4 -07.6824 26251.5
 20 11 2013  06 29  -21.0176 26016.0 -03509.4 -07.6825 26251.6
 20 11 2013  06 30  -21.0179 26016.0 -03509.4 -07.6825 26251.6
 20 11 2013  06 31  -21.0178 26016.0 -03509.4 -07.6824 26251.7
 20 11 2013  06 32  -21.0178 26015.9 -03509.3 -07.6823 26251.5
 20 11 2013  06 33  -21.0176 26015.7 -03509.2 -07.6821 26251.3
 20 11 2013  06 34  -21.0172 26015.5 -03509.1 -07.6819 26251.1
 20 11 2013  06 35  -21.0168 26015.5 -03509.0 -07.6818 26251.0
 20 11 2013  06 36  -21.0164 26015.5 -03509.0 -07.6818 26251.1
 20 11 2013  06 37  -21.0162 26015.5 -03509.1 -07.6819 26251.1
 20 11 2013  06 38  -21.0158 26015.6 -03509.1 -07.6820 26251.2
 20 11 2013  06 39  -21.0157 26015.4 -03509.1 -07.6819 26251.0
 20 11 2013  06 40  -21.0153 26015.2 -03508.9 -07.6817 26250.8
 20 11 2013  06 41  -21.0149 26015.1 -03508.9 -07.6817 26250.7
 20 11 2013  06 42  -21.0146 26015.0 -03508.9 -07.6817 26250.6
 20 11 2013  06 43  -21.0142 26014.9 -03508.9 -07.6817 26250.5
 20 11 2013  06 44  -21.0141 26015.0 -03508.9 -07.6818 26250.5
 20 11 2013  06 45  -21.0136 26015.0 -03509.0 -07.6819 26250.6
 20 11 2013  06 46  -21.0133 26015.1 -03509.1 -07.6820 26250.7
 20 11 2013  06 47  -21.0129 26015.3 -03509.2 -07.6823 26250.9
 20 11 2013  06 48  -21.0129 26015.3 -03509.3 -07.6825 26250.9
 20 11 2013  06 49  -21.0127 26015.5 -03509.5 -07.6828 26251.1
 20 11 2013  06 50  -21.0125 26015.6 -03509.5 -07.6829 26251.2
 20 11 2013  06 51  -21.0123 26015.5 -03509.6 -07.6830 26251.2
 20 11 2013  06 52  -21.0121 26015.6 -03509.7 -07.6831 26251.3
 20 11 2013  06 53  -21.0120 26015.5 -03509.6 -07.6831 26251.2
 20 11 2013  06 54  -21.0119 26015.4 -03509.6 -07.6832 26251.1
 20 11 2013  06 55  -21.0119 26015.4 -03509.6 -07.6831 26251.1
 20 11 2013  06 56  -21.0120 26015.4 -03509.6 -07.6831 26251.0
 20 11 2013  06 57  -21.0121 26015.4 -03509.7 -07.6832 26251.0
 20 11 2013  06 58  -21.0120 26015.3 -03509.6 -07.6831 26250.9
 20 11 2013  06 59  -21.0120 26015.1 -03509.5 -07.6830 26250.7
 20 11 2013  07 00  -21.0120 26014.8 -03509.4 -07.6829 26250.5
 20 11 2013  07 01  -21.0119 26014.7 -03509.4 -07.6828 26250.3
 20 11 2013  07 02  -21.0118 26014.5 -03509.3 -07.6827 26250.2
 20 11 2013  07 03  -21.0115 26014.4 -03509.2 -07.6826 26250.0
 20 11 2013  07 04  -21.0113 26014.2 -03509.2 -07.6826 26249.8
 20 11 2013  07 05  -21.0112 26014.1 -03509.2 -07.6826 26249.8
 20 11 2013  07 06  -21.0112 26014.1 -03509.2 -07.6826 26249.7
 20 11 2013  07 07  -21.0114 26014.2 -03509.3 -07.6828 26249.9
 20 11 2013  07 08  -21.0115 26014.2 -03509.4 -07.6830 26249.9
 20 11 2013  07 09  -21.0117 26014.3 -03509.4 -07.6830 26249.9
 20 11 2013  07 10  -21.0118 26014.4 -03509.5 -07.6831 26250.0
 20 11 2013  07 11  -21.0119 26014.5 -03509.6 -07.6833 26250.2
 20 11 2013  07 12  -21.0122 26014.6 -03509.6 -07.6833 26250.3
 20 11 2013  07 13  -21.0125 26014.5 -03509.6 -07.6834 26250.2
 20 11 2013  07 14  -21.0126 26014.4 -03509.6 -07.6833 26250.1
 20 11 2013  07 15  -21.0129 26014.2 -03509.4 -07.6830 26249.9
 20 11 2013  07 16  -21.0130 26014.2 -03509.4 -07.6830 26249.8
 20 11 2013  07 17  -21.0133 26014.1 -03509.3 -07.6829 26249.7
 20 11 2013  07 18  -21.0138 26014.0 -03509.3 -07.6828 26249.6
 20 11 2013  07 19  -21.0142 26014.0 -03509.3 -07.6829 26249.7
 20 11 2013  07 20  -21.0148 26014.0 -03509.3 -07.6829 26249.6
 20 11 2013  07 21  -21.0148 26014.1 -03509.3 -07.6829 26249.7
 20 11 2013  07 22  -21.0148 26013.9 -03509.2 -07.6827 26249.5
 20 11 2013  07 23  -21.0152 26013.8 -03509.2 -07.6826 26249.4
 20 11 2013  07 24  -21.0154 26013.8 -03509.2 -07.6827 26249.4
 20 11 2013  07 25  -21.0158 26013.7 -03509.2 -07.6827 26249.3
 20 11 2013  07 26  -21.0158 26013.7 -03509.2 -07.6827 26249.3
 20 11 2013  07 27  -21.0161 26013.5 -03509.1 -07.6826 26249.2
 20 11 2013  07 28  -21.0163 26013.4 -03509.1 -07.6826 26249.0
 20 11 2013  07 29  -21.0165 26013.4 -03509.1 -07.6825 26249.0
 20 11 2013  07 30  -21.0165 26013.3 -03509.0 -07.6824 26248.9
 20 11 2013  07 31  -21.0165 26013.3 -03509.0 -07.6825 26248.9
 20 11 2013  07 32  -21.0169 26013.2 -03509.1 -07.6826 26248.8
 20 11 2013  07 33  -21.0171 26013.1 -03509.1 -07.6826 26248.7
 20 11 2013  07 34  -21.0173 26013.0 -03509.1 -07.6826 26248.7
 20 11 2013  07 35  -21.0177 26012.9 -03509.0 -07.6826 26248.5
 20 11 2013  07 36  -21.0183 26012.8 -03509.0 -07.6825 26248.4
 20 11 2013  07 37  -21.0187 26012.8 -03509.0 -07.6825 26248.4
 20 11 2013  07 38  -21.0187 26012.7 -03508.9 -07.6824 26248.3
 20 11 2013  07 39  -21.0187 26012.7 -03509.0 -07.6825 26248.3
 20 11 2013  07 40  -21.0189 26012.7 -03509.0 -07.6825 26248.3
 20 11 2013  07 41  -21.0190 26012.8 -03509.1 -07.6827 26248.5
 20 11 2013  07 42  -21.0192 26012.9 -03509.2 -07.6829 26248.6
 20 11 2013  07 43  -21.0193 26013.0 -03509.2 -07.6830 26248.6
 20 11 2013  07 44  -21.0194 26013.1 -03509.3 -07.6830 26248.7
 20 11 2013  07 45  -21.0197 26013.2 -03509.4 -07.6832 26248.8
 20 11 2013  07 46  -21.0199 26013.3 -03509.4 -07.6833 26249.0
 20 11 2013  07 47  -21.0202 26013.4 -03509.5 -07.6834 26249.1
 20 11 2013  07 48  -21.0203 26013.4 -03509.5 -07.6834 26249.1
 20 11 2013  07 49  -21.0208 26013.4 -03509.5 -07.6834 26249.1
 20 11 2013  07 50  -21.0210 26013.4 -03509.5 -07.6835 26249.1
 20 11 2013  07 51  -21.0211 26013.4 -03509.5 -07.6835 26249.1
 20 11 2013  07 52  -21.0212 26013.6 -03509.6 -07.6835 26249.2
 20 11 2013  07 53  -21.0213 26013.7 -03509.6 -07.6835 26249.4
 20 11 2013  07 54  -21.0212 26013.7 -03509.6 -07.6835 26249.3
 20 11 2013  07 55  -21.0210 26013.8 -03509.6 -07.6835 26249.4
 20 11 2013  07 56  -21.0211 26013.8 -03509.6 -07.6835 26249.5
 20 11 2013  07 57  -21.0212 26013.9 -03509.6 -07.6836 26249.6
 20 11 2013  07 58  -21.0215 26014.0 -03509.7 -07.6836 26249.7
 20 11 2013  07 59  -21.0216 26014.0 -03509.7 -07.6837 26249.7
 20 11 2013  08 00  -21.0218 26014.0 -03509.7 -07.6836 26249.6
 20 11 2013  08 01  -21.0217 26013.9 -03509.6 -07.6836 26249.6
 20 11 2013  08 02  -21.0214 26013.8 -03509.5 -07.6834 26249.5
 20 11 2013  08 03  -21.0212 26013.8 -03509.5 -07.6833 26249.5
 20 11 2013  08 04  -21.0205 26013.8 -03509.5 -07.6832 26249.5
 20 11 2013  08 05  -21.0199 26013.7 -03509.4 -07.6831 26249.4
 20 11 2013  08 06  -21.0195 26013.8 -03509.4 -07.6831 26249.4
 20 11 2013  08 07  -21.0191 26013.7 -03509.4 -07.6831 26249.3
 20 11 2013  08 08  -21.0189 26013.6 -03509.4 -07.6831 26249.2
 20 11 2013  08 09  -21.0187 26013.6 -03509.4 -07.6831 26249.2
 20 11 2013  08 10  -21.0185 26013.6 -03509.4 -07.6832 26249.3
 20 11 2013  08 11  -21.0183 26013.7 -03509.5 -07.6832 26249.3
 20 11 2013  08 12  -21.0183 26013.7 -03509.4 -07.6832 26249.3
 20 11 2013  08 13  -21.0184 26013.7 -03509.4 -07.6832 26249.3
 20 11 2013  08 14  -21.0183 26013.6 -03509.4 -07.6832 26249.3
 20 11 2013  08 15  -21.0182 26013.6 -03509.4 -07.6832 26249.3
 20 11 2013  08 16  -21.0178 26013.6 -03509.3 -07.6830 26249.2
 20 11 2013  08 17  -21.0174 26013.6 -03509.3 -07.6829 26249.2
 20 11 2013  08 18  -21.0172 26013.7 -03509.3 -07.6830 26249.3
 20 11 2013  08 19  -21.0171 26013.8 -03509.4 -07.6831 26249.5
 20 11 2013  08 20  -21.0167 26014.0 -03509.3 -07.6828 26249.6
 20 11 2013  08 21  -21.0162 26014.1 -03509.5 -07.6832 26249.7
 20 11 2013  08 22  -21.0156 26014.0 -03509.4 -07.6831 26249.7
 20 11 2013  08 23  -21.0149 26013.9 -03509.3 -07.6829 26249.6
 20 11 2013  08 24  -21.0141 26013.7 -03509.2 -07.6827 26249.3
 20 11 2013  08 25  -21.0133 26013.6 -03509.1 -07.6826 26249.2
 20 11 2013  08 26  -21.0129 26013.5 -03509.1 -07.6826 26249.1
 20 11 2013  08 27  -21.0125 26013.4 -03509.2 -07.6827 26249.0
 20 11 2013  08 28  -21.0121 26013.3 -03509.2 -07.6828 26248.9
 20 11 2013  08 29  -21.0114 26013.2 -03509.2 -07.6828 26248.8
 20 11 2013  08 30  -21.0108 26013.0 -03509.2 -07.6829 26248.7
 20 11 2013  08 31  -21.0104 26013.0 -03509.3 -07.6831 26248.6
 20 11 2013  08 32  -21.0104 26013.0 -03509.4 -07.6833 26248.6
 20 11 2013  08 33  -21.0103 26013.0 -03509.6 -07.6837 26248.7
 20 11 2013  08 34  -21.0102 26012.8 -03509.5 -07.6837 26248.5
 20 11 2013  08 35  -21.0103 26012.6 -03509.6 -07.6839 26248.3
 20 11 2013  08 36  -21.0102 26012.5 -03509.7 -07.6841 26248.2
 20 11 2013  08 37  -21.0099 26012.5 -03509.8 -07.6844 26248.2
 20 11 2013  08 38  -21.0094 26012.3 -03509.7 -07.6841 26248.0
 20 11 2013  08 39  -21.0088 26012.2 -03509.8 -07.6845 26247.9
 20 11 2013  08 40  -21.0083 26012.0 -03509.9 -07.6847 26247.7
 20 11 2013  08 41  -21.0080 26011.8 -03510.0 -07.6850 26247.5
 20 11 2013  08 42  -21.0079 26011.7 -03510.2 -07.6854 26247.5
 20 11 2013  08 43  -21.0077 26011.8 -03510.4 -07.6859 26247.6
 20 11 2013  08 44  -21.0073 26011.8 -03510.6 -07.6863 26247.6
 20 11 2013  08 45  -21.0071 26011.8 -03510.8 -07.6868 26247.7
 20 11 2013  08 46  -21.0068 26011.8 -03511.0 -07.6872 26247.7
 20 11 2013  08 47  -21.0065 26011.8 -03511.2 -07.6875 26247.7
 20 11 2013  08 48  -21.0066 26011.7 -03511.4 -07.6879 26247.7
 20 11 2013  08 49  -21.0069 26011.7 -03511.5 -07.6883 26247.6
 20 11 2013  08 50  -21.0072 26011.7 -03511.7 -07.6887 26247.7
 20 11 2013  08 51  -21.0074 26011.5 -03511.8 -07.6889 26247.5
 20 11 2013  08 52  -21.0079 26011.4 -03511.9 -07.6892 26247.4
 20 11 2013  08 53  -21.0085 26011.3 -03512.0 -07.6895 26247.3
 20 11 2013  08 54  -21.0089 26011.2 -03512.1 -07.6898 26247.3
 20 11 2013  08 55  -21.0094 26011.2 -03512.3 -07.6901 26247.3
 20 11 2013  08 56  -21.0100 26011.1 -03512.4 -07.6904 26247.2
 20 11 2013  08 57  -21.0104 26011.2 -03512.5 -07.6906 26247.3
 20 11 2013  08 58  -21.0107 26011.2 -03512.7 -07.6910 26247.3
 20 11 2013  08 59  -21.0109 26011.1 -03512.8 -07.6912 26247.3
 20 11 2013  09 00  -21.0112 26011.1 -03512.9 -07.6914 26247.2
 20 11 2013  09 01  -21.0113 26010.9 -03513.0 -07.6916 26247.1
 20 11 2013  09 02  -21.0116 26010.8 -03513.0 -07.6918 26246.9
 20 11 2013  09 03  -21.0122 26010.7 -03513.1 -07.6921 26246.9
 20 11 2013  09 04  -21.0130 26010.8 -03513.3 -07.6925 26247.0
 20 11 2013  09 05  -21.0136 26010.8 -03513.5 -07.6928 26247.0
 20 11 2013  09 06  -21.0139 26010.6 -03513.5 -07.6928 26246.8
 20 11 2013  09 07  -21.0145 26010.5 -03513.5 -07.6930 26246.7
 20 11 2013  09 08  -21.0152 26010.4 -03513.6 -07.6932 26246.6
 20 11 2013  09 09  -21.0158 26010.3 -03513.7 -07.6934 26246.5
 20 11 2013  09 10  -21.0164 26010.2 -03513.7 -07.6935 26246.4
 20 11 2013  09 11  -21.0171 26010.2 -03513.8 -07.6936 26246.5
 20 11 2013  09 12  -21.0181 26010.4 -03513.8 -07.6937 26246.7
 20 11 2013  09 13  -21.0189 26010.5 -03514.0 -07.6941 26246.8
 20 11 2013  09 14  -21.0196 26010.4 -03513.8 -07.6935 26246.7
 20 11 2013  09 15  -21.0199 26010.2 -03513.9 -07.6939 26246.5
 20 11 2013  09 16  -21.0205 26010.3 -03514.1 -07.6944 26246.6
 20 11 2013  09 17  -21.0213 26010.5 -03514.4 -07.6949 26246.9
 20 11 2013  09 18  -21.0219 26010.6 -03514.5 -07.6950 26246.9
 20 11 2013  09 19  -21.0225 26010.6 -03514.6 -07.6952 26246.9
 20 11 2013  09 20  -21.0228 26010.5 -03514.6 -07.6952 26246.8
 20 11 2013  09 21  -21.0232 26010.2 -03514.5 -07.6952 26246.6
 20 11 2013  09 22  -21.0239 26010.2 -03514.6 -07.6954 26246.6
 20 11 2013  09 23  -21.0243 26010.0 -03514.6 -07.6954 26246.4
 20 11 2013  09 24  -21.0246 26010.0 -03514.6 -07.6954 26246.4
 20 11 2013  09 25  -21.0249 26010.1 -03514.7 -07.6957 26246.5
 20 11 2013  09 26  -21.0256 26010.4 -03514.9 -07.6959 26246.8
 20 11 2013  09 27  -21.0261 26010.6 -03515.0 -07.6962 26247.1
 20 11 2013  09 28  -21.0264 26010.8 -03515.1 -07.6964 26247.2
 20 11 2013  09 29  -21.0268 26010.8 -03515.2 -07.6966 26247.3
 20 11 2013  09 30  -21.0274 26010.8 -03515.3 -07.6967 26247.3
 20 11 2013  09 31  -21.0276 26010.9 -03515.4 -07.6969 26247.4
 20 11 2013  09 32  -21.0281 26010.9 -03515.5 -07.6971 26247.4
 20 11 2013  09 33  -21.0287 26010.9 -03515.6 -07.6973 26247.4
 20 11 2013  09 34  -21.0291 26011.0 -03515.7 -07.6974 26247.5
 20 11 2013  09 35  -21.0297 26011.2 -03515.8 -07.6977 26247.8
 20 11 2013  09 36  -21.0304 26011.5 -03515.9 -07.6979 26248.0
 20 11 2013  09 37  -21.0310 26011.6 -03516.0 -07.6980 26248.2
 20 11 2013  09 38  -21.0316 26011.7 -03516.0 -07.6979 26248.2
 20 11 2013  09 39  -21.0321 26011.6 -03516.0 -07.6979 26248.2
 20 11 2013  09 40  -21.0333 26011.6 -03516.0 -07.6980 26248.2
 20 11 2013  09 41  -21.0340 26011.5 -03516.0 -07.6980 26248.1
 20 11 2013  09 42  -21.0346 26011.5 -03516.0 -07.6981 26248.1
 20 11 2013  09 43  -21.0347 26011.2 -03515.9 -07.6979 26247.7
 20 11 2013  09 44  -21.0350 26011.1 -03515.9 -07.6980 26247.6
 20 11 2013  09 45  -21.0355 26011.2 -03516.1 -07.6984 26247.7
 20 11 2013  09 46  -21.0357 26011.1 -03516.2 -07.6986 26247.7
 20 11 2013  09 47  -21.0360 26011.0 -03516.3 -07.6989 26247.6
 20 11 2013  09 48  -21.0361 26010.9 -03516.5 -07.6992 26247.6
 20 11 2013  09 49  -21.0361 26010.9 -03516.6 -07.6995 26247.5
 20 11 2013  09 50  -21.0364 26010.7 -03516.8 -07.7000 26247.4
 20 11 2013  09 51  -21.0366 26010.6 -03517.0 -07.7004 26247.3
 20 11 2013  09 52  -21.0369 26010.4 -03517.1 -07.7007 26247.1
 20 11 2013  09 53  -21.0373 26010.3 -03517.3 -07.7011 26247.1
 20 11 2013  09 54  -21.0382 26010.6 -03517.6 -07.7018 26247.4
 20 11 2013  09 55  -21.0393 26011.0 -03517.9 -07.7022 26247.9
 20 11 2013  09 56  -21.0406 26011.6 -03518.2 -07.7027 26248.4
 20 11 2013  09 57  -21.0419 26012.1 -03518.4 -07.7030 26249.0
 20 11 2013  09 58  -21.0430 26012.6 -03518.4 -07.7030 26249.5
 20 11 2013  09 59  -21.0439 26013.2 -03518.5 -07.7030 26250.1
 20 11 2013  10 00  -21.0446 26013.5 -03518.6 -07.7030 26250.4
 20 11 2013  10 01  -21.0450 26013.8 -03518.5 -07.7027 26250.7
 20 11 2013  10 02  -21.0449 26013.9 -03518.4 -07.7025 26250.8
 20 11 2013  10 03  -21.0444 26014.0 -03518.3 -07.7023 26250.8
 20 11 2013  10 04  -21.0441 26013.9 -03518.2 -07.7022 26250.7
 20 11 2013  10 05  -21.0439 26013.6 -03518.2 -07.7021 26250.4
 20 11 2013  10 06  -21.0437 26013.4 -03518.1 -07.7021 26250.2
 20 11 2013  10 07  -21.0435 26013.4 -03518.2 -07.7022 26250.2
 20 11 2013  10 08  -21.0438 26013.6 -03518.4 -07.7026 26250.5
 20 11 2013  10 09  -21.0439 26013.7 -03518.5 -07.7029 26250.6
 20 11 2013  10 10  -21.0444 26013.8 -03518.6 -07.7030 26250.7
 20 11 2013  10 11  -21.0450 26014.1 -03518.7 -07.7032 26251.0
 20 11 2013  10 12  -21.0449 26014.4 -03518.9 -07.7036 26251.3
 20 11 2013  10 13  -21.0450 26014.5 -03519.1 -07.7038 26251.4
 20 11 2013  10 14  -21.0453 26014.5 -03519.2 -07.7042 26251.5
 20 11 2013  10 15  -21.0453 26014.7 -03519.4 -07.7044 26251.7
 20 11 2013  10 16  -21.0455 26015.3 -03519.6 -07.7048 26252.3
 20 11 2013  10 17  -21.0458 26015.8 -03519.8 -07.7050 26252.8
 20 11 2013  10 18  -21.0463 26016.2 -03519.9 -07.7052 26253.2
 20 11 2013  10 19  -21.0465 26016.4 -03520.0 -07.7052 26253.5
 20 11 2013  10 20  -21.0467 26016.6 -03520.0 -07.7052 26253.6
 20 11 2013  10 21  -21.0469 26016.8 -03520.0 -07.7052 26253.9
 20 11 2013  10 22  -21.0470 26016.9 -03520.1 -07.7053 26254.0
 20 11 2013  10 23  -21.0467 26016.8 -03520.0 -07.7052 26253.9
 20 11 2013  10 24  -21.0463 26016.6 -03520.0 -07.7052 26253.7
 20 11 2013  10 25  -21.0460 26016.6 -03520.1 -07.7054 26253.7
 20 11 2013  10 26  -21.0456 26016.8 -03520.3 -07.7058 26253.9
 20 11 2013  10 27  -21.0454 26017.0 -03520.5 -07.7062 26254.1
 20 11 2013  10 28  -21.0454 26017.1 -03520.7 -07.7065 26254.2
 20 11 2013  10 29  -21.0454 26017.2 -03520.8 -07.7068 26254.4
 20 11 2013  10 30  -21.0454 26017.5 -03520.9 -07.7070 26254.6
 20 11 2013  10 31  -21.0458 26017.8 -03521.2 -07.7073 26255.0
 20 11 2013  10 32  -21.0457 26018.1 -03521.2 -07.7074 26255.3
 20 11 2013  10 33  -21.0459 26018.1 -03521.3 -07.7076 26255.4
 20 11 2013  10 34  -21.0462 26018.2 -03521.3 -07.7076 26255.4
 20 11 2013  10 35  -21.0460 26018.0 -03521.2 -07.7075 26255.2
 20 11 2013  10 36  -21.0466 26017.9 -03521.4 -07.7078 26255.1
 20 11 2013  10 37  -21.0463 26018.1 -03521.5 -07.7080 26255.3
 20 11 2013  10 38  -21.0473 26018.8 -03521.9 -07.7086 26256.1
 20 11 2013  10 39  -21.0474 26018.9 -03521.9 -07.7087 26256.1
 20 11 2013  10 40  -21.0475 26018.8 -03521.9 -07.7087 26256.1
 20 11 2013  10 41  -21.0475 26018.9 -03522.0 -07.7089 26256.2
 20 11 2013  10 42  -21.0469 26018.9 -03522.1 -07.7091 26256.2
 20 11 2013  10 43  -21.0465 26018.6 -03522.2 -07.7093 26255.9
 20 11 2013  10 44  -21.0463 26018.5 -03522.3 -07.7097 26255.8
 20 11 2013  10 45  -21.0465 26018.8 -03522.7 -07.7104 26256.2
 20 11 2013  10 46  -21.0466 26019.3 -03523.0 -07.7110 26256.8
 20 11 2013  10 47  -21.0466 26020.0 -03523.3 -07.7114 26257.4
 20 11 2013  10 48  -21.0466 26020.4 -03523.4 -07.7115 26257.8
 20 11 2013  10 49  -21.0467 26020.5 -03523.4 -07.7115 26258.0
 20 11 2013  10 50  -21.0465 26020.4 -03523.4 -07.7115 26257.9
 20 11 2013  10 51  -21.0463 26020.3 -03523.5 -07.7117 26257.7
 20 11 2013  10 52  -21.0465 26020.3 -03523.6 -07.7120 26257.8
 20 11 2013  10 53  -21.0466 26020.4 -03523.9 -07.7125 26257.9
 20 11 2013  10 54  -21.0463 26020.2 -03524.1 -07.7130 26257.7
 20 11 2013  10 55  -21.0462 26019.9 -03524.2 -07.7134 26257.5
 20 11 2013  10 56  -21.0461 26019.9 -03524.5 -07.7139 26257.5
 20 11 2013  10 57  -21.0462 26019.9 -03524.7 -07.7144 26257.5
 20 11 2013  10 58  -21.0466 26020.0 -03525.0 -07.7150 26257.6
 20 11 2013  10 59  -21.0470 26020.2 -03525.3 -07.7155 26257.9
 20 11 2013  11 00  -21.0473 26020.4 -03525.5 -07.7160 26258.2
 20 11 2013  11 01  -21.0477 26020.7 -03525.7 -07.7164 26258.5
 20 11 2013  11 02  -21.0480 26020.9 -03525.9 -07.7167 26258.7
 20 11 2013  11 03  -21.0484 26021.0 -03526.0 -07.7170 26258.9
 20 11 2013  11 04  -21.0486 26021.1 -03526.2 -07.7173 26259.0
 20 11 2013  11 05  -21.0490 26021.2 -03526.4 -07.7177 26259.1
 20 11 2013  11 06  -21.0489 26021.4 -03526.5 -07.7179 26259.3
 20 11 2013  11 07  -21.0488 26021.7 -03526.7 -07.7182 26259.6
 20 11 2013  11 08  -21.0489 26022.2 -03527.1 -07.7188 26260.1
 20 11 2013  11 09  -21.0490 26022.5 -03527.3 -07.7193 26260.5
 20 11 2013  11 10  -21.0488 26022.8 -03527.4 -07.7195 26260.8
 20 11 2013  11 11  -21.0488 26023.3 -03527.7 -07.7198 26261.3
 20 11 2013  11 12  -21.0492 26023.9 -03527.9 -07.7201 26261.9
 20 11 2013  11 13  -21.0495 26024.5 -03528.1 -07.7204 26262.6
 20 11 2013  11 14  -21.0501 26025.3 -03528.3 -07.7206 26263.4
 20 11 2013  11 15  -21.0503 26025.9 -03528.4 -07.7207 26264.0
 20 11 2013  11 16  -21.0505 26026.4 -03528.5 -07.7207 26264.5
 20 11 2013  11 17  -21.0503 26027.2 -03528.7 -07.7209 26265.3
 20 11 2013  11 18  -21.0501 26027.8 -03528.7 -07.7208 26265.9
 20 11 2013  11 19  -21.0500 26028.1 -03528.7 -07.7207 26266.3
 20 11 2013  11 20  -21.0497 26028.5 -03528.7 -07.7206 26266.6
 20 11 2013  11 21  -21.0495 26028.9 -03528.8 -07.7207 26267.0
 20 11 2013  11 22  -21.0497 26029.4 -03528.9 -07.7208 26267.5
 20 11 2013  11 23  -21.0497 26029.8 -03529.0 -07.7209 26267.9
 20 11 2013  11 24  -21.0496 26030.1 -03529.1 -07.7209 26268.2
 20 11 2013  11 25  -21.0491 26030.4 -03529.1 -07.7208 26268.5
 20 11 2013  11 26  -21.0485 26030.9 -03529.2 -07.7209 26269.0
 20 11 2013  11 27  -21.0480 26031.5 -03529.3 -07.7209 26269.7
 20 11 2013  11 28  -21.0478 26031.6 -03529.3 -07.7209 26269.8
 20 11 2013  11 29  -21.0480 26031.7 -03529.4 -07.7212 26269.9
 20 11 2013  11 30  -21.0476 26032.3 -03529.7 -07.7216 26270.5
 20 11 2013  11 31  -21.0478 26033.1 -03530.0 -07.7219 26271.4
 20 11 2013  11 32  -21.0480 26034.1 -03530.2 -07.7221 26272.4
 20 11 2013  11 33  -21.0482 26034.8 -03530.2 -07.7219 26273.0
 20 11 2013  11 34  -21.0480 26035.2 -03530.0 -07.7215 26273.4
 20 11 2013  11 35  -21.0479 26035.7 -03530.0 -07.7213 26273.9
 20 11 2013  11 36  -21.0477 26036.3 -03530.0 -07.7210 26274.5
 20 11 2013  11 37  -21.0474 26036.6 -03529.8 -07.7206 26274.7
 20 11 2013  11 38  -21.0469 26036.8 -03529.6 -07.7201 26275.0
 20 11 2013  11 39  -21.0470 26037.2 -03529.6 -07.7199 26275.3
 20 11 2013  11 40  -21.0472 26037.8 -03529.6 -07.7197 26275.9
 20 11 2013  11 41  -21.0472 26038.1 -03529.5 -07.7194 26276.2
 20 11 2013  11 42  -21.0478 26038.3 -03529.3 -07.7190 26276.4
 20 11 2013  11 43  -21.0488 26038.5 -03529.2 -07.7188 26276.5
 20 11 2013  11 44  -21.0489 26038.8 -03529.2 -07.7186 26276.9
 20 11 2013  11 45  -21.0487 26038.9 -03529.1 -07.7183 26277.0
 20 11 2013  11 46  -21.0487 26039.0 -03529.0 -07.7181 26277.1
 20 11 2013  11 47  -21.0493 26039.5 -03529.1 -07.7181 26277.5
 20 11 2013  11 48  -21.0497 26040.1 -03529.2 -07.7182 26278.2
 20 11 2013  11 49  -21.0495 26040.8 -03529.2 -07.7180 26278.9
 20 11 2013  11 50  -21.0491 26041.2 -03529.1 -07.7176 26279.2
 20 11 2013  11 51  -21.0491 26041.8 -03529.1 -07.7174 26279.8
 20 11 2013  11 52  -21.0491 26042.8 -03529.1 -07.7173 26280.8
 20 11 2013  11 53  -21.0496 26043.3 -03529.0 -07.7168 26281.3
 20 11 2013  11 54  -21.0498 26043.9 -03528.9 -07.7164 26281.9
 20 11 2013  11 55  -21.0498 26044.4 -03528.7 -07.7158 26282.3
 20 11 2013  11 56  -21.0497 26044.8 -03528.4 -07.7152 26282.7
 20 11 2013  11 57  -21.0494 26045.3 -03528.3 -07.7147 26283.2
 20 11 2013  11 58  -21.0490 26046.2 -03528.2 -07.7142 26284.1
 20 11 2013  11 59  -21.0487 26046.8 -03528.0 -07.7136 26284.6
 20 11 2013  12 00  -21.0482 26047.4 -03527.8 -07.7131 26285.3
 20 11 2013  12 01  -21.0477 26048.0 -03527.6 -07.7124 26285.7
 20 11 2013  12 02  -21.0474 26048.2 -03527.2 -07.7116 26285.9
 20 11 2013  12 03  -21.0472 26048.5 -03527.0 -07.7110 26286.2
 20 11 2013  12 04  -21.0474 26048.9 -03526.8 -07.7105 26286.5
 20 11 2013  12 05  -21.0474 26049.5 -03526.7 -07.7100 26287.1
 20 11 2013  12 06  -21.0476 26050.0 -03526.5 -07.7096 26287.7
 20 11 2013  12 07  -21.0474 26050.4 -03526.2 -07.7088 26288.0
 20 11 2013  12 08  -21.0465 26050.7 -03525.9 -07.7080 26288.2
 20 11 2013  12 09  -21.0455 26050.4 -03525.5 -07.7072 26287.9
 20 11 2013  12 10  -21.0449 26050.0 -03525.2 -07.7066 26287.5
 20 11 2013  12 11  -21.0445 26050.1 -03525.0 -07.7063 26287.5
 20 11 2013  12 12  -21.0442 26050.2 -03525.0 -07.7062 26287.6
 20 11 2013  12 13  -21.0441 26050.5 -03525.0 -07.7062 26287.9
 20 11 2013  12 14  -21.0444 26050.6 -03525.0 -07.7060 26288.0
 20 11 2013  12 15  -21.0440 26051.1 -03525.0 -07.7060 26288.5
 20 11 2013  12 16  -21.0440 26051.0 -03524.8 -07.7056 26288.4
 20 11 2013  12 17  -21.0437 26051.0 -03524.7 -07.7053 26288.4
 20 11 2013  12 18  -21.0435 26050.7 -03524.4 -07.7048 26288.1
 20 11 2013  12 19  -21.0436 26050.5 -03524.3 -07.7046 26287.8
 20 11 2013  12 20  -21.0443 26050.2 -03524.2 -07.7045 26287.5
 20 11 2013  12 21  -21.0447 26050.0 -03524.1 -07.7044 26287.3
 20 11 2013  12 22  -21.0452 26049.3 -03524.0 -07.7042 26286.6
 20 11 2013  12 23  -21.0459 26048.9 -03523.9 -07.7042 26286.1
 20 11 2013  12 24  -21.0467 26048.5 -03523.9 -07.7044 26285.8
 20 11 2013  12 25  -21.0476 26048.2 -03524.0 -07.7046 26285.5
 20 11 2013  12 26  -21.0482 26047.8 -03524.0 -07.7047 26285.1
 20 11 2013  12 27  -21.0486 26047.9 -03524.1 -07.7050 26285.2
 20 11 2013  12 28  -21.0492 26047.6 -03524.1 -07.7051 26285.0
 20 11 2013  12 29  -21.0487 26047.9 -03524.3 -07.7053 26285.3
 20 11 2013  12 30  -21.0484 26047.9 -03524.3 -07.7053 26285.3
 20 11 2013  12 31  -21.0478 26048.2 -03524.4 -07.7054 26285.6
 20 11 2013  12 32  -21.0475 26048.1 -03524.3 -07.7053 26285.4
 20 11 2013  12 33  -21.0474 26048.0 -03524.3 -07.7053 26285.4
 20 11 2013  12 34  -21.0473 26048.2 -03524.4 -07.7054 26285.5
 20 11 2013  12 35  -21.0473 26048.2 -03524.3 -07.7053 26285.5
 20 11 2013  12 36  -21.0469 26048.5 -03524.4 -07.7054 26285.9
 20 11 2013  12 37  -21.0475 26048.4 -03524.3 -07.7053 26285.7
 20 11 2013  12 38  -21.0477 26048.6 -03524.3 -07.7052 26285.9
 20 11 2013  12 39  -21.0479 26048.6 -03524.3 -07.7050 26285.9
 20 11 2013  12 40  -21.0479 26049.1 -03524.3 -07.7051 26286.4
 20 11 2013  12 41  -21.0480 26049.1 -03524.2 -07.7048 26286.4
 20 11 2013  12 42  -21.0481 26049.6 -03524.2 -07.7047 26286.9
 20 11 2013  12 43  -21.0480 26050.0 -03524.2 -07.7046 26287.3
 20 11 2013  12 44  -21.0477 26050.3 -03524.2 -07.7044 26287.6
 20 11 2013  12 45  -21.0470 26050.6 -03524.1 -07.7041 26287.9
 20 11 2013  12 46  -21.0462 26051.0 -03524.0 -07.7039 26288.3
 20 11 2013  12 47  -21.0458 26051.3 -03523.9 -07.7036 26288.6
 20 11 2013  12 48  -21.0453 26051.6 -03523.8 -07.7033 26288.9
 20 11 2013  12 49  -21.0451 26052.0 -03523.8 -07.7031 26289.2
 20 11 2013  12 50  -21.0449 26052.2 -03523.6 -07.7025 26289.4
 20 11 2013  12 51  -21.0446 26053.1 -03523.7 -07.7024 26290.3
 20 11 2013  12 52  -21.0448 26053.4 -03523.5 -07.7019 26290.6
 20 11 2013  12 53  -21.0450 26053.5 -03523.2 -07.7013 26290.7
 20 11 2013  12 54  -21.0450 26053.6 -03522.9 -07.7007 26290.7
 20 11 2013  12 55  -21.0446 26054.0 -03522.9 -07.7004 26291.1
 20 11 2013  12 56  -21.0440 26054.3 -03522.7 -07.7000 26291.4
 20 11 2013  12 57  -21.0433 26054.6 -03522.5 -07.6994 26291.7
 20 11 2013  12 58  -21.0427 26055.1 -03522.4 -07.6991 26292.1
 20 11 2013  12 59  -21.0424 26055.5 -03522.3 -07.6987 26292.5
 20 11 2013  13 00  -21.0418 26056.6 -03522.3 -07.6985 26293.6
 20 11 2013  13 01  -21.0415 26057.6 -03522.4 -07.6983 26294.5
 20 11 2013  13 02  -21.0412 26058.0 -03522.1 -07.6977 26295.0
 20 11 2013  13 03  -21.0407 26058.5 -03521.9 -07.6970 26295.4
 20 11 2013  13 04  -21.0405 26059.0 -03521.7 -07.6965 26295.9
 20 11 2013  13 05  -21.0404 26059.9 -03521.6 -07.6959 26296.7
 20 11 2013  13 06  -21.0400 26060.6 -03521.4 -07.6953 26297.4
 20 11 2013  13 07  -21.0389 26060.7 -03520.9 -07.6943 26297.5
 20 11 2013  13 08  -21.0379 26060.7 -03520.4 -07.6933 26297.5
 20 11 2013  13 09  -21.0367 26060.5 -03519.9 -07.6922 26297.1
 20 11 2013  13 10  -21.0357 26060.5 -03519.5 -07.6912 26297.0
 20 11 2013  13 11  -21.0349 26061.2 -03519.4 -07.6909 26297.8
 20 11 2013  13 12  -21.0345 26061.6 -03519.1 -07.6902 26298.2
 20 11 2013  13 13  -21.0340 26062.1 -03518.9 -07.6895 26298.6
 20 11 2013  13 14  -21.0333 26062.9 -03518.7 -07.6890 26299.4
 20 11 2013  13 15  -21.0322 26063.1 -03518.3 -07.6880 26299.5
 20 11 2013  13 16  -21.0310 26063.4 -03517.9 -07.6871 26299.7
 20 11 2013  13 17  -21.0299 26064.1 -03517.7 -07.6865 26300.4
 20 11 2013  13 18  -21.0291 26065.0 -03517.7 -07.6860 26301.3
 20 11 2013  13 19  -21.0291 26065.5 -03517.5 -07.6855 26301.8
 20 11 2013  13 20  -21.0290 26065.9 -03517.1 -07.6847 26302.1
 20 11 2013  13 21  -21.0286 26066.7 -03516.9 -07.6838 26302.9
 20 11 2013  13 22  -21.0284 26067.3 -03516.5 -07.6829 26303.4
 20 11 2013  13 23  -21.0282 26067.9 -03516.1 -07.6818 26304.0
 20 11 2013  13 24  -21.0278 26068.5 -03515.8 -07.6809 26304.5
 20 11 2013  13 25  -21.0274 26068.9 -03515.4 -07.6800 26304.9
 20 11 2013  13 26  -21.0271 26069.4 -03515.0 -07.6789 26305.3
 20 11 2013  13 27  -21.0265 26069.7 -03514.5 -07.6778 26305.6
 20 11 2013  13 28  -21.0259 26069.7 -03513.9 -07.6766 26305.4
 20 11 2013  13 29  -21.0253 26069.9 -03513.4 -07.6754 26305.6
 20 11 2013  13 30  -21.0251 26070.3 -03513.1 -07.6746 26305.9
 20 11 2013  13 31  -21.0251 26070.5 -03512.7 -07.6737 26306.1
 20 11 2013  13 32  -21.0251 26070.7 -03512.2 -07.6726 26306.2
 20 11 2013  13 33  -21.0248 26070.9 -03511.8 -07.6716 26306.4
 20 11 2013  13 34  -21.0246 26071.3 -03511.4 -07.6708 26306.7
 20 11 2013  13 35  -21.0244 26071.7 -03511.0 -07.6698 26307.0
 20 11 2013  13 36  -21.0242 26072.1 -03510.7 -07.6689 26307.5
 20 11 2013  13 37  -21.0242 26072.5 -03510.4 -07.6681 26307.7
 20 11 2013  13 38  -21.0242 26072.8 -03510.0 -07.6672 26308.0
 20 11 2013  13 39  -21.0243 26073.1 -03509.6 -07.6663 26308.3
 20 11 2013  13 40  -21.0242 26073.3 -03509.2 -07.6654 26308.4
 20 11 2013  13 41  -21.0241 26073.4 -03508.8 -07.6644 26308.5
 20 11 2013  13 42  -21.0240 26073.7 -03508.4 -07.6636 26308.6
 20 11 2013  13 43  -21.0239 26074.1 -03508.2 -07.6630 26309.0
 20 11 2013  13 44  -21.0240 26074.6 -03508.1 -07.6625 26309.6
 20 11 2013  13 45  -21.0240 26075.0 -03507.8 -07.6618 26309.9
 20 11 2013  13 46  -21.0239 26075.2 -03507.4 -07.6610 26310.0
 20 11 2013  13 47  -21.0237 26075.3 -03507.1 -07.6602 26310.1
 20 11 2013  13 48  -21.0234 26075.5 -03506.8 -07.6596 26310.2
 20 11 2013  13 49  -21.0232 26075.8 -03506.6 -07.6591 26310.5
 20 11 2013  13 50  -21.0232 26076.3 -03506.5 -07.6587 26311.0
 20 11 2013  13 51  -21.0231 26076.6 -03506.3 -07.6582 26311.3
 20 11 2013  13 52  -21.0229 26077.0 -03506.2 -07.6577 26311.7
 20 11 2013  13 53  -21.0226 26077.4 -03506.0 -07.6571 26312.0
 20 11 2013  13 54  -21.0223 26077.8 -03505.8 -07.6567 26312.4
 20 11 2013  13 55  -21.0221 26078.3 -03505.6 -07.6562 26312.9
 20 11 2013  13 56  -21.0219 26078.7 -03505.4 -07.6557 26313.3
 20 11 2013  13 57  -21.0218 26079.2 -03505.3 -07.6552 26313.7
 20 11 2013  13 58  -21.0216 26079.3 -03505.0 -07.6546 26313.8
 20 11 2013  13 59  -21.0212 26079.7 -03504.8 -07.6541 26314.1
 20 11 2013  14 00  -21.0207 26079.8 -03504.5 -07.6534 26314.2
 20 11 2013  14 01  -21.0200 26079.9 -03504.3 -07.6529 26314.3
 20 11 2013  14 02  -21.0194 26080.1 -03504.2 -07.6525 26314.5
 20 11 2013  14 03  -21.0189 26080.1 -03503.9 -07.6520 26314.4
 20 11 2013  14 04  -21.0182 26080.3 -03503.8 -07.6516 26314.6
 20 11 2013  14 05  -21.0175 26080.6 -03503.6 -07.6512 26314.8
 20 11 2013  14 06  -21.0169 26080.9 -03503.6 -07.6510 26315.2
 20 11 2013  14 07  -21.0163 26081.2 -03503.5 -07.6506 26315.4
 20 11 2013  14 08  -21.0158 26081.7 -03503.4 -07.6504 26315.9
 20 11 2013  14 09  -21.0154 26082.0 -03503.2 -07.6499 26316.2
 20 11 2013  14 10  -21.0151 26082.2 -03503.0 -07.6494 26316.3
 20 11 2013  14 11  -21.0147 26082.3 -03502.8 -07.6489 26316.5
 20 11 2013  14 12  -21.0140 26082.4 -03502.5 -07.6483 26316.5
 20 11 2013  14 13  -21.0134 26082.3 -03502.2 -07.6476 26316.4
 20 11 2013  14 14  -21.0128 26082.1 -03501.9 -07.6470 26316.2
 20 11 2013  14 15  -21.0124 26082.1 -03501.7 -07.6467 26316.1
 20 11 2013  14 16  -21.0116 26082.0 -03501.6 -07.6464 26316.0
 20 11 2013  14 17  -21.0111 26082.4 -03501.6 -07.6463 26316.4
 20 11 2013  14 18  -21.0104 26082.7 -03501.6 -07.6462 26316.7
 20 11 2013  14 19  -21.0099 26083.2 -03501.6 -07.6460 26317.2
 20 11 2013  14 20  -21.0094 26083.5 -03501.5 -07.6458 26317.5
 20 11 2013  14 21  -21.0091 26083.9 -03501.4 -07.6454 26317.9
 20 11 2013  14 22  -21.0091 26084.8 -03501.4 -07.6452 26318.8
 20 11 2013  14 23  -21.0092 26085.6 -03501.4 -07.6449 26319.5
 20 11 2013  14 24  -21.0091 26086.2 -03501.2 -07.6444 26320.1
 20 11 2013  14 25  -21.0089 26086.7 -03501.0 -07.6438 26320.6
 20 11 2013  14 26  -21.0084 26086.8 -03500.6 -07.6429 26320.7
 20 11 2013  14 27  -21.0077 26087.0 -03500.3 -07.6422 26320.7
 20 11 2013  14 28  -21.0069 26087.2 -03500.1 -07.6417 26320.9
 20 11 2013  14 29  -21.0064 26087.3 -03499.9 -07.6412 26321.0
 20 11 2013  14 30  -21.0057 26087.2 -03499.6 -07.6406 26320.9
 20 11 2013  14 31  -21.0052 26087.1 -03499.3 -07.6400 26320.7
 20 11 2013  14 32  -21.0045 26086.8 -03499.1 -07.6395 26320.4
 20 11 2013  14 33  -21.0039 26086.5 -03498.9 -07.6392 26320.1
 20 11 2013  14 34  -21.0033 26086.4 -03498.8 -07.6390 26320.0
 20 11 2013  14 35  -21.0028 26086.1 -03498.6 -07.6388 26319.7
 20 11 2013  14 36  -21.0024 26085.9 -03498.5 -07.6387 26319.5
 20 11 2013  14 37  -21.0018 26085.7 -03498.5 -07.6386 26319.2
 20 11 2013  14 38  -21.0013 26085.5 -03498.4 -07.6385 26319.0
 20 11 2013  14 39  -21.0007 26085.2 -03498.3 -07.6384 26318.8
 20 11 2013  14 40  -21.0003 26085.0 -03498.2 -07.6383 26318.6
 20 11 2013  14 41  -20.9999 26084.9 -03498.2 -07.6383 26318.4
 20 11 2013  14 42  -20.9996 26084.9 -03498.2 -07.6383 26318.4
 20 11 2013  14 43  -20.9994 26084.7 -03498.2 -07.6382 26318.2
 20 11 2013  14 44  -20.9993 26084.6 -03498.1 -07.6381 26318.2
 20 11 2013  14 45  -20.9993 26084.6 -03498.0 -07.6380 26318.1
 20 11 2013  14 46  -20.9993 26084.7 -03498.0 -07.6378 26318.2
 20 11 2013  14 47  -20.9993 26085.0 -03498.0 -07.6378 26318.5
 20 11 2013  14 48  -20.9994 26085.1 -03497.9 -07.6376 26318.6
 20 11 2013  14 49  -20.9994 26085.4 -03497.9 -07.6375 26318.9
 20 11 2013  14 50  -20.9993 26085.5 -03497.8 -07.6372 26319.0
 20 11 2013  14 51  -20.9992 26085.5 -03497.6 -07.6367 26318.9
 20 11 2013  14 52  -20.9989 26085.3 -03497.3 -07.6362 26318.7
 20 11 2013  14 53  -20.9987 26085.3 -03497.2 -07.6360 26318.7
 20 11 2013  14 54  -20.9985 26085.2 -03497.1 -07.6357 26318.6
 20 11 2013  14 55  -20.9984 26085.3 -03496.9 -07.6354 26318.6
 20 11 2013  14 56  -20.9982 26085.1 -03496.8 -07.6351 26318.5
 20 11 2013  14 57  -20.9983 26085.2 -03496.7 -07.6350 26318.5
 20 11 2013  14 58  -20.9981 26085.1 -03496.6 -07.6348 26318.4
 20 11 2013  14 59  -20.9980 26085.2 -03496.6 -07.6347 26318.5
 20 11 2013  15 00  -20.9980 26085.3 -03496.6 -07.6347 26318.6
 20 11 2013  15 01  -20.9978 26085.5 -03496.7 -07.6348 26318.8
 20 11 2013  15 02  -20.9977 26085.6 -03496.7 -07.6348 26319.0
 20 11 2013  15 03  -20.9976 26085.7 -03496.7 -07.6347 26319.0
 20 11 2013  15 04  -20.9978 26085.8 -03496.6 -07.6346 26319.1
 20 11 2013  15 05  -20.9983 26086.0 -03496.7 -07.6346 26319.3
 20 11 2013  15 06  -20.9988 26086.2 -03496.7 -07.6346 26319.5
 20 11 2013  15 07  -20.9990 26086.1 -03496.6 -07.6345 26319.4
 20 11 2013  15 08  -20.9992 26086.1 -03496.5 -07.6343 26319.4
 20 11 2013  15 09  -20.9994 26085.9 -03496.5 -07.6342 26319.2
 20 11 2013  15 10  -20.9995 26085.7 -03496.4 -07.6341 26319.0
 20 11 2013  15 11  -20.9999 26085.3 -03496.2 -07.6338 26318.6
 20 11 2013  15 12  -21.0004 26085.0 -03496.1 -07.6337 26318.3
 20 11 2013  15 13  -21.0007 26085.0 -03496.2 -07.6338 26318.3
 20 11 2013  15 14  -21.0008 26085.1 -03496.2 -07.6339 26318.3
 20 11 2013  15 15  -21.0008 26085.3 -03496.3 -07.6341 26318.5
 20 11 2013  15 16  -21.0008 26085.2 -03496.3 -07.6340 26318.4
 20 11 2013  15 17  -21.0009 26085.2 -03496.3 -07.6341 26318.5
 20 11 2013  15 18  -21.0011 26085.2 -03496.3 -07.6341 26318.5
 20 11 2013  15 19  -21.0013 26085.0 -03496.2 -07.6339 26318.3
 20 11 2013  15 20  -21.0014 26084.9 -03496.2 -07.6339 26318.1
 20 11 2013  15 21  -21.0015 26084.6 -03496.1 -07.6337 26317.8
 20 11 2013  15 22  -21.0016 26084.4 -03496.0 -07.6336 26317.6
 20 11 2013  15 23  -21.0015 26084.1 -03495.9 -07.6335 26317.3
 20 11 2013  15 24  -21.0013 26083.7 -03495.8 -07.6334 26317.0
 20 11 2013  15 25  -21.0013 26083.5 -03495.8 -07.6334 26316.7
 20 11 2013  15 26  -21.0012 26083.3 -03495.8 -07.6335 26316.5
 20 11 2013  15 27  -21.0013 26083.2 -03495.8 -07.6335 26316.4
 20 11 2013  15 28  -21.0015 26082.9 -03495.7 -07.6335 26316.1
 20 11 2013  15 29  -21.0017 26082.7 -03495.7 -07.6334 26315.9
 20 11 2013  15 30  -21.0020 26082.6 -03495.6 -07.6334 26315.8
 20 11 2013  15 31  -21.0023 26082.3 -03495.6 -07.6333 26315.5
 20 11 2013  15 32  -21.0027 26082.3 -03495.5 -07.6333 26315.5
 20 11 2013  15 33  -21.0029 26082.1 -03495.5 -07.6332 26315.3
 20 11 2013  15 34  -21.0031 26081.9 -03495.4 -07.6331 26315.1
 20 11 2013  15 35  -21.0032 26081.6 -03495.3 -07.6329 26314.8
 20 11 2013  15 36  -21.0033 26081.4 -03495.2 -07.6329 26314.5
 20 11 2013  15 37  -21.0033 26081.2 -03495.2 -07.6329 26314.4
 20 11 2013  15 38  -21.0036 26081.2 -03495.3 -07.6330 26314.4
 20 11 2013  15 39  -21.0039 26081.2 -03495.3 -07.6331 26314.4
 20 11 2013  15 40  -21.0042 26081.1 -03495.3 -07.6331 26314.3
 20 11 2013  15 41  -21.0042 26081.0 -03495.3 -07.6331 26314.2
 20 11 2013  15 42  -21.0045 26081.0 -03495.3 -07.6331 26314.2
 20 11 2013  15 43  -21.0047 26080.9 -03495.2 -07.6330 26314.1
 20 11 2013  15 44  -21.0052 26080.9 -03495.2 -07.6329 26314.1
 20 11 2013  15 45  -21.0056 26081.0 -03495.2 -07.6328 26314.1
 20 11 2013  15 46  -21.0059 26080.9 -03495.1 -07.6327 26314.1
 20 11 2013  15 47  -21.0063 26080.8 -03495.0 -07.6326 26314.0
 20 11 2013  15 48  -21.0065 26080.9 -03495.0 -07.6326 26314.0
 20 11 2013  15 49  -21.0069 26080.9 -03495.0 -07.6325 26314.0
 20 11 2013  15 50  -21.0071 26080.7 -03494.9 -07.6323 26313.8
 20 11 2013  15 51  -21.0071 26080.6 -03494.8 -07.6322 26313.7
 20 11 2013  15 52  -21.0071 26080.5 -03494.7 -07.6320 26313.6
 20 11 2013  15 53  -21.0073 26080.5 -03494.7 -07.6319 26313.6
 20 11 2013  15 54  -21.0075 26080.4 -03494.5 -07.6316 26313.5
 20 11 2013  15 55  -21.0077 26080.3 -03494.4 -07.6314 26313.3
 20 11 2013  15 56  -21.0078 26080.2 -03494.3 -07.6312 26313.2
 20 11 2013  15 57  -21.0082 26080.0 -03494.2 -07.6310 26313.1
 20 11 2013  15 58  -21.0085 26079.9 -03494.1 -07.6309 26312.9
 20 11 2013  15 59  -21.0086 26079.9 -03494.0 -07.6307 26312.9
 20 11 2013  16 00  -21.0086 26079.8 -03493.9 -07.6305 26312.8
 20 11 2013  16 01  -21.0088 26079.9 -03493.9 -07.6305 26312.9
 20 11 2013  16 02  -21.0088 26079.8 -03493.8 -07.6303 26312.8
 20 11 2013  16 03  -21.0089 26079.7 -03493.7 -07.6300 26312.7
 20 11 2013  16 04  -21.0090 26079.6 -03493.5 -07.6297 26312.5
 20 11 2013  16 05  -21.0090 26079.4 -03493.4 -07.6295 26312.3
 20 11 2013  16 06  -21.0091 26079.3 -03493.3 -07.6292 26312.2
 20 11 2013  16 07  -21.0092 26079.1 -03493.1 -07.6290 26312.0
 20 11 2013  16 08  -21.0092 26079.0 -03493.0 -07.6287 26311.9
 20 11 2013  16 09  -21.0091 26078.8 -03492.9 -07.6285 26311.7
 20 11 2013  16 10  -21.0091 26078.6 -03492.7 -07.6282 26311.5
 20 11 2013  16 11  -21.0092 26078.6 -03492.7 -07.6281 26311.5
 20 11 2013  16 12  -21.0091 26078.6 -03492.5 -07.6279 26311.4
 20 11 2013  16 13  -21.0092 26078.4 -03492.4 -07.6276 26311.2
 20 11 2013  16 14  -21.0093 26078.1 -03492.2 -07.6274 26310.9
 20 11 2013  16 15  -21.0094 26077.9 -03492.1 -07.6271 26310.7
 20 11 2013  16 16  -21.0095 26077.8 -03492.0 -07.6269 26310.5
 20 11 2013  16 17  -21.0095 26077.8 -03491.9 -07.6267 26310.5
 20 11 2013  16 18  -21.0096 26077.7 -03491.9 -07.6266 26310.5
 20 11 2013  16 19  -21.0095 26077.6 -03491.8 -07.6264 26310.3
 20 11 2013  16 20  -21.0095 26077.4 -03491.6 -07.6262 26310.1
 20 11 2013  16 21  -21.0097 26077.2 -03491.6 -07.6261 26309.9
 20 11 2013  16 22  -21.0100 26077.1 -03491.5 -07.6261 26309.8
 20 11 2013  16 23  -21.0102 26077.3 -03491.6 -07.6262 26310.0
 20 11 2013  16 24  -21.0104 26077.2 -03491.5 -07.6261 26309.9
 20 11 2013  16 25  -21.0107 26077.1 -03491.5 -07.6260 26309.8
 20 11 2013  16 26  -21.0110 26077.1 -03491.4 -07.6259 26309.8
 20 11 2013  16 27  -21.0113 26077.0 -03491.4 -07.6258 26309.7
 20 11 2013  16 28  -21.0118 26077.0 -03491.4 -07.6258 26309.7
 20 11 2013  16 29  -21.0122 26076.9 -03491.3 -07.6257 26309.6
 20 11 2013  16 30  -21.0127 26076.8 -03491.2 -07.6256 26309.5
 20 11 2013  16 31  -21.0133 26076.7 -03491.1 -07.6254 26309.4
 20 11 2013  16 32  -21.0137 26076.5 -03491.0 -07.6251 26309.1
 20 11 2013  16 33  -21.0141 26076.2 -03490.9 -07.6249 26308.8
 20 11 2013  16 34  -21.0144 26076.1 -03490.7 -07.6247 26308.7
 20 11 2013  16 35  -21.0147 26075.8 -03490.6 -07.6244 26308.4
 20 11 2013  16 36  -21.0152 26075.6 -03490.5 -07.6243 26308.2
 20 11 2013  16 37  -21.0156 26075.4 -03490.4 -07.6242 26307.9
 20 11 2013  16 38  -21.0158 26075.1 -03490.2 -07.6239 26307.6
 20 11 2013  16 39  -21.0160 26074.8 -03490.1 -07.6236 26307.3
 20 11 2013  16 40  -21.0165 26074.6 -03490.0 -07.6234 26307.1
 20 11 2013  16 41  -21.0169 26074.4 -03489.9 -07.6233 26306.9
 20 11 2013  16 42  -21.0175 26074.1 -03489.7 -07.6230 26306.6
 20 11 2013  16 43  -21.0178 26073.9 -03489.5 -07.6227 26306.3
 20 11 2013  16 44  -21.0184 26073.6 -03489.4 -07.6225 26306.1
 20 11 2013  16 45  -21.0187 26073.4 -03489.3 -07.6223 26305.9
 20 11 2013  16 46  -21.0192 26073.3 -03489.2 -07.6221 26305.8
 20 11 2013  16 47  -21.0198 26073.1 -03489.0 -07.6217 26305.5
 20 11 2013  16 48  -21.0203 26073.0 -03488.8 -07.6214 26305.3
 20 11 2013  16 49  -21.0207 26072.7 -03488.6 -07.6210 26305.1
 20 11 2013  16 50  -21.0211 26072.4 -03488.3 -07.6206 26304.7
 20 11 2013  16 51  -21.0212 26072.0 -03488.1 -07.6201 26304.3
 20 11 2013  16 52  -21.0214 26071.7 -03487.9 -07.6198 26303.9
 20 11 2013  16 53  -21.0215 26071.3 -03487.6 -07.6193 26303.5
 20 11 2013  16 54  -21.0214 26071.0 -03487.4 -07.6190 26303.2
 20 11 2013  16 55  -21.0216 26070.6 -03487.2 -07.6187 26302.8
 20 11 2013  16 56  -21.0219 26070.3 -03487.1 -07.6184 26302.5
 20 11 2013  16 57  -21.0216 26070.1 -03486.9 -07.6182 26302.2
 20 11 2013  16 58  -21.0217 26069.8 -03486.8 -07.6179 26301.9
 20 11 2013  16 59  -21.0219 26069.5 -03486.6 -07.6177 26301.7
 20 11 2013  17 00  -21.0221 26069.3 -03486.5 -07.6176 26301.5
 20 11 2013  17 01  -21.0222 26069.1 -03486.4 -07.6173 26301.2
 20 11 2013  17 02  -21.0220 26068.9 -03486.2 -07.6171 26300.9
 20 11 2013  17 03  -21.0218 26068.7 -03486.2 -07.6170 26300.7
 20 11 2013  17 04  -21.0217 26068.5 -03486.1 -07.6169 26300.6
 20 11 2013  17 05  -21.0216 26068.2 -03486.0 -07.6167 26300.3
 20 11 2013  17 06  -21.0215 26067.9 -03485.9 -07.6166 26299.9
 20 11 2013  17 07  -21.0214 26067.4 -03485.7 -07.6163 26299.4
 20 11 2013  17 08  -21.0212 26067.0 -03485.7 -07.6164 26299.0
 20 11 2013  17 09  -21.0212 26066.8 -03485.8 -07.6166 26298.8
 20 11 2013  17 10  -21.0217 26066.7 -03485.8 -07.6168 26298.8
 20 11 2013  17 11  -21.0217 26066.6 -03485.9 -07.6170 26298.6
 20 11 2013  17 12  -21.0217 26066.4 -03485.9 -07.6171 26298.5
 20 11 2013  17 13  -21.0215 26066.4 -03486.0 -07.6174 26298.4
 20 11 2013  17 14  -21.0215 26066.5 -03486.2 -07.6177 26298.6
 20 11 2013  17 15  -21.0218 26066.5 -03486.3 -07.6179 26298.6
 20 11 2013  17 16  -21.0218 26066.3 -03486.2 -07.6178 26298.4
 20 11 2013  17 17  -21.0216 26065.9 -03486.1 -07.6176 26298.0
 20 11 2013  17 18  -21.0214 26065.5 -03486.0 -07.6175 26297.6
 20 11 2013  17 19  -21.0215 26065.2 -03486.0 -07.6177 26297.3
 20 11 2013  17 20  -21.0218 26064.9 -03486.0 -07.6178 26297.0
 20 11 2013  17 21  -21.0221 26064.8 -03486.2 -07.6181 26296.9
 20 11 2013  17 22  -21.0222 26064.8 -03486.3 -07.6184 26296.9
 20 11 2013  17 23  -21.0225 26064.7 -03486.4 -07.6186 26296.8
 20 11 2013  17 24  -21.0224 26064.6 -03486.4 -07.6187 26296.7
 20 11 2013  17 25  -21.0223 26064.3 -03486.4 -07.6188 26296.5
 20 11 2013  17 26  -21.0221 26064.1 -03486.5 -07.6189 26296.2
 20 11 2013  17 27  -21.0221 26063.8 -03486.6 -07.6192 26296.0
 20 11 2013  17 28  -21.0222 26063.5 -03486.7 -07.6196 26295.7
 20 11 2013  17 29  -21.0224 26063.2 -03486.8 -07.6200 26295.4
 20 11 2013  17 30  -21.0226 26063.1 -03487.0 -07.6204 26295.3
 20 11 2013  17 31  -21.0230 26063.0 -03487.2 -07.6209 26295.2
 20 11 2013  17 32  -21.0233 26062.8 -03487.4 -07.6213 26295.0
 20 11 2013  17 33  -21.0233 26062.4 -03487.4 -07.6214 26294.7
 20 11 2013  17 34  -21.0236 26062.3 -03487.5 -07.6217 26294.6
 20 11 2013  17 35  -21.0240 26062.2 -03487.6 -07.6220 26294.5
 20 11 2013  17 36  -21.0241 26061.9 -03487.7 -07.6222 26294.2
 20 11 2013  17 37  -21.0240 26061.6 -03487.7 -07.6224 26293.9
 20 11 2013  17 38  -21.0241 26061.4 -03487.8 -07.6227 26293.7
 20 11 2013  17 39  -21.0242 26061.0 -03487.9 -07.6230 26293.4
 20 11 2013  17 40  -21.0243 26060.7 -03488.0 -07.6233 26293.1
 20 11 2013  17 41  -21.0244 26060.5 -03488.2 -07.6237 26292.9
 20 11 2013  17 42  -21.0246 26060.2 -03488.4 -07.6242 26292.7
 20 11 2013  17 43  -21.0248 26059.9 -03488.5 -07.6245 26292.4
 20 11 2013  17 44  -21.0247 26059.4 -03488.5 -07.6247 26291.9
 20 11 2013  17 45  -21.0246 26058.9 -03488.6 -07.6251 26291.4
 20 11 2013  17 46  -21.0246 26058.5 -03488.8 -07.6255 26291.0
 20 11 2013  17 47  -21.0248 26058.1 -03489.0 -07.6260 26290.6
 20 11 2013  17 48  -21.0253 26057.8 -03489.3 -07.6268 26290.4
 20 11 2013  17 49  -21.0256 26057.5 -03489.5 -07.6273 26290.1
 20 11 2013  17 50  -21.0260 26057.1 -03489.6 -07.6278 26289.8
 20 11 2013  17 51  -21.0261 26056.7 -03489.8 -07.6283 26289.4
 20 11 2013  17 52  -21.0265 26056.2 -03489.9 -07.6287 26288.9
 20 11 2013  17 53  -21.0267 26055.9 -03490.1 -07.6291 26288.6
 20 11 2013  17 54  -21.0274 26055.5 -03490.3 -07.6297 26288.2
 20 11 2013  17 55  -21.0277 26054.9 -03490.4 -07.6300 26287.7
 20 11 2013  17 56  -21.0280 26054.5 -03490.6 -07.6306 26287.3
 20 11 2013  17 57  -21.0284 26054.0 -03490.8 -07.6311 26286.9
 20 11 2013  17 58  -21.0288 26054.0 -03491.1 -07.6318 26286.8
 20 11 2013  17 59  -21.0293 26053.7 -03491.3 -07.6323 26286.6
 20 11 2013  18 00  -21.0296 26053.4 -03491.4 -07.6328 26286.3
 20 11 2013  18 01  -21.0302 26053.2 -03491.7 -07.6333 26286.2
 20 11 2013  18 02  -21.0310 26052.9 -03491.8 -07.6337 26285.9
 20 11 2013  18 03  -21.0313 26052.6 -03492.0 -07.6341 26285.6
 20 11 2013  18 04  -21.0318 26052.3 -03492.1 -07.6345 26285.3
 20 11 2013  18 05  -21.0323 26052.1 -03492.3 -07.6350 26285.1
 20 11 2013  18 06  -21.0327 26051.7 -03492.4 -07.6353 26284.7
 20 11 2013  18 07  -21.0332 26051.2 -03492.5 -07.6357 26284.3
 20 11 2013  18 08  -21.0333 26050.9 -03492.7 -07.6362 26284.0
 20 11 2013  18 09  -21.0338 26050.6 -03492.8 -07.6365 26283.8
 20 11 2013  18 10  -21.0343 26050.2 -03492.9 -07.6369 26283.3
 20 11 2013  18 11  -21.0347 26049.8 -03493.0 -07.6373 26282.9
 20 11 2013  18 12  -21.0350 26049.3 -03493.1 -07.6376 26282.5
 20 11 2013  18 13  -21.0356 26049.1 -03493.3 -07.6381 26282.3
 20 11 2013  18 14  -21.0360 26048.8 -03493.5 -07.6385 26282.1
 20 11 2013  18 15  -21.0366 26048.6 -03493.6 -07.6389 26281.8
 20 11 2013  18 16  -21.0371 26048.3 -03493.8 -07.6393 26281.6
 20 11 2013  18 17  -21.0375 26048.0 -03493.8 -07.6395 26281.3
 20 11 2013  18 18  -21.0380 26047.8 -03494.0 -07.6399 26281.0
 20 11 2013  18 19  -21.0383 26047.6 -03494.1 -07.6402 26280.9
 20 11 2013  18 20  -21.0387 26047.4 -03494.2 -07.6405 26280.7
 20 11 2013  18 21  -21.0392 26047.4 -03494.4 -07.6410 26280.7
 20 11 2013  18 22  -21.0397 26047.4 -03494.6 -07.6413 26280.8
 20 11 2013  18 23  -21.0400 26047.2 -03494.7 -07.6416 26280.6
 20 11 2013  18 24  -21.0402 26047.1 -03494.8 -07.6419 26280.5
 20 11 2013  18 25  -21.0407 26047.0 -03495.0 -07.6422 26280.4
 20 11 2013  18 26  -21.0410 26046.9 -03495.0 -07.6424 26280.3
 20 11 2013  18 27  -21.0413 26046.8 -03495.2 -07.6428 26280.2
 20 11 2013  18 28  -21.0418 26046.7 -03495.4 -07.6432 26280.2
 20 11 2013  18 29  -21.0424 26046.5 -03495.4 -07.6434 26280.0
 20 11 2013  18 30  -21.0427 26046.4 -03495.6 -07.6437 26279.9
 20 11 2013  18 31  -21.0431 26046.4 -03495.8 -07.6442 26279.9
 20 11 2013  18 32  -21.0435 26046.2 -03495.9 -07.6444 26279.8
 20 11 2013  18 33  -21.0438 26046.0 -03496.0 -07.6447 26279.6
 20 11 2013  18 34  -21.0440 26045.7 -03496.1 -07.6450 26279.3
 20 11 2013  18 35  -21.0443 26045.5 -03496.2 -07.6453 26279.1
 20 11 2013  18 36  -21.0446 26045.3 -03496.3 -07.6457 26278.9
 20 11 2013  18 37  -21.0449 26045.1 -03496.4 -07.6460 26278.8
 20 11 2013  18 38  -21.0451 26045.0 -03496.6 -07.6463 26278.7
 20 11 2013  18 39  -21.0453 26044.8 -03496.7 -07.6465 26278.5
 20 11 2013  18 40  -21.0454 26044.5 -03496.7 -07.6468 26278.2
 20 11 2013  18 41  -21.0459 26044.4 -03496.9 -07.6471 26278.1
 20 11 2013  18 42  -21.0462 26044.2 -03497.0 -07.6474 26277.9
 20 11 2013  18 43  -21.0465 26044.1 -03497.1 -07.6478 26277.8
 20 11 2013  18 44  -21.0468 26044.0 -03497.3 -07.6481 26277.7
 20 11 2013  18 45  -21.0469 26043.7 -03497.3 -07.6483 26277.5
 20 11 2013  18 46  -21.0471 26043.5 -03497.4 -07.6485 26277.3
 20 11 2013  18 47  -21.0472 26043.3 -03497.4 -07.6487 26277.1
 20 11 2013  18 48  -21.0474 26043.1 -03497.5 -07.6489 26276.9
 20 11 2013  18 49  -21.0475 26042.9 -03497.6 -07.6492 26276.7
 20 11 2013  18 50  -21.0478 26042.6 -03497.7 -07.6494 26276.5
 20 11 2013  18 51  -21.0482 26042.5 -03497.8 -07.6497 26276.3
 20 11 2013  18 52  -21.0488 26042.4 -03497.9 -07.6500 26276.3
 20 11 2013  18 53  -21.0493 26042.3 -03498.1 -07.6503 26276.2
 20 11 2013  18 54  -21.0497 26042.1 -03498.1 -07.6504 26275.9
 20 11 2013  18 55  -21.0500 26041.8 -03498.1 -07.6505 26275.7
 20 11 2013  18 56  -21.0504 26041.7 -03498.1 -07.6506 26275.6
 20 11 2013  18 57  -21.0506 26041.7 -03498.2 -07.6508 26275.6
 20 11 2013  18 58  -21.0509 26041.6 -03498.2 -07.6509 26275.5
 20 11 2013  18 59  -21.0511 26041.5 -03498.3 -07.6510 26275.4
 20 11 2013  19 00  -21.0512 26041.3 -03498.3 -07.6510 26275.3
 20 11 2013  19 01  -21.0514 26041.2 -03498.3 -07.6512 26275.2
 20 11 2013  19 02  -21.0514 26041.0 -03498.3 -07.6513 26275.0
 20 11 2013  19 03  -21.0512 26040.8 -03498.4 -07.6514 26274.7
 20 11 2013  19 04  -21.0512 26040.5 -03498.4 -07.6515 26274.5
 20 11 2013  19 05  -21.0511 26040.4 -03498.4 -07.6516 26274.3
 20 11 2013  19 06  -21.0511 26040.3 -03498.5 -07.6518 26274.2
 20 11 2013  19 07  -21.0510 26040.1 -03498.5 -07.6519 26274.0
 20 11 2013  19 08  -21.0509 26039.9 -03498.5 -07.6521 26273.8
 20 11 2013  19 09  -21.0508 26039.7 -03498.6 -07.6521 26273.7
 20 11 2013  19 10  -21.0506 26039.6 -03498.6 -07.6523 26273.5
 20 11 2013  19 11  -21.0504 26039.4 -03498.7 -07.6526 26273.4
 20 11 2013  19 12  -21.0503 26039.3 -03498.8 -07.6528 26273.3
 20 11 2013  19 13  -21.0501 26039.2 -03498.9 -07.6530 26273.2
 20 11 2013  19 14  -21.0500 26039.1 -03499.0 -07.6533 26273.1
 20 11 2013  19 15  -21.0538 26038.6 -03498.8 -07.6530 26272.6
 20 11 2013  19 16  -21.0547 26038.3 -03499.0 -07.6534 26272.4
 20 11 2013  19 17  -21.0547 26038.2 -03499.0 -07.6536 26272.2
 20 11 2013  19 18  -21.0545 26038.1 -03499.2 -07.6539 26272.1
 20 11 2013  19 19  -21.0543 26038.0 -03499.3 -07.6543 26272.1
 20 11 2013  19 20  -21.0543 26037.9 -03499.4 -07.6546 26272.0
 20 11 2013  19 21  -21.0544 26037.8 -03499.6 -07.6548 26271.9
 20 11 2013  19 22  -21.0499 26037.8 -03499.8 -07.6554 26272.0
 20 11 2013  19 23  -21.0484 26037.9 -03500.1 -07.6560 26272.1
 20 11 2013  19 24  -21.0482 26037.9 -03500.2 -07.6562 26272.1
 20 11 2013  19 25  -21.0481 26037.8 -03500.3 -07.6565 26272.0
 20 11 2013  19 26  -21.0480 26037.7 -03500.5 -07.6568 26271.9
 20 11 2013  19 27  -21.0478 26037.5 -03500.5 -07.6570 26271.8
 20 11 2013  19 28  -21.0477 26037.4 -03500.6 -07.6572 26271.7
 20 11 2013  19 29  -21.0475 26037.3 -03500.7 -07.6575 26271.6
 20 11 2013  19 30  -21.0473 26037.3 -03500.8 -07.6577 26271.6
 20 11 2013  19 31  -21.0471 26037.3 -03500.9 -07.6579 26271.6
 20 11 2013  19 32  -21.0471 26037.2 -03501.0 -07.6581 26271.5
 20 11 2013  19 33  -21.0469 26037.2 -03501.1 -07.6583 26271.5
 20 11 2013  19 34  -21.0468 26037.1 -03501.1 -07.6584 26271.4
 20 11 2013  19 35  -21.0465 26037.0 -03501.1 -07.6585 26271.3
 20 11 2013  19 36  -21.0462 26036.9 -03501.2 -07.6587 26271.3
 20 11 2013  19 37  -21.0460 26036.8 -03501.3 -07.6589 26271.2
 20 11 2013  19 38  -21.0458 26036.8 -03501.4 -07.6590 26271.2
 20 11 2013  19 39  -21.0456 26036.8 -03501.4 -07.6592 26271.2
 20 11 2013  19 40  -21.0453 26036.8 -03501.5 -07.6593 26271.2
 20 11 2013  19 41  -21.0450 26036.7 -03501.6 -07.6595 26271.1
 20 11 2013  19 42  -21.0449 26036.4 -03501.5 -07.6594 26270.8
 20 11 2013  19 43  -21.0446 26036.3 -03501.5 -07.6595 26270.7
 20 11 2013  19 44  -21.0443 26036.2 -03501.6 -07.6597 26270.6
 20 11 2013  19 45  -21.0439 26036.1 -03501.7 -07.6598 26270.6
 20 11 2013  19 46  -21.0436 26036.0 -03501.7 -07.6600 26270.5
 20 11 2013  19 47  -21.0433 26036.0 -03501.8 -07.6602 26270.4
 20 11 2013  19 48  -21.0431 26036.0 -03501.9 -07.6603 26270.4
 20 11 2013  19 49  -21.0428 26035.8 -03501.9 -07.6605 26270.3
 20 11 2013  19 50  -21.0424 26035.8 -03502.0 -07.6606 26270.2
 20 11 2013  19 51  -21.0421 26035.7 -03502.0 -07.6608 26270.2
 20 11 2013  19 52  -21.0418 26035.6 -03502.1 -07.6610 26270.1
 20 11 2013  19 53  -21.0416 26035.4 -03502.1 -07.6610 26269.9
 20 11 2013  19 54  -21.0412 26035.3 -03502.1 -07.6611 26269.8
 20 11 2013  19 55  -21.0409 26035.3 -03502.2 -07.6612 26269.8
 20 11 2013  19 56  -21.0406 26035.3 -03502.3 -07.6615 26269.8
 20 11 2013  19 57  -21.0403 26035.3 -03502.4 -07.6616 26269.8
 20 11 2013  19 58  -21.0401 26035.2 -03502.4 -07.6618 26269.7
 20 11 2013  19 59  -21.0398 26035.1 -03502.5 -07.6620 26269.7
 20 11 2013  20 00  -21.0394 26035.0 -03502.5 -07.6621 26269.5
 20 11 2013  20 01  -21.0392 26034.9 -03502.6 -07.6622 26269.4
 20 11 2013  20 02  -21.0390 26034.8 -03502.7 -07.6624 26269.4
 20 11 2013  20 03  -21.0387 26034.8 -03502.8 -07.6626 26269.3
 20 11 2013  20 04  -21.0386 26034.6 -03502.8 -07.6628 26269.2
 20 11 2013  20 05  -21.0384 26034.5 -03502.8 -07.6629 26269.1
 20 11 2013  20 06  -21.0383 26034.2 -03502.8 -07.6630 26268.8
 20 11 2013  20 07  -21.0382 26034.0 -03502.8 -07.6630 26268.6
 20 11 2013  20 08  -21.0380 26033.9 -03502.9 -07.6632 26268.5
 20 11 2013  20 09  -21.0379 26033.8 -03503.0 -07.6633 26268.4
 20 11 2013  20 10  -21.0378 26033.7 -03503.0 -07.6635 26268.4
 20 11 2013  20 11  -21.0378 26033.6 -03503.1 -07.6637 26268.3
 20 11 2013  20 12  -21.0377 26033.7 -03503.2 -07.6640 26268.4
 20 11 2013  20 13  -21.0376 26033.7 -03503.4 -07.6642 26268.4
 20 11 2013  20 14  -21.0374 26033.8 -03503.5 -07.6645 26268.5
 20 11 2013  20 15  -21.0372 26033.8 -03503.6 -07.6648 26268.5
 20 11 2013  20 16  -21.0368 26033.7 -03503.7 -07.6649 26268.4
 20 11 2013  20 17  -21.0364 26033.7 -03503.8 -07.6651 26268.4
 20 11 2013  20 18  -21.0362 26033.8 -03503.9 -07.6654 26268.5
 20 11 2013  20 19  -21.0360 26033.8 -03504.0 -07.6657 26268.5
 20 11 2013  20 20  -21.0357 26033.9 -03504.2 -07.6659 26268.7
 20 11 2013  20 21  -21.0360 26034.0 -03504.1 -07.6658 26268.7
 20 11 2013  20 22  -21.0357 26033.8 -03504.4 -07.6664 26268.6
 20 11 2013  20 23  -21.0355 26033.7 -03504.4 -07.6665 26268.5
 20 11 2013  20 24  -21.0353 26033.5 -03504.5 -07.6667 26268.3
 20 11 2013  20 25  -21.0350 26033.3 -03504.5 -07.6667 26268.1
 20 11 2013  20 26  -21.0346 26033.1 -03504.4 -07.6668 26267.9
 20 11 2013  20 27  -21.0342 26032.9 -03504.5 -07.6669 26267.7
 20 11 2013  20 28  -21.0337 26032.8 -03504.6 -07.6671 26267.7
 20 11 2013  20 29  -21.0331 26032.8 -03504.6 -07.6673 26267.6
 20 11 2013  20 30  -21.0327 26032.8 -03504.8 -07.6675 26267.7
 20 11 2013  20 31  -21.0323 26032.8 -03504.9 -07.6678 26267.7
 20 11 2013  20 32  -21.0321 26032.8 -03505.0 -07.6681 26267.7
 20 11 2013  20 33  -21.0317 26032.7 -03505.1 -07.6683 26267.7
 20 11 2013  20 34  -21.0313 26032.7 -03505.2 -07.6684 26267.6
 20 11 2013  20 35  -21.0309 26032.7 -03505.2 -07.6686 26267.6
 20 11 2013  20 36  -21.0306 26032.6 -03505.3 -07.6688 26267.5
 20 11 2013  20 37  -21.0302 26032.5 -03505.4 -07.6689 26267.4
 20 11 2013  20 38  -21.0296 26032.4 -03505.4 -07.6691 26267.3
 20 11 2013  20 39  -21.0292 26032.2 -03505.5 -07.6692 26267.1
 20 11 2013  20 40  -21.0288 26031.9 -03505.4 -07.6693 26266.9
 20 11 2013  20 41  -21.0284 26031.8 -03505.5 -07.6693 26266.7
 20 11 2013  20 42  -21.0280 26031.6 -03505.4 -07.6693 26266.6
 20 11 2013  20 43  -21.0276 26031.4 -03505.4 -07.6693 26266.4
 20 11 2013  20 44  -21.0273 26031.2 -03505.4 -07.6694 26266.2
 20 11 2013  20 45  -21.0269 26031.1 -03505.4 -07.6695 26266.0
 20 11 2013  20 46  -21.0265 26031.0 -03505.4 -07.6695 26266.0
 20 11 2013  20 47  -21.0262 26030.8 -03505.5 -07.6696 26265.8
 20 11 2013  20 48  -21.0256 26030.7 -03505.5 -07.6696 26265.7
 20 11 2013  20 49  -21.0252 26030.7 -03505.6 -07.6699 26265.7
 20 11 2013  20 50  -21.0248 26030.5 -03505.6 -07.6699 26265.5
 20 11 2013  20 51  -21.0243 26030.5 -03505.7 -07.6701 26265.5
 20 11 2013  20 52  -21.0239 26030.4 -03505.7 -07.6703 26265.4
 20 11 2013  20 53  -21.0234 26030.4 -03505.8 -07.6705 26265.4
 20 11 2013  20 54  -21.0229 26030.2 -03505.9 -07.6707 26265.2
 20 11 2013  20 55  -21.0223 26030.2 -03506.0 -07.6709 26265.3
 20 11 2013  20 56  -21.0219 26030.2 -03506.1 -07.6711 26265.2
 20 11 2013  20 57  -21.0213 26030.1 -03506.2 -07.6714 26265.2
 20 11 2013  20 58  -21.0210 26030.0 -03506.2 -07.6715 26265.1
 20 11 2013  20 59  -21.0206 26030.0 -03506.4 -07.6718 26265.1
 20 11 2013  21 00  -21.0203 26029.9 -03506.5 -07.6722 26265.0
 20 11 2013  21 01  -21.0200 26029.8 -03506.6 -07.6724 26265.0
 20 11 2013  21 02  -21.0198 26029.6 -03506.7 -07.6726 26264.8
 20 11 2013  21 03  -21.0195 26029.5 -03506.8 -07.6728 26264.7
 20 11 2013  21 04  -21.0195 26029.4 -03506.9 -07.6730 26264.6
 20 11 2013  21 05  -21.0194 26029.3 -03506.9 -07.6732 26264.5
 20 11 2013  21 06  -21.0193 26029.2 -03506.9 -07.6732 26264.4
 20 11 2013  21 07  -21.0192 26029.1 -03506.9 -07.6733 26264.3
 20 11 2013  21 08  -21.0191 26029.0 -03507.0 -07.6735 26264.1
 20 11 2013  21 09  -21.0189 26028.9 -03507.0 -07.6736 26264.1
 20 11 2013  21 10  -21.0188 26028.8 -03507.1 -07.6737 26264.0
 20 11 2013  21 11  -21.0187 26028.8 -03507.1 -07.6738 26264.0
 20 11 2013  21 12  -21.0185 26028.7 -03507.1 -07.6739 26263.9
 20 11 2013  21 13  -21.0183 26028.6 -03507.2 -07.6739 26263.8
 20 11 2013  21 14  -21.0181 26028.5 -03507.1 -07.6739 26263.7
 20 11 2013  21 15  -21.0178 26028.4 -03507.1 -07.6739 26263.6
 20 11 2013  21 16  -21.0175 26028.3 -03507.2 -07.6741 26263.5
 20 11 2013  21 17  -21.0172 26028.2 -03507.2 -07.6742 26263.4
 20 11 2013  21 18  -21.0170 26028.2 -03507.3 -07.6743 26263.4
 20 11 2013  21 19  -21.0167 26028.1 -03507.3 -07.6745 26263.4
 20 11 2013  21 20  -21.0165 26028.1 -03507.4 -07.6746 26263.3
 20 11 2013  21 21  -21.0162 26028.0 -03507.5 -07.6748 26263.3
 20 11 2013  21 22  -21.0159 26028.0 -03507.5 -07.6749 26263.2
 20 11 2013  21 23  -21.0157 26027.9 -03507.6 -07.6750 26263.2
 20 11 2013  21 24  -21.0155 26027.8 -03507.6 -07.6751 26263.0
 20 11 2013  21 25  -21.0154 26027.6 -03507.6 -07.6752 26262.8
 20 11 2013  21 26  -21.0152 26027.4 -03507.6 -07.6752 26262.7
 20 11 2013  21 27  -21.0151 26027.2 -03507.5 -07.6752 26262.5
 20 11 2013  21 28  -21.0150 26027.1 -03507.5 -07.6752 26262.4
 20 11 2013  21 29  -21.0147 26027.0 -03507.6 -07.6754 26262.3
 20 11 2013  21 30  -21.0146 26026.8 -03507.6 -07.6755 26262.1
 20 11 2013  21 31  -21.0145 26026.8 -03507.7 -07.6756 26262.1
 20 11 2013  21 32  -21.0144 26026.7 -03507.7 -07.6757 26262.1
 20 11 2013  21 33  -21.0142 26026.7 -03507.8 -07.6759 26262.0
 20 11 2013  21 34  -21.0141 26026.6 -03507.8 -07.6760 26262.0
 20 11 2013  21 35  -21.0139 26026.6 -03507.9 -07.6761 26261.9
 20 11 2013  21 36  -21.0137 26026.6 -03508.0 -07.6763 26261.9
 20 11 2013  21 37  -21.0134 26026.6 -03508.0 -07.6764 26261.9
 20 11 2013  21 38  -21.0132 26026.5 -03508.0 -07.6764 26261.9
 20 11 2013  21 39  -21.0130 26026.5 -03508.1 -07.6766 26261.9
 20 11 2013  21 40  -21.0128 26026.5 -03508.2 -07.6767 26261.8
 20 11 2013  21 41  -21.0125 26026.5 -03508.2 -07.6768 26261.8
 20 11 2013  21 42  -21.0124 26026.4 -03508.2 -07.6769 26261.8
 20 11 2013  21 43  -21.0122 26026.3 -03508.2 -07.6770 26261.7
 20 11 2013  21 44  -21.0121 26026.2 -03508.2 -07.6770 26261.6
 20 11 2013  21 45  -21.0119 26026.1 -03508.2 -07.6770 26261.5
 20 11 2013  21 46  -21.0118 26026.1 -03508.3 -07.6771 26261.5
 20 11 2013  21 47  -21.0117 26026.1 -03508.3 -07.6772 26261.5
 20 11 2013  21 48  -21.0116 26026.0 -03508.3 -07.6773 26261.4
 20 11 2013  21 49  -21.0115 26026.0 -03508.4 -07.6774 26261.4
 20 11 2013  21 50  -21.0115 26025.9 -03508.4 -07.6774 26261.3
 20 11 2013  21 51  -21.0116 26025.9 -03508.4 -07.6775 26261.3
 20 11 2013  21 52  -21.0116 26025.9 -03508.5 -07.6775 26261.3
 20 11 2013  21 53  -21.0116 26025.8 -03508.5 -07.6776 26261.2
 20 11 2013  21 54  -21.0116 26025.8 -03508.5 -07.6777 26261.2
 20 11 2013  21 55  -21.0114 26025.9 -03508.6 -07.6778 26261.3
 20 11 2013  21 56  -21.0112 26026.0 -03508.6 -07.6779 26261.4
 20 11 2013  21 57  -21.0111 26026.0 -03508.8 -07.6781 26261.5
 20 11 2013  21 58  -21.0110 26026.1 -03508.8 -07.6782 26261.6
 20 11 2013  21 59  -21.0110 26026.1 -03508.8 -07.6783 26261.5
 20 11 2013  22 00  -21.0112 26026.1 -03508.8 -07.6783 26261.5
 20 11 2013  22 01  -21.0113 26026.0 -03508.9 -07.6784 26261.5
 20 11 2013  22 02  -21.0113 26026.0 -03508.9 -07.6784 26261.5
 20 11 2013  22 03  -21.0113 26025.9 -03508.8 -07.6783 26261.4
 20 11 2013  22 04  -21.0113 26025.8 -03508.8 -07.6783 26261.3
 20 11 2013  22 05  -21.0113 26025.7 -03508.8 -07.6782 26261.2
 20 11 2013  22 06  -21.0112 26025.7 -03508.7 -07.6782 26261.1
 20 11 2013  22 07  -21.0112 26025.6 -03508.8 -07.6783 26261.1
 20 11 2013  22 08  -21.0110 26025.7 -03508.8 -07.6783 26261.1
 20 11 2013  22 09  -21.0108 26025.7 -03508.8 -07.6784 26261.1
 20 11 2013  22 10  -21.0106 26025.6 -03508.8 -07.6784 26261.1
 20 11 2013  22 11  -21.0105 26025.6 -03508.8 -07.6785 26261.1
 20 11 2013  22 12  -21.0105 26025.6 -03508.8 -07.6784 26261.0
 20 11 2013  22 13  -21.0106 26025.5 -03508.8 -07.6785 26261.0
 20 11 2013  22 14  -21.0106 26025.5 -03508.9 -07.6786 26261.0
 20 11 2013  22 15  -21.0107 26025.5 -03508.9 -07.6786 26260.9
 20 11 2013  22 16  -21.0106 26025.5 -03508.9 -07.6786 26260.9
 20 11 2013  22 17  -21.0107 26025.4 -03508.9 -07.6786 26260.9
 20 11 2013  22 18  -21.0107 26025.4 -03508.9 -07.6786 26260.8
 20 11 2013  22 19  -21.0107 26025.3 -03508.9 -07.6786 26260.8
 20 11 2013  22 20  -21.0106 26025.3 -03508.9 -07.6786 26260.7
 20 11 2013  22 21  -21.0107 26025.2 -03508.9 -07.6786 26260.6
 20 11 2013  22 22  -21.0106 26025.1 -03508.8 -07.6785 26260.5
 20 11 2013  22 23  -21.0106 26025.0 -03508.8 -07.6786 26260.5
 20 11 2013  22 24  -21.0106 26025.0 -03508.8 -07.6785 26260.5
 20 11 2013  22 25  -21.0106 26025.0 -03508.8 -07.6785 26260.4
 20 11 2013  22 26  -21.0106 26025.0 -03508.8 -07.6786 26260.4
 20 11 2013  22 27  -21.0106 26025.0 -03508.9 -07.6787 26260.4
 20 11 2013  22 28  -21.0107 26025.0 -03508.9 -07.6787 26260.5
 20 11 2013  22 29  -21.0108 26025.0 -03508.9 -07.6788 26260.5
 20 11 2013  22 30  -21.0109 26025.0 -03508.9 -07.6788 26260.5
 20 11 2013  22 31  -21.0111 26025.0 -03509.0 -07.6789 26260.5
 20 11 2013  22 32  -21.0112 26025.0 -03509.0 -07.6789 26260.5
 20 11 2013  22 33  -21.0111 26025.0 -03508.9 -07.6788 26260.5
 20 11 2013  22 34  -21.0111 26024.9 -03508.9 -07.6788 26260.4
 20 11 2013  22 35  -21.0112 26024.8 -03508.9 -07.6788 26260.3
 20 11 2013  22 36  -21.0113 26024.8 -03508.9 -07.6788 26260.2
 20 11 2013  22 37  -21.0113 26024.8 -03508.9 -07.6788 26260.3
 20 11 2013  22 38  -21.0113 26024.7 -03508.8 -07.6786 26260.2
 20 11 2013  22 39  -21.0114 26024.6 -03508.8 -07.6787 26260.1
 20 11 2013  22 40  -21.0115 26024.6 -03508.8 -07.6786 26260.1
 20 11 2013  22 41  -21.0116 26024.6 -03508.8 -07.6787 26260.1
 20 11 2013  22 42  -21.0116 26024.6 -03508.8 -07.6787 26260.1
 20 11 2013  22 43  -21.0115 26024.6 -03508.8 -07.6787 26260.1
 20 11 2013  22 44  -21.0115 26024.6 -03508.8 -07.6788 26260.1
 20 11 2013  22 45  -21.0114 26024.6 -03508.8 -07.6787 26260.1
 20 11 2013  22 46  -21.0113 26024.6 -03508.8 -07.6788 26260.1
 20 11 2013  22 47  -21.0112 26024.6 -03508.9 -07.6788 26260.1
 20 11 2013  22 48  -21.0110 26024.6 -03508.9 -07.6789 26260.1
 20 11 2013  22 49  -21.0109 26024.6 -03508.9 -07.6789 26260.1
 20 11 2013  22 50  -21.0109 26024.7 -03509.0 -07.6790 26260.2
 20 11 2013  22 51  -21.0109 26024.7 -03509.0 -07.6790 26260.2
 20 11 2013  22 52  -21.0107 26024.7 -03508.9 -07.6789 26260.2
 20 11 2013  22 53  -21.0106 26024.7 -03509.0 -07.6790 26260.2
 20 11 2013  22 54  -21.0106 26024.6 -03509.0 -07.6790 26260.1
 20 11 2013  22 55  -21.0105 26024.6 -03509.0 -07.6790 26260.1
 20 11 2013  22 56  -21.0104 26024.6 -03509.0 -07.6790 26260.1
 20 11 2013  22 57  -21.0104 26024.6 -03509.0 -07.6790 26260.1
 20 11 2013  22 58  -21.0104 26024.6 -03509.0 -07.6790 26260.1
 20 11 2013  22 59  -21.0103 26024.5 -03508.9 -07.6789 26260.0
 20 11 2013  23 00  -21.0103 26024.5 -03508.9 -07.6789 26260.0
 20 11 2013  23 01  -21.0101 26024.5 -03508.9 -07.6789 26260.0
 20 11 2013  23 02  -21.0101 26024.4 -03508.9 -07.6789 26259.9
 20 11 2013  23 03  -21.0099 26024.3 -03508.8 -07.6788 26259.8
 20 11 2013  23 04  -21.0099 26024.3 -03508.9 -07.6789 26259.7
 20 11 2013  23 05  -21.0099 26024.2 -03508.8 -07.6787 26259.6
 20 11 2013  23 06  -21.0099 26024.1 -03508.8 -07.6787 26259.5
 20 11 2013  23 07  -21.0099 26024.0 -03508.7 -07.6787 26259.5
 20 11 2013  23 08  -21.0100 26023.9 -03508.7 -07.6787 26259.3
 20 11 2013  23 09  -21.0097 26023.9 -03508.7 -07.6786 26259.3
 20 11 2013  23 10  -21.0100 26023.9 -03508.7 -07.6786 26259.3
 20 11 2013  23 11  -21.0101 26023.8 -03508.7 -07.6786 26259.2
 20 11 2013  23 12  -21.0102 26023.7 -03508.7 -07.6786 26259.2
 20 11 2013  23 13  -21.0102 26023.7 -03508.7 -07.6787 26259.2
 20 11 2013  23 14  -21.0100 26023.7 -03508.6 -07.6786 26259.2
 20 11 2013  23 15  -21.0099 26023.7 -03508.6 -07.6786 26259.1
 20 11 2013  23 16  -21.0100 26023.6 -03508.6 -07.6786 26259.1
 20 11 2013  23 17  -21.0101 26023.6 -03508.7 -07.6786 26259.1
 20 11 2013  23 18  -21.0098 26023.6 -03508.7 -07.6786 26259.0
 20 11 2013  23 19  -21.0098 26023.6 -03508.7 -07.6786 26259.1
 20 11 2013  23 20  -21.0097 26023.7 -03508.7 -07.6787 26259.1
 20 11 2013  23 21  -21.0096 26023.7 -03508.7 -07.6788 26259.2
 20 11 2013  23 22  -21.0096 26023.8 -03508.8 -07.6789 26259.2
 20 11 2013  23 23  -21.0095 26023.8 -03508.8 -07.6789 26259.3
 20 11 2013  23 24  -21.0096 26023.7 -03508.8 -07.6789 26259.2
 20 11 2013  23 25  -21.0096 26023.6 -03508.7 -07.6788 26259.1
 20 11 2013  23 26  -21.0095 26023.5 -03508.7 -07.6787 26259.0
 20 11 2013  23 27  -21.0094 26023.5 -03508.6 -07.6786 26259.0
 20 11 2013  23 28  -21.0092 26023.6 -03508.7 -07.6787 26259.1
 20 11 2013  23 29  -21.0093 26023.5 -03508.6 -07.6786 26258.9
 20 11 2013  23 30  -21.0093 26023.3 -03508.6 -07.6785 26258.8
 20 11 2013  23 31  -21.0094 26023.1 -03508.5 -07.6784 26258.5
 20 11 2013  23 32  -21.0091 26023.1 -03508.4 -07.6782 26258.5
 20 11 2013  23 33  -21.0089 26023.1 -03508.5 -07.6784 26258.6
 20 11 2013  23 34  -21.0086 26023.2 -03508.6 -07.6786 26258.7
 20 11 2013  23 35  -21.0085 26023.3 -03508.7 -07.6788 26258.8
 20 11 2013  23 36  -21.0084 26023.4 -03508.7 -07.6789 26258.8
 20 11 2013  23 37  -21.0084 26023.4 -03508.8 -07.6790 26258.9
 20 11 2013  23 38  -21.0083 26023.5 -03508.9 -07.6791 26259.0
 20 11 2013  23 39  -21.0082 26023.6 -03508.9 -07.6792 26259.1
 20 11 2013  23 40  -21.0081 26023.7 -03509.0 -07.6794 26259.2
 20 11 2013  23 41  -21.0080 26023.8 -03509.1 -07.6795 26259.3
 20 11 2013  23 42  -21.0080 26023.7 -03509.0 -07.6794 26259.3
 20 11 2013  23 43  -21.0079 26023.7 -03509.0 -07.6794 26259.2
 20 11 2013  23 44  -21.0077 26023.7 -03509.0 -07.6794 26259.2
 20 11 2013  23 45  -21.0075 26023.7 -03509.0 -07.6794 26259.2
 20 11 2013  23 46  -21.0074 26023.6 -03509.0 -07.6794 26259.1
 20 11 2013  23 47  -21.0074 26023.6 -03509.0 -07.6795 26259.2
 20 11 2013  23 48  -21.0074 26023.6 -03509.1 -07.6795 26259.1
 20 11 2013  23 49  -21.0074 26023.6 -03509.1 -07.6795 26259.1
 20 11 2013  23 50  -21.0073 26023.5 -03509.1 -07.6795 26259.1
 20 11 2013  23 51  -21.0071 26023.6 -03509.1 -07.6795 26259.1
 20 11 2013  23 52  -21.0070 26023.6 -03509.1 -07.6796 26259.1
 20 11 2013  23 53  -21.0070 26023.6 -03509.1 -07.6797 26259.1
 20 11 2013  23 54  -21.0068 26023.6 -03509.2 -07.6797 26259.2
 20 11 2013  23 55  -21.0066 26023.7 -03509.2 -07.6799 26259.3
 20 11 2013  23 56  -21.0067 26023.8 -03509.3 -07.6799 26259.3
 20 11 2013  23 57  -21.0067 26023.8 -03509.3 -07.6800 26259.3
