SAO LUIS EMBRACE-03 <240> 1 Min. Reported data

 DD MM YYYY  HH MM   D(Deg)  H(nT)   Z(nT)   I(Deg)   F(nT)

 28 08 2013  00 00  -21.0587 25981.1 -03477.5 -07.6235 26212.8
 28 08 2013  00 01  -21.0588 25981.9 -03477.9 -07.6241 26213.6
 28 08 2013  00 02  -21.0592 25982.5 -03478.2 -07.6246 26214.3
 28 08 2013  00 03  -21.0596 25983.0 -03478.3 -07.6247 26214.7
 28 08 2013  00 04  -21.0599 25983.3 -03478.3 -07.6248 26215.1
 28 08 2013  00 05  -21.0602 25983.6 -03478.4 -07.6247 26215.4
 28 08 2013  00 06  -21.0607 25983.8 -03478.3 -07.6246 26215.5
 28 08 2013  00 07  -21.0611 25983.9 -03478.3 -07.6244 26215.7
 28 08 2013  00 08  -21.0613 25984.2 -03478.2 -07.6242 26215.9
 28 08 2013  00 09  -21.0614 25984.5 -03478.2 -07.6241 26216.2
 28 08 2013  00 10  -21.0615 25984.5 -03478.1 -07.6240 26216.3
 28 08 2013  00 11  -21.0619 25984.3 -03477.9 -07.6236 26216.0
 28 08 2013  00 12  -21.0619 25984.0 -03477.6 -07.6230 26215.7
 28 08 2013  00 13  -21.0619 25983.8 -03477.4 -07.6226 26215.4
 28 08 2013  00 14  -21.0619 25983.8 -03477.3 -07.6224 26215.4
 28 08 2013  00 15  -21.0619 25984.0 -03477.3 -07.6224 26215.6
 28 08 2013  00 16  -21.0621 25984.2 -03477.4 -07.6225 26215.9
 28 08 2013  00 17  -21.0621 25984.6 -03477.5 -07.6226 26216.3
 28 08 2013  00 18  -21.0620 25984.8 -03477.6 -07.6226 26216.4
 28 08 2013  00 19  -21.0619 25984.5 -03477.4 -07.6223 26216.1
 28 08 2013  00 20  -21.0618 25984.2 -03477.2 -07.6219 26215.8
 28 08 2013  00 21  -21.0617 25984.2 -03477.1 -07.6218 26215.8
 28 08 2013  00 22  -21.0618 25984.0 -03477.0 -07.6217 26215.6
 28 08 2013  00 23  -21.0615 25983.9 -03476.9 -07.6214 26215.5
 28 08 2013  00 24  -21.0613 25984.0 -03476.9 -07.6214 26215.5
 28 08 2013  00 25  -21.0614 25984.0 -03477.0 -07.6216 26215.6
 28 08 2013  00 26  -21.0615 25984.2 -03477.0 -07.6216 26215.8
 28 08 2013  00 27  -21.0616 25984.3 -03477.1 -07.6217 26216.0
 28 08 2013  00 28  -21.0616 25984.5 -03477.2 -07.6219 26216.1
 28 08 2013  00 29  -21.0615 25984.7 -03477.2 -07.6219 26216.3
 28 08 2013  00 30  -21.0619 25984.9 -03477.3 -07.6221 26216.6
 28 08 2013  00 31  -21.0624 25985.4 -03477.5 -07.6223 26217.0
 28 08 2013  00 32  -21.0628 25985.7 -03477.7 -07.6226 26217.4
 28 08 2013  00 33  -21.0628 25986.0 -03477.8 -07.6228 26217.7
 28 08 2013  00 34  -21.0633 25986.4 -03477.9 -07.6230 26218.1
 28 08 2013  00 35  -21.0637 25986.3 -03477.8 -07.6227 26218.0
 28 08 2013  00 36  -21.0639 25986.2 -03477.7 -07.6225 26217.9
 28 08 2013  00 37  -21.0640 25986.2 -03477.6 -07.6222 26217.8
 28 08 2013  00 38  -21.0642 25986.6 -03477.7 -07.6223 26218.3
 28 08 2013  00 39  -21.0646 25987.3 -03478.0 -07.6228 26219.0
 28 08 2013  00 40  -21.0651 25987.8 -03478.2 -07.6232 26219.5
 28 08 2013  00 41  -21.0658 25988.2 -03478.3 -07.6233 26219.9
 28 08 2013  00 42  -21.0661 25988.4 -03478.3 -07.6232 26220.1
 28 08 2013  00 43  -21.0665 25988.3 -03478.2 -07.6229 26220.0
 28 08 2013  00 44  -21.0668 25988.4 -03478.1 -07.6227 26220.1
 28 08 2013  00 45  -21.0670 25988.6 -03478.1 -07.6226 26220.3
 28 08 2013  00 46  -21.0669 25989.1 -03478.2 -07.6227 26220.8
 28 08 2013  00 47  -21.0666 25989.3 -03478.2 -07.6227 26221.0
 28 08 2013  00 48  -21.0656 25989.6 -03478.2 -07.6226 26221.3
 28 08 2013  00 49  -21.0650 25990.2 -03478.4 -07.6228 26221.9
 28 08 2013  00 50  -21.0649 25990.8 -03478.6 -07.6232 26222.6
 28 08 2013  00 51  -21.0647 25992.7 -03479.5 -07.6245 26224.6
 28 08 2013  00 52  -21.0639 25994.4 -03480.3 -07.6257 26226.3
 28 08 2013  00 53  -21.0636 25994.7 -03480.5 -07.6260 26226.7
 28 08 2013  00 54  -21.0634 25995.8 -03480.8 -07.6265 26227.8
 28 08 2013  00 55  -21.0634 25996.3 -03480.9 -07.6266 26228.3
 28 08 2013  00 56  -21.0636 25997.0 -03481.1 -07.6268 26229.1
 28 08 2013  00 57  -21.0637 25997.6 -03481.2 -07.6269 26229.6
 28 08 2013  00 58  -21.0636 25998.8 -03481.6 -07.6274 26230.9
 28 08 2013  00 59  -21.0632 26000.4 -03482.3 -07.6284 26232.5
 28 08 2013  01 00  -21.0628 26000.9 -03482.4 -07.6283 26233.0
 28 08 2013  01 01  -21.0624 26002.2 -03482.8 -07.6288 26234.4
 28 08 2013  01 02  -21.0619 26003.0 -03483.0 -07.6291 26235.3
 28 08 2013  01 03  -21.0615 26004.0 -03483.2 -07.6293 26236.2
 28 08 2013  01 04  -21.0610 26004.8 -03483.4 -07.6294 26237.0
 28 08 2013  01 05  -21.0605 26005.5 -03483.5 -07.6294 26237.8
 28 08 2013  01 06  -21.0603 26006.2 -03483.6 -07.6295 26238.5
 28 08 2013  01 07  -21.0601 26006.9 -03483.6 -07.6294 26239.2
 28 08 2013  01 08  -21.0602 26007.9 -03483.9 -07.6297 26240.2
 28 08 2013  01 09  -21.0603 26008.5 -03484.0 -07.6297 26240.9
 28 08 2013  01 10  -21.0602 26009.5 -03484.1 -07.6297 26241.8
 28 08 2013  01 11  -21.0598 26011.0 -03484.6 -07.6303 26243.3
 28 08 2013  01 12  -21.0596 26011.0 -03484.4 -07.6298 26243.3
 28 08 2013  01 13  -21.0598 26012.0 -03484.6 -07.6299 26244.4
 28 08 2013  01 14  -21.0597 26012.2 -03484.3 -07.6294 26244.5
 28 08 2013  01 15  -21.0596 26012.8 -03484.3 -07.6291 26245.1
 28 08 2013  01 16  -21.0591 26012.2 -03483.8 -07.6282 26244.4
 28 08 2013  01 17  -21.0581 26011.3 -03482.9 -07.6265 26243.4
 28 08 2013  01 18  -21.0573 26010.8 -03482.4 -07.6256 26242.9
 28 08 2013  01 19  -21.0567 26010.4 -03482.1 -07.6249 26242.5
 28 08 2013  01 20  -21.0559 26010.1 -03481.7 -07.6243 26242.1
 28 08 2013  01 21  -21.0548 26009.7 -03481.5 -07.6238 26241.7
 28 08 2013  01 22  -21.0539 26009.2 -03481.1 -07.6233 26241.1
 28 08 2013  01 23  -21.0537 26008.8 -03481.0 -07.6230 26240.7
 28 08 2013  01 24  -21.0529 26008.1 -03480.6 -07.6225 26240.0
 28 08 2013  01 25  -21.0519 26007.3 -03480.2 -07.6219 26239.1
 28 08 2013  01 26  -21.0512 26006.8 -03480.0 -07.6215 26238.6
 28 08 2013  01 27  -21.0508 26006.5 -03480.0 -07.6215 26238.3
 28 08 2013  01 28  -21.0496 26005.8 -03479.7 -07.6212 26237.6
 28 08 2013  01 29  -21.0487 26005.1 -03479.4 -07.6208 26236.8
 28 08 2013  01 30  -21.0479 26004.4 -03479.2 -07.6205 26236.1
 28 08 2013  01 31  -21.0472 26003.5 -03478.9 -07.6200 26235.1
 28 08 2013  01 32  -21.0468 26003.0 -03478.7 -07.6199 26234.7
 28 08 2013  01 33  -21.0462 26003.5 -03479.1 -07.6206 26235.3
 28 08 2013  01 34  -21.0453 26004.4 -03479.7 -07.6216 26236.2
 28 08 2013  01 35  -21.0446 26004.5 -03480.0 -07.6221 26236.3
 28 08 2013  01 36  -21.0443 26004.1 -03479.9 -07.6221 26235.9
 28 08 2013  01 37  -21.0440 26003.3 -03479.6 -07.6216 26235.0
 28 08 2013  01 38  -21.0436 26002.4 -03479.2 -07.6210 26234.1
 28 08 2013  01 39  -21.0438 26001.4 -03478.8 -07.6205 26233.1
 28 08 2013  01 40  -21.0437 26000.7 -03478.5 -07.6202 26232.3
 28 08 2013  01 41  -21.0437 26000.0 -03478.4 -07.6200 26231.7
 28 08 2013  01 42  -21.0436 25999.7 -03478.3 -07.6200 26231.4
 28 08 2013  01 43  -21.0435 26000.0 -03478.5 -07.6203 26231.6
 28 08 2013  01 44  -21.0435 26000.4 -03478.9 -07.6210 26232.1
 28 08 2013  01 45  -21.0440 26000.5 -03479.1 -07.6214 26232.2
 28 08 2013  01 46  -21.0444 26000.6 -03479.2 -07.6216 26232.3
 28 08 2013  01 47  -21.0447 26000.7 -03479.3 -07.6218 26232.4
 28 08 2013  01 48  -21.0451 26000.5 -03479.3 -07.6218 26232.3
 28 08 2013  01 49  -21.0454 26000.0 -03479.1 -07.6215 26231.8
 28 08 2013  01 50  -21.0456 25999.3 -03478.7 -07.6209 26230.9
 28 08 2013  01 51  -21.0460 25998.6 -03478.3 -07.6203 26230.2
 28 08 2013  01 52  -21.0465 25997.9 -03478.1 -07.6199 26229.6
 28 08 2013  01 53  -21.0470 25997.3 -03477.9 -07.6196 26228.9
 28 08 2013  01 54  -21.0478 25996.6 -03477.6 -07.6193 26228.2
 28 08 2013  01 55  -21.0484 25995.4 -03477.1 -07.6185 26226.9
 28 08 2013  01 56  -21.0487 25994.1 -03476.5 -07.6176 26225.6
 28 08 2013  01 57  -21.0489 25993.1 -03476.1 -07.6169 26224.5
 28 08 2013  01 58  -21.0490 25992.4 -03475.8 -07.6166 26223.8
 28 08 2013  01 59  -21.0493 25991.7 -03475.6 -07.6164 26223.0
 28 08 2013  02 00  -21.0495 25991.3 -03475.6 -07.6165 26222.6
 28 08 2013  02 01  -21.0499 25991.0 -03475.7 -07.6167 26222.4
 28 08 2013  02 02  -21.0501 25990.7 -03475.7 -07.6169 26222.0
 28 08 2013  02 03  -21.0501 25990.4 -03475.7 -07.6170 26221.8
 28 08 2013  02 04  -21.0504 25990.4 -03475.9 -07.6173 26221.8
 28 08 2013  02 05  -21.0505 25990.6 -03476.1 -07.6178 26222.0
 28 08 2013  02 06  -21.0501 25991.1 -03476.4 -07.6183 26222.5
 28 08 2013  02 07  -21.0498 25992.0 -03477.0 -07.6192 26223.5
 28 08 2013  02 08  -21.0499 25992.1 -03477.2 -07.6197 26223.7
 28 08 2013  02 09  -21.0503 25992.0 -03477.2 -07.6199 26223.6
 28 08 2013  02 10  -21.0507 25991.8 -03477.2 -07.6198 26223.3
 28 08 2013  02 11  -21.0507 25991.5 -03477.1 -07.6196 26223.0
 28 08 2013  02 12  -21.0502 25991.2 -03476.9 -07.6193 26222.7
 28 08 2013  02 13  -21.0498 25990.9 -03476.8 -07.6192 26222.4
 28 08 2013  02 14  -21.0496 25990.6 -03476.7 -07.6190 26222.1
 28 08 2013  02 15  -21.0491 25990.4 -03476.7 -07.6190 26221.9
 28 08 2013  02 16  -21.0486 25990.3 -03476.7 -07.6191 26221.8
 28 08 2013  02 17  -21.0487 25990.4 -03476.8 -07.6194 26222.0
 28 08 2013  02 18  -21.0486 25990.6 -03477.0 -07.6197 26222.1
 28 08 2013  02 19  -21.0484 25990.6 -03477.1 -07.6200 26222.2
 28 08 2013  02 20  -21.0480 25990.7 -03477.2 -07.6201 26222.3
 28 08 2013  02 21  -21.0478 25990.7 -03477.3 -07.6203 26222.3
 28 08 2013  02 22  -21.0480 25990.8 -03477.4 -07.6205 26222.3
 28 08 2013  02 23  -21.0483 25990.7 -03477.4 -07.6206 26222.3
 28 08 2013  02 24  -21.0487 25990.5 -03477.4 -07.6206 26222.1
 28 08 2013  02 25  -21.0490 25990.3 -03477.3 -07.6205 26221.9
 28 08 2013  02 26  -21.0492 25990.1 -03477.2 -07.6204 26221.6
 28 08 2013  02 27  -21.0491 25989.9 -03477.2 -07.6203 26221.5
 28 08 2013  02 28  -21.0487 25990.3 -03477.3 -07.6205 26221.8
 28 08 2013  02 29  -21.0481 25990.9 -03477.7 -07.6212 26222.5
 28 08 2013  02 30  -21.0475 25991.3 -03477.9 -07.6216 26222.9
 28 08 2013  02 31  -21.0471 25991.5 -03478.1 -07.6218 26223.1
 28 08 2013  02 32  -21.0468 25991.6 -03478.1 -07.6219 26223.2
 28 08 2013  02 33  -21.0464 25991.1 -03477.9 -07.6216 26222.8
 28 08 2013  02 34  -21.0460 25990.5 -03477.6 -07.6211 26222.2
 28 08 2013  02 35  -21.0455 25990.1 -03477.4 -07.6208 26221.7
 28 08 2013  02 36  -21.0452 25989.8 -03477.3 -07.6206 26221.4
 28 08 2013  02 37  -21.0447 25989.5 -03477.2 -07.6205 26221.1
 28 08 2013  02 38  -21.0442 25989.4 -03477.2 -07.6205 26220.9
 28 08 2013  02 39  -21.0437 25989.3 -03477.2 -07.6206 26220.9
 28 08 2013  02 40  -21.0433 25989.2 -03477.3 -07.6207 26220.8
 28 08 2013  02 41  -21.0429 25989.1 -03477.3 -07.6208 26220.7
 28 08 2013  02 42  -21.0425 25989.0 -03477.3 -07.6209 26220.6
 28 08 2013  02 43  -21.0423 25988.9 -03477.3 -07.6210 26220.5
 28 08 2013  02 44  -21.0423 25988.8 -03477.4 -07.6211 26220.4
 28 08 2013  02 45  -21.0424 25988.7 -03477.4 -07.6212 26220.3
 28 08 2013  02 46  -21.0424 25988.6 -03477.5 -07.6214 26220.3
 28 08 2013  02 47  -21.0424 25988.5 -03477.5 -07.6214 26220.1
 28 08 2013  02 48  -21.0425 25988.2 -03477.4 -07.6214 26219.8
 28 08 2013  02 49  -21.0427 25988.0 -03477.4 -07.6214 26219.6
 28 08 2013  02 50  -21.0431 25987.9 -03477.5 -07.6215 26219.6
 28 08 2013  02 51  -21.0436 25987.8 -03477.5 -07.6216 26219.4
 28 08 2013  02 52  -21.0443 25987.8 -03477.6 -07.6218 26219.4
 28 08 2013  02 53  -21.0452 25987.6 -03477.5 -07.6218 26219.2
 28 08 2013  02 54  -21.0457 25987.5 -03477.5 -07.6217 26219.1
 28 08 2013  02 55  -21.0460 25987.5 -03477.6 -07.6218 26219.2
 28 08 2013  02 56  -21.0462 25987.7 -03477.7 -07.6220 26219.3
 28 08 2013  02 57  -21.0462 25987.7 -03477.7 -07.6220 26219.3
 28 08 2013  02 58  -21.0461 25987.7 -03477.7 -07.6220 26219.3
 28 08 2013  02 59  -21.0462 25987.6 -03477.6 -07.6220 26219.2
 28 08 2013  03 00  -21.0462 25987.5 -03477.6 -07.6220 26219.2
 28 08 2013  03 01  -21.0463 25987.5 -03477.6 -07.6220 26219.1
 28 08 2013  03 02  -21.0465 25987.3 -03477.6 -07.6220 26219.0
 28 08 2013  03 03  -21.0466 25987.4 -03477.7 -07.6221 26219.1
 28 08 2013  03 04  -21.0467 25987.5 -03477.7 -07.6222 26219.1
 28 08 2013  03 05  -21.0472 25987.7 -03477.9 -07.6224 26219.3
 28 08 2013  03 06  -21.0474 25987.8 -03478.0 -07.6226 26219.5
 28 08 2013  03 07  -21.0477 25987.5 -03477.9 -07.6225 26219.2
 28 08 2013  03 08  -21.0486 25986.8 -03477.5 -07.6219 26218.5
 28 08 2013  03 09  -21.0493 25986.0 -03477.1 -07.6212 26217.6
 28 08 2013  03 10  -21.0499 25985.5 -03476.8 -07.6208 26217.0
 28 08 2013  03 11  -21.0505 25985.3 -03476.7 -07.6206 26216.8
 28 08 2013  03 12  -21.0505 25985.2 -03476.7 -07.6206 26216.8
 28 08 2013  03 13  -21.0503 25985.4 -03476.8 -07.6208 26217.0
 28 08 2013  03 14  -21.0500 25985.6 -03476.9 -07.6210 26217.2
 28 08 2013  03 15  -21.0499 25986.0 -03477.2 -07.6215 26217.7
 28 08 2013  03 16  -21.0498 25986.5 -03477.5 -07.6220 26218.1
 28 08 2013  03 17  -21.0496 25987.0 -03477.8 -07.6224 26218.6
 28 08 2013  03 18  -21.0493 25987.5 -03478.0 -07.6228 26219.2
 28 08 2013  03 19  -21.0493 25988.0 -03478.3 -07.6232 26219.7
 28 08 2013  03 20  -21.0494 25988.2 -03478.5 -07.6236 26220.0
 28 08 2013  03 21  -21.0493 25988.5 -03478.6 -07.6237 26220.3
 28 08 2013  03 22  -21.0490 25988.7 -03478.6 -07.6238 26220.5
 28 08 2013  03 23  -21.0486 25988.9 -03478.7 -07.6238 26220.7
 28 08 2013  03 24  -21.0483 25989.1 -03478.8 -07.6240 26220.9
 28 08 2013  03 25  -21.0480 25989.4 -03478.9 -07.6241 26221.2
 28 08 2013  03 26  -21.0479 25989.5 -03478.9 -07.6241 26221.3
 28 08 2013  03 27  -21.0480 25989.7 -03479.0 -07.6242 26221.6
 28 08 2013  03 28  -21.0480 25990.0 -03479.1 -07.6245 26221.9
 28 08 2013  03 29  -21.0480 25990.2 -03479.2 -07.6247 26222.1
 28 08 2013  03 30  -21.0480 25990.4 -03479.3 -07.6248 26222.3
 28 08 2013  03 31  -21.0479 25990.7 -03479.4 -07.6249 26222.6
 28 08 2013  03 32  -21.0478 25990.8 -03479.4 -07.6249 26222.7
 28 08 2013  03 33  -21.0476 25990.9 -03479.4 -07.6249 26222.8
 28 08 2013  03 34  -21.0478 25991.0 -03479.4 -07.6249 26222.9
 28 08 2013  03 35  -21.0477 25991.1 -03479.4 -07.6249 26222.9
 28 08 2013  03 36  -21.0472 25991.3 -03479.5 -07.6249 26223.2
 28 08 2013  03 37  -21.0467 25991.5 -03479.5 -07.6250 26223.3
 28 08 2013  03 38  -21.0465 25991.4 -03479.5 -07.6250 26223.3
 28 08 2013  03 39  -21.0465 25991.3 -03479.5 -07.6249 26223.2
 28 08 2013  03 40  -21.0466 25991.3 -03479.5 -07.6249 26223.2
 28 08 2013  03 41  -21.0469 25991.6 -03479.6 -07.6251 26223.4
 28 08 2013  03 42  -21.0472 25991.7 -03479.7 -07.6252 26223.6
 28 08 2013  03 43  -21.0472 25991.8 -03479.7 -07.6252 26223.7
 28 08 2013  03 44  -21.0469 25991.9 -03479.7 -07.6252 26223.8
 28 08 2013  03 45  -21.0466 25991.9 -03479.7 -07.6251 26223.8
 28 08 2013  03 46  -21.0464 25991.8 -03479.6 -07.6250 26223.6
 28 08 2013  03 47  -21.0464 25991.6 -03479.5 -07.6249 26223.4
 28 08 2013  03 48  -21.0464 25991.4 -03479.4 -07.6248 26223.3
 28 08 2013  03 49  -21.0461 25991.2 -03479.3 -07.6245 26223.0
 28 08 2013  03 50  -21.0459 25991.0 -03479.2 -07.6243 26222.8
 28 08 2013  03 51  -21.0456 25990.9 -03479.1 -07.6242 26222.7
 28 08 2013  03 52  -21.0452 25990.8 -03479.1 -07.6241 26222.6
 28 08 2013  03 53  -21.0447 25990.8 -03479.1 -07.6241 26222.7
 28 08 2013  03 54  -21.0445 25990.9 -03479.2 -07.6243 26222.7
 28 08 2013  03 55  -21.0444 25991.0 -03479.2 -07.6244 26222.8
 28 08 2013  03 56  -21.0443 25991.1 -03479.3 -07.6245 26223.0
 28 08 2013  03 57  -21.0441 25991.1 -03479.3 -07.6245 26223.0
 28 08 2013  03 58  -21.0439 25991.1 -03479.3 -07.6245 26222.9
 28 08 2013  03 59  -21.0438 25991.0 -03479.3 -07.6245 26222.9
 28 08 2013  04 00  -21.0437 25991.0 -03479.2 -07.6245 26222.8
 28 08 2013  04 01  -21.0437 25991.0 -03479.3 -07.6245 26222.9
 28 08 2013  04 02  -21.0437 25991.0 -03479.3 -07.6246 26222.9
 28 08 2013  04 03  -21.0437 25991.1 -03479.3 -07.6246 26222.9
 28 08 2013  04 04  -21.0439 25991.1 -03479.3 -07.6246 26222.9
 28 08 2013  04 05  -21.0443 25991.2 -03479.4 -07.6247 26223.0
 28 08 2013  04 06  -21.0445 25991.3 -03479.5 -07.6248 26223.1
 28 08 2013  04 07  -21.0446 25991.3 -03479.5 -07.6249 26223.2
 28 08 2013  04 08  -21.0447 25991.5 -03479.5 -07.6249 26223.3
 28 08 2013  04 09  -21.0449 25991.6 -03479.5 -07.6250 26223.4
 28 08 2013  04 10  -21.0451 25991.6 -03479.6 -07.6250 26223.5
 28 08 2013  04 11  -21.0451 25991.8 -03479.7 -07.6251 26223.7
 28 08 2013  04 12  -21.0450 25992.0 -03479.7 -07.6252 26223.9
 28 08 2013  04 13  -21.0449 25992.2 -03479.7 -07.6252 26224.1
 28 08 2013  04 14  -21.0448 25992.4 -03479.8 -07.6253 26224.3
 28 08 2013  04 15  -21.0447 25992.5 -03479.8 -07.6253 26224.4
 28 08 2013  04 16  -21.0448 25992.7 -03479.9 -07.6253 26224.6
 28 08 2013  04 17  -21.0450 25992.8 -03479.9 -07.6254 26224.7
 28 08 2013  04 18  -21.0451 25992.9 -03479.9 -07.6254 26224.8
 28 08 2013  04 19  -21.0452 25993.0 -03479.9 -07.6253 26224.9
 28 08 2013  04 20  -21.0453 25993.0 -03479.9 -07.6252 26225.0
 28 08 2013  04 21  -21.0455 25993.1 -03479.9 -07.6252 26225.0
 28 08 2013  04 22  -21.0458 25993.2 -03479.9 -07.6252 26225.1
 28 08 2013  04 23  -21.0457 25993.2 -03479.8 -07.6251 26225.1
 28 08 2013  04 24  -21.0457 25993.2 -03479.7 -07.6249 26225.0
 28 08 2013  04 25  -21.0455 25993.1 -03479.7 -07.6248 26225.0
 28 08 2013  04 26  -21.0452 25993.1 -03479.6 -07.6247 26225.0
 28 08 2013  04 27  -21.0450 25993.2 -03479.6 -07.6247 26225.0
 28 08 2013  04 28  -21.0447 25993.2 -03479.6 -07.6247 26225.1
 28 08 2013  04 29  -21.0447 25993.5 -03479.8 -07.6248 26225.3
 28 08 2013  04 30  -21.0446 25993.7 -03479.8 -07.6249 26225.6
 28 08 2013  04 31  -21.0445 25993.9 -03479.9 -07.6250 26225.8
 28 08 2013  04 32  -21.0442 25994.2 -03480.0 -07.6252 26226.1
 28 08 2013  04 33  -21.0440 25994.2 -03480.0 -07.6251 26226.1
 28 08 2013  04 34  -21.0439 25994.3 -03480.0 -07.6251 26226.2
 28 08 2013  04 35  -21.0439 25994.4 -03480.0 -07.6252 26226.4
 28 08 2013  04 36  -21.0440 25994.6 -03480.1 -07.6252 26226.5
 28 08 2013  04 37  -21.0441 25994.7 -03480.2 -07.6254 26226.6
 28 08 2013  04 38  -21.0443 25994.9 -03480.1 -07.6253 26226.8
 28 08 2013  04 39  -21.0448 25995.2 -03480.3 -07.6255 26227.1
 28 08 2013  04 40  -21.0459 25995.3 -03480.4 -07.6257 26227.3
 28 08 2013  04 41  -21.0470 25995.4 -03480.4 -07.6258 26227.4
 28 08 2013  04 42  -21.0479 25995.5 -03480.4 -07.6257 26227.4
 28 08 2013  04 43  -21.0485 25995.6 -03480.4 -07.6256 26227.5
 28 08 2013  04 44  -21.0490 25995.7 -03480.4 -07.6255 26227.6
 28 08 2013  04 45  -21.0494 25995.7 -03480.3 -07.6254 26227.7
 28 08 2013  04 46  -21.0496 25995.8 -03480.3 -07.6252 26227.8
 28 08 2013  04 47  -21.0495 25995.9 -03480.2 -07.6251 26227.8
 28 08 2013  04 48  -21.0493 25995.9 -03480.1 -07.6249 26227.8
 28 08 2013  04 49  -21.0490 25995.9 -03480.1 -07.6248 26227.9
 28 08 2013  04 50  -21.0489 25996.0 -03480.1 -07.6248 26227.9
 28 08 2013  04 51  -21.0486 25996.1 -03480.0 -07.6247 26228.0
 28 08 2013  04 52  -21.0481 25996.1 -03480.0 -07.6247 26228.0
 28 08 2013  04 53  -21.0476 25996.1 -03480.0 -07.6245 26228.0
 28 08 2013  04 54  -21.0470 25996.3 -03480.0 -07.6246 26228.2
 28 08 2013  04 55  -21.0465 25996.4 -03480.0 -07.6246 26228.3
 28 08 2013  04 56  -21.0459 25996.5 -03480.1 -07.6247 26228.4
 28 08 2013  04 57  -21.0453 25996.7 -03480.2 -07.6248 26228.6
 28 08 2013  04 58  -21.0446 25996.8 -03480.2 -07.6249 26228.8
 28 08 2013  04 59  -21.0441 25996.8 -03480.2 -07.6250 26228.7
 28 08 2013  05 00  -21.0438 25996.8 -03480.2 -07.6249 26228.7
 28 08 2013  05 01  -21.0436 25996.7 -03480.2 -07.6249 26228.6
 28 08 2013  05 02  -21.0434 25996.6 -03480.2 -07.6248 26228.6
 28 08 2013  05 03  -21.0430 25996.7 -03480.2 -07.6248 26228.6
 28 08 2013  05 04  -21.0425 25996.7 -03480.2 -07.6249 26228.6
 28 08 2013  05 05  -21.0420 25996.7 -03480.2 -07.6249 26228.6
 28 08 2013  05 06  -21.0418 25996.8 -03480.2 -07.6250 26228.7
 28 08 2013  05 07  -21.0418 25996.9 -03480.3 -07.6251 26228.8
 28 08 2013  05 08  -21.0417 25996.9 -03480.4 -07.6252 26228.8
 28 08 2013  05 09  -21.0417 25996.9 -03480.4 -07.6253 26228.9
 28 08 2013  05 10  -21.0416 25996.9 -03480.4 -07.6253 26228.8
 28 08 2013  05 11  -21.0416 25996.8 -03480.4 -07.6252 26228.8
 28 08 2013  05 12  -21.0417 25996.8 -03480.4 -07.6252 26228.8
 28 08 2013  05 13  -21.0419 25996.8 -03480.4 -07.6252 26228.7
 28 08 2013  05 14  -21.0422 25996.6 -03480.3 -07.6251 26228.5
 28 08 2013  05 15  -21.0426 25996.4 -03480.2 -07.6249 26228.3
 28 08 2013  05 16  -21.0427 25996.2 -03480.1 -07.6248 26228.1
 28 08 2013  05 17  -21.0424 25996.1 -03480.0 -07.6246 26228.0
 28 08 2013  05 18  -21.0419 25996.1 -03480.0 -07.6246 26228.0
 28 08 2013  05 19  -21.0414 25996.3 -03480.0 -07.6246 26228.2
 28 08 2013  05 20  -21.0406 25996.4 -03480.1 -07.6247 26228.3
 28 08 2013  05 21  -21.0399 25996.4 -03480.1 -07.6247 26228.3
 28 08 2013  05 22  -21.0389 25996.6 -03480.1 -07.6248 26228.5
 28 08 2013  05 23  -21.0381 25996.8 -03480.2 -07.6249 26228.7
 28 08 2013  05 24  -21.0375 25997.0 -03480.4 -07.6251 26228.9
 28 08 2013  05 25  -21.0367 25997.0 -03480.4 -07.6252 26228.9
 28 08 2013  05 26  -21.0359 25997.1 -03480.4 -07.6253 26229.1
 28 08 2013  05 27  -21.0352 25997.2 -03480.5 -07.6254 26229.1
 28 08 2013  05 28  -21.0346 25997.2 -03480.5 -07.6255 26229.2
 28 08 2013  05 29  -21.0338 25997.3 -03480.6 -07.6255 26229.3
 28 08 2013  05 30  -21.0330 25997.4 -03480.6 -07.6256 26229.4
 28 08 2013  05 31  -21.0327 25997.5 -03480.7 -07.6258 26229.5
 28 08 2013  05 32  -21.0325 25997.7 -03480.9 -07.6260 26229.7
 28 08 2013  05 33  -21.0320 25997.8 -03481.0 -07.6262 26229.8
 28 08 2013  05 34  -21.0315 25998.0 -03481.0 -07.6263 26230.0
 28 08 2013  05 35  -21.0307 25998.2 -03481.1 -07.6264 26230.2
 28 08 2013  05 36  -21.0299 25998.5 -03481.2 -07.6266 26230.5
 28 08 2013  05 37  -21.0291 25998.6 -03481.3 -07.6267 26230.7
 28 08 2013  05 38  -21.0284 25998.7 -03481.4 -07.6268 26230.8
 28 08 2013  05 39  -21.0282 25998.7 -03481.4 -07.6269 26230.8
 28 08 2013  05 40  -21.0281 25998.7 -03481.4 -07.6269 26230.7
 28 08 2013  05 41  -21.0281 25998.7 -03481.4 -07.6270 26230.8
 28 08 2013  05 42  -21.0282 25998.7 -03481.5 -07.6271 26230.8
 28 08 2013  05 43  -21.0289 25998.8 -03481.5 -07.6271 26230.8
 28 08 2013  05 44  -21.0298 25998.8 -03481.6 -07.6273 26230.9
 28 08 2013  05 45  -21.0306 25998.9 -03481.7 -07.6275 26231.0
 28 08 2013  05 46  -21.0316 25998.8 -03481.6 -07.6274 26230.8
 28 08 2013  05 47  -21.0323 25998.8 -03481.6 -07.6273 26230.9
 28 08 2013  05 48  -21.0329 25998.9 -03481.7 -07.6274 26231.0
 28 08 2013  05 49  -21.0336 25999.1 -03481.7 -07.6275 26231.2
 28 08 2013  05 50  -21.0341 25999.5 -03481.9 -07.6277 26231.6
 28 08 2013  05 51  -21.0346 25999.8 -03482.0 -07.6278 26231.9
 28 08 2013  05 52  -21.0350 25999.9 -03482.0 -07.6278 26232.0
 28 08 2013  05 53  -21.0354 25999.7 -03481.8 -07.6275 26231.8
 28 08 2013  05 54  -21.0359 25999.0 -03481.4 -07.6268 26231.1
 28 08 2013  05 55  -21.0357 25998.6 -03481.0 -07.6262 26230.6
 28 08 2013  05 56  -21.0357 25998.6 -03481.0 -07.6260 26230.6
 28 08 2013  05 57  -21.0360 25998.8 -03481.1 -07.6262 26230.9
 28 08 2013  05 58  -21.0367 25998.9 -03481.2 -07.6263 26230.9
 28 08 2013  05 59  -21.0371 25999.1 -03481.2 -07.6264 26231.1
 28 08 2013  06 00  -21.0373 25999.3 -03481.3 -07.6265 26231.3
 28 08 2013  06 01  -21.0374 25999.4 -03481.3 -07.6264 26231.4
 28 08 2013  06 02  -21.0377 25999.4 -03481.2 -07.6264 26231.5
 28 08 2013  06 03  -21.0381 25999.5 -03481.3 -07.6264 26231.6
 28 08 2013  06 04  -21.0382 25999.5 -03481.2 -07.6262 26231.5
 28 08 2013  06 05  -21.0381 25999.8 -03481.3 -07.6263 26231.9
 28 08 2013  06 06  -21.0380 26000.1 -03481.3 -07.6263 26232.1
 28 08 2013  06 07  -21.0379 26000.2 -03481.3 -07.6263 26232.2
 28 08 2013  06 08  -21.0375 26000.1 -03481.2 -07.6261 26232.1
 28 08 2013  06 09  -21.0368 26000.1 -03481.1 -07.6259 26232.1
 28 08 2013  06 10  -21.0363 26000.1 -03481.0 -07.6256 26232.1
 28 08 2013  06 11  -21.0358 25999.9 -03480.9 -07.6254 26231.8
 28 08 2013  06 12  -21.0352 25999.8 -03480.8 -07.6252 26231.8
 28 08 2013  06 13  -21.0346 25999.8 -03480.8 -07.6253 26231.8
 28 08 2013  06 14  -21.0342 25999.8 -03480.8 -07.6252 26231.7
 28 08 2013  06 15  -21.0336 25999.5 -03480.7 -07.6251 26231.5
 28 08 2013  06 16  -21.0330 25999.2 -03480.5 -07.6248 26231.1
 28 08 2013  06 17  -21.0322 25998.9 -03480.4 -07.6247 26230.9
 28 08 2013  06 18  -21.0317 25999.0 -03480.5 -07.6248 26230.9
 28 08 2013  06 19  -21.0312 25999.2 -03480.6 -07.6251 26231.1
 28 08 2013  06 20  -21.0308 25999.3 -03480.8 -07.6253 26231.3
 28 08 2013  06 21  -21.0306 25999.4 -03480.9 -07.6255 26231.4
 28 08 2013  06 22  -21.0305 25999.4 -03480.9 -07.6257 26231.4
 28 08 2013  06 23  -21.0303 25999.6 -03481.0 -07.6259 26231.6
 28 08 2013  06 24  -21.0300 25999.9 -03481.2 -07.6261 26231.9
 28 08 2013  06 25  -21.0298 26000.3 -03481.4 -07.6264 26232.3
 28 08 2013  06 26  -21.0294 26000.6 -03481.6 -07.6267 26232.7
 28 08 2013  06 27  -21.0291 26000.8 -03481.6 -07.6268 26232.9
 28 08 2013  06 28  -21.0290 26000.8 -03481.6 -07.6267 26232.8
 28 08 2013  06 29  -21.0290 26000.8 -03481.6 -07.6268 26232.8
 28 08 2013  06 30  -21.0289 26001.0 -03481.7 -07.6269 26233.1
 28 08 2013  06 31  -21.0289 26001.4 -03481.9 -07.6272 26233.5
 28 08 2013  06 32  -21.0291 26001.5 -03481.9 -07.6272 26233.6
 28 08 2013  06 33  -21.0293 26001.6 -03482.0 -07.6273 26233.7
 28 08 2013  06 34  -21.0296 26001.6 -03481.9 -07.6272 26233.7
 28 08 2013  06 35  -21.0296 26001.8 -03482.0 -07.6272 26233.9
 28 08 2013  06 36  -21.0295 26002.0 -03482.0 -07.6272 26234.1
 28 08 2013  06 37  -21.0292 26002.1 -03482.0 -07.6271 26234.2
 28 08 2013  06 38  -21.0290 26002.2 -03482.0 -07.6271 26234.3
 28 08 2013  06 39  -21.0286 26002.1 -03481.9 -07.6270 26234.2
 28 08 2013  06 40  -21.0278 26002.2 -03481.9 -07.6269 26234.3
 28 08 2013  06 41  -21.0269 26002.2 -03481.8 -07.6267 26234.3
 28 08 2013  06 42  -21.0262 26002.1 -03481.7 -07.6267 26234.2
 28 08 2013  06 43  -21.0259 26002.1 -03481.7 -07.6266 26234.1
 28 08 2013  06 44  -21.0260 26002.0 -03481.7 -07.6267 26234.1
 28 08 2013  06 45  -21.0264 26002.2 -03481.8 -07.6268 26234.3
 28 08 2013  06 46  -21.0266 26002.2 -03481.9 -07.6270 26234.3
 28 08 2013  06 47  -21.0268 26002.3 -03481.9 -07.6270 26234.4
 28 08 2013  06 48  -21.0273 26002.5 -03482.1 -07.6273 26234.6
 28 08 2013  06 49  -21.0278 26002.7 -03482.2 -07.6274 26234.8
 28 08 2013  06 50  -21.0279 26002.8 -03482.2 -07.6275 26235.0
 28 08 2013  06 51  -21.0278 26002.9 -03482.2 -07.6274 26235.0
 28 08 2013  06 52  -21.0277 26002.9 -03482.2 -07.6273 26235.1
 28 08 2013  06 53  -21.0276 26002.9 -03482.1 -07.6272 26235.0
 28 08 2013  06 54  -21.0277 26002.9 -03482.0 -07.6271 26235.0
 28 08 2013  06 55  -21.0278 26002.9 -03482.0 -07.6271 26235.0
 28 08 2013  06 56  -21.0273 26002.9 -03482.0 -07.6269 26235.0
 28 08 2013  06 57  -21.0267 26003.0 -03481.9 -07.6268 26235.1
 28 08 2013  06 58  -21.0262 26003.0 -03481.9 -07.6268 26235.1
 28 08 2013  06 59  -21.0259 26003.0 -03481.9 -07.6268 26235.1
 28 08 2013  07 00  -21.0256 26003.2 -03482.0 -07.6269 26235.3
 28 08 2013  07 01  -21.0252 26003.4 -03482.1 -07.6271 26235.5
 28 08 2013  07 02  -21.0248 26003.7 -03482.2 -07.6272 26235.8
 28 08 2013  07 03  -21.0245 26003.8 -03482.3 -07.6273 26235.9
 28 08 2013  07 04  -21.0241 26003.9 -03482.3 -07.6273 26236.0
 28 08 2013  07 05  -21.0235 26003.9 -03482.3 -07.6273 26236.0
 28 08 2013  07 06  -21.0229 26003.8 -03482.2 -07.6271 26235.9
 28 08 2013  07 07  -21.0226 26003.8 -03482.2 -07.6271 26235.9
 28 08 2013  07 08  -21.0225 26004.0 -03482.3 -07.6273 26236.1
 28 08 2013  07 09  -21.0220 26004.0 -03482.3 -07.6273 26236.1
 28 08 2013  07 10  -21.0216 26003.9 -03482.2 -07.6272 26236.0
 28 08 2013  07 11  -21.0210 26004.0 -03482.2 -07.6271 26236.1
 28 08 2013  07 12  -21.0203 26004.0 -03482.2 -07.6272 26236.2
 28 08 2013  07 13  -21.0197 26004.1 -03482.3 -07.6272 26236.2
 28 08 2013  07 14  -21.0192 26004.1 -03482.3 -07.6273 26236.3
 28 08 2013  07 15  -21.0189 26004.2 -03482.4 -07.6274 26236.4
 28 08 2013  07 16  -21.0189 26004.2 -03482.4 -07.6275 26236.4
 28 08 2013  07 17  -21.0193 26004.1 -03482.4 -07.6275 26236.3
 28 08 2013  07 18  -21.0194 26004.2 -03482.4 -07.6275 26236.3
 28 08 2013  07 19  -21.0192 26004.2 -03482.4 -07.6275 26236.4
 28 08 2013  07 20  -21.0189 26004.2 -03482.4 -07.6275 26236.4
 28 08 2013  07 21  -21.0186 26004.3 -03482.5 -07.6275 26236.5
 28 08 2013  07 22  -21.0183 26004.5 -03482.5 -07.6276 26236.6
 28 08 2013  07 23  -21.0182 26004.6 -03482.6 -07.6277 26236.8
 28 08 2013  07 24  -21.0182 26004.8 -03482.7 -07.6279 26236.9
 28 08 2013  07 25  -21.0180 26004.9 -03482.7 -07.6279 26237.0
 28 08 2013  07 26  -21.0176 26004.9 -03482.7 -07.6279 26237.1
 28 08 2013  07 27  -21.0174 26005.0 -03482.7 -07.6279 26237.2
 28 08 2013  07 28  -21.0174 26005.1 -03482.8 -07.6280 26237.3
 28 08 2013  07 29  -21.0175 26005.1 -03482.7 -07.6279 26237.3
 28 08 2013  07 30  -21.0176 26005.0 -03482.7 -07.6279 26237.2
 28 08 2013  07 31  -21.0175 26005.2 -03482.7 -07.6279 26237.4
 28 08 2013  07 32  -21.0173 26005.4 -03482.8 -07.6280 26237.6
 28 08 2013  07 33  -21.0171 26005.4 -03482.8 -07.6280 26237.6
 28 08 2013  07 34  -21.0170 26005.6 -03482.9 -07.6281 26237.8
 28 08 2013  07 35  -21.0168 26005.7 -03482.9 -07.6282 26237.9
 28 08 2013  07 36  -21.0165 26005.8 -03483.0 -07.6282 26238.0
 28 08 2013  07 37  -21.0162 26005.9 -03483.0 -07.6282 26238.1
 28 08 2013  07 38  -21.0160 26006.0 -03483.0 -07.6282 26238.2
 28 08 2013  07 39  -21.0157 26006.0 -03483.0 -07.6282 26238.2
 28 08 2013  07 40  -21.0154 26005.9 -03482.9 -07.6281 26238.1
 28 08 2013  07 41  -21.0150 26005.9 -03482.8 -07.6279 26238.0
 28 08 2013  07 42  -21.0148 26005.9 -03482.8 -07.6279 26238.0
 28 08 2013  07 43  -21.0146 26006.0 -03482.9 -07.6281 26238.2
 28 08 2013  07 44  -21.0145 26006.1 -03483.0 -07.6281 26238.3
 28 08 2013  07 45  -21.0143 26006.1 -03482.9 -07.6281 26238.3
 28 08 2013  07 46  -21.0141 26006.2 -03482.9 -07.6281 26238.4
 28 08 2013  07 47  -21.0137 26006.4 -03483.0 -07.6282 26238.6
 28 08 2013  07 48  -21.0133 26006.3 -03483.0 -07.6281 26238.5
 28 08 2013  07 49  -21.0129 26006.4 -03483.0 -07.6281 26238.6
 28 08 2013  07 50  -21.0126 26006.6 -03483.0 -07.6281 26238.8
 28 08 2013  07 51  -21.0123 26006.9 -03483.2 -07.6284 26239.1
 28 08 2013  07 52  -21.0119 26007.2 -03483.3 -07.6286 26239.4
 28 08 2013  07 53  -21.0116 26007.4 -03483.4 -07.6288 26239.7
 28 08 2013  07 54  -21.0113 26007.6 -03483.5 -07.6289 26239.8
 28 08 2013  07 55  -21.0111 26007.7 -03483.6 -07.6290 26240.0
 28 08 2013  07 56  -21.0112 26007.8 -03483.6 -07.6290 26240.0
 28 08 2013  07 57  -21.0114 26007.8 -03483.5 -07.6289 26240.0
 28 08 2013  07 58  -21.0117 26007.8 -03483.5 -07.6289 26240.1
 28 08 2013  07 59  -21.0117 26007.8 -03483.4 -07.6287 26240.0
 28 08 2013  08 00  -21.0119 26007.7 -03483.3 -07.6285 26239.9
 28 08 2013  08 01  -21.0118 26007.7 -03483.3 -07.6284 26239.9
 28 08 2013  08 02  -21.0115 26007.7 -03483.3 -07.6283 26240.0
 28 08 2013  08 03  -21.0111 26007.7 -03483.2 -07.6281 26239.9
 28 08 2013  08 04  -21.0103 26007.8 -03483.2 -07.6281 26240.0
 28 08 2013  08 05  -21.0098 26007.9 -03483.2 -07.6281 26240.1
 28 08 2013  08 06  -21.0092 26007.8 -03483.1 -07.6280 26240.0
 28 08 2013  08 07  -21.0086 26008.0 -03483.2 -07.6281 26240.2
 28 08 2013  08 08  -21.0082 26008.1 -03483.3 -07.6283 26240.4
 28 08 2013  08 09  -21.0077 26008.1 -03483.3 -07.6282 26240.3
 28 08 2013  08 10  -21.0072 26008.1 -03483.2 -07.6282 26240.3
 28 08 2013  08 11  -21.0070 26008.3 -03483.3 -07.6283 26240.5
 28 08 2013  08 12  -21.0068 26008.5 -03483.4 -07.6285 26240.7
 28 08 2013  08 13  -21.0063 26008.5 -03483.5 -07.6285 26240.8
 28 08 2013  08 14  -21.0060 26008.5 -03483.5 -07.6286 26240.8
 28 08 2013  08 15  -21.0057 26008.5 -03483.5 -07.6286 26240.8
 28 08 2013  08 16  -21.0058 26008.7 -03483.6 -07.6287 26240.9
 28 08 2013  08 17  -21.0055 26008.9 -03483.6 -07.6287 26241.1
 28 08 2013  08 18  -21.0053 26009.1 -03483.7 -07.6289 26241.3
 28 08 2013  08 19  -21.0049 26009.2 -03483.7 -07.6288 26241.5
 28 08 2013  08 20  -21.0046 26009.4 -03483.8 -07.6289 26241.7
 28 08 2013  08 21  -21.0044 26009.6 -03483.9 -07.6290 26241.9
 28 08 2013  08 22  -21.0043 26009.9 -03483.9 -07.6291 26242.1
 28 08 2013  08 23  -21.0042 26010.0 -03484.0 -07.6293 26242.4
 28 08 2013  08 24  -21.0041 26010.3 -03484.1 -07.6294 26242.6
 28 08 2013  08 25  -21.0042 26010.6 -03484.2 -07.6296 26242.9
 28 08 2013  08 26  -21.0038 26010.7 -03484.3 -07.6296 26243.0
 28 08 2013  08 27  -21.0031 26010.7 -03484.2 -07.6294 26243.0
 28 08 2013  08 28  -21.0024 26010.5 -03484.0 -07.6291 26242.8
 28 08 2013  08 29  -21.0020 26010.6 -03483.9 -07.6290 26242.8
 28 08 2013  08 30  -21.0017 26010.6 -03483.9 -07.6290 26242.8
 28 08 2013  08 31  -21.0012 26010.6 -03483.9 -07.6289 26242.9
 28 08 2013  08 32  -21.0004 26010.7 -03483.9 -07.6289 26242.9
 28 08 2013  08 33  -20.9999 26010.7 -03483.9 -07.6288 26243.0
 28 08 2013  08 34  -20.9991 26010.8 -03483.9 -07.6288 26243.1
 28 08 2013  08 35  -20.9985 26010.8 -03483.9 -07.6288 26243.1
 28 08 2013  08 36  -20.9983 26010.9 -03484.0 -07.6289 26243.2
 28 08 2013  08 37  -20.9984 26011.0 -03484.0 -07.6290 26243.3
 28 08 2013  08 38  -20.9986 26011.2 -03484.1 -07.6292 26243.5
 28 08 2013  08 39  -20.9987 26011.4 -03484.2 -07.6293 26243.7
 28 08 2013  08 40  -20.9985 26011.5 -03484.2 -07.6293 26243.8
 28 08 2013  08 41  -20.9980 26011.5 -03484.2 -07.6292 26243.8
 28 08 2013  08 42  -20.9977 26011.5 -03484.0 -07.6287 26243.7
 28 08 2013  08 43  -20.9973 26011.6 -03484.1 -07.6291 26243.9
 28 08 2013  08 44  -20.9964 26011.4 -03484.0 -07.6288 26243.7
 28 08 2013  08 45  -20.9958 26011.3 -03483.9 -07.6286 26243.5
 28 08 2013  08 46  -20.9950 26011.2 -03483.8 -07.6285 26243.5
 28 08 2013  08 47  -20.9942 26011.0 -03483.6 -07.6282 26243.3
 28 08 2013  08 48  -20.9934 26010.9 -03483.7 -07.6284 26243.1
 28 08 2013  08 49  -20.9928 26010.7 -03483.7 -07.6284 26242.9
 28 08 2013  08 50  -20.9923 26010.7 -03483.8 -07.6286 26242.9
 28 08 2013  08 51  -20.9920 26010.6 -03483.8 -07.6287 26242.9
 28 08 2013  08 52  -20.9921 26010.8 -03484.0 -07.6290 26243.1
 28 08 2013  08 53  -20.9918 26011.0 -03484.1 -07.6292 26243.3
 28 08 2013  08 54  -20.9914 26010.8 -03484.1 -07.6292 26243.1
 28 08 2013  08 55  -20.9907 26010.8 -03484.0 -07.6291 26243.0
 28 08 2013  08 56  -20.9906 26010.8 -03484.1 -07.6292 26243.1
 28 08 2013  08 57  -20.9903 26010.8 -03484.1 -07.6293 26243.1
 28 08 2013  08 58  -20.9899 26010.8 -03484.2 -07.6295 26243.2
 28 08 2013  08 59  -20.9891 26010.7 -03484.3 -07.6296 26243.1
 28 08 2013  09 00  -20.9886 26010.8 -03484.3 -07.6298 26243.1
 28 08 2013  09 01  -20.9880 26010.7 -03484.3 -07.6298 26243.1
 28 08 2013  09 02  -20.9876 26010.8 -03484.4 -07.6300 26243.1
 28 08 2013  09 03  -20.9872 26010.8 -03484.5 -07.6302 26243.2
 28 08 2013  09 04  -20.9868 26010.8 -03484.6 -07.6304 26243.2
 28 08 2013  09 05  -20.9861 26010.7 -03484.7 -07.6305 26243.1
 28 08 2013  09 06  -20.9855 26010.7 -03484.7 -07.6306 26243.1
 28 08 2013  09 07  -20.9850 26010.7 -03484.8 -07.6308 26243.1
 28 08 2013  09 08  -20.9847 26010.7 -03484.9 -07.6309 26243.2
 28 08 2013  09 09  -20.9845 26010.8 -03485.0 -07.6312 26243.2
 28 08 2013  09 10  -20.9841 26010.8 -03485.1 -07.6313 26243.2
 28 08 2013  09 11  -20.9836 26010.8 -03485.2 -07.6316 26243.2
 28 08 2013  09 12  -20.9835 26010.8 -03485.3 -07.6318 26243.2
 28 08 2013  09 13  -20.9835 26010.5 -03485.3 -07.6320 26243.0
 28 08 2013  09 14  -20.9832 26010.3 -03485.4 -07.6322 26242.8
 28 08 2013  09 15  -20.9825 26010.2 -03485.3 -07.6319 26242.7
 28 08 2013  09 16  -20.9823 26010.2 -03485.5 -07.6325 26242.7
 28 08 2013  09 17  -20.9825 26010.2 -03485.7 -07.6329 26242.7
 28 08 2013  09 18  -20.9823 26010.0 -03485.8 -07.6331 26242.6
 28 08 2013  09 19  -20.9824 26009.9 -03485.9 -07.6333 26242.4
 28 08 2013  09 20  -20.9823 26009.7 -03486.0 -07.6336 26242.3
 28 08 2013  09 21  -20.9821 26009.7 -03486.0 -07.6337 26242.3
 28 08 2013  09 22  -20.9821 26009.6 -03486.1 -07.6339 26242.2
 28 08 2013  09 23  -20.9822 26009.6 -03486.2 -07.6342 26242.2
 28 08 2013  09 24  -20.9818 26009.5 -03486.3 -07.6343 26242.1
 28 08 2013  09 25  -20.9817 26009.6 -03486.4 -07.6346 26242.2
 28 08 2013  09 26  -20.9811 26009.6 -03486.6 -07.6349 26242.2
 28 08 2013  09 27  -20.9809 26009.7 -03486.7 -07.6353 26242.4
 28 08 2013  09 28  -20.9808 26009.8 -03486.9 -07.6356 26242.5
 28 08 2013  09 29  -20.9807 26009.8 -03487.0 -07.6358 26242.5
 28 08 2013  09 30  -20.9805 26009.9 -03487.1 -07.6360 26242.6
 28 08 2013  09 31  -20.9806 26009.8 -03487.2 -07.6362 26242.6
 28 08 2013  09 32  -20.9810 26009.9 -03487.4 -07.6365 26242.7
 28 08 2013  09 33  -20.9811 26010.0 -03487.5 -07.6368 26242.7
 28 08 2013  09 34  -20.9809 26009.9 -03487.6 -07.6370 26242.7
 28 08 2013  09 35  -20.9806 26010.0 -03487.7 -07.6372 26242.8
 28 08 2013  09 36  -20.9806 26009.9 -03487.8 -07.6374 26242.7
 28 08 2013  09 37  -20.9805 26009.8 -03487.8 -07.6375 26242.6
 28 08 2013  09 38  -20.9805 26009.8 -03487.9 -07.6378 26242.6
 28 08 2013  09 39  -20.9811 26009.7 -03488.0 -07.6380 26242.5
 28 08 2013  09 40  -20.9814 26009.7 -03488.1 -07.6382 26242.5
 28 08 2013  09 41  -20.9819 26009.7 -03488.2 -07.6385 26242.6
 28 08 2013  09 42  -20.9823 26009.9 -03488.4 -07.6388 26242.8
 28 08 2013  09 43  -20.9826 26010.0 -03488.5 -07.6390 26242.9
 28 08 2013  09 44  -20.9824 26010.0 -03488.6 -07.6391 26242.9
 28 08 2013  09 45  -20.9821 26009.9 -03488.6 -07.6392 26242.8
 28 08 2013  09 46  -20.9821 26009.7 -03488.6 -07.6392 26242.6
 28 08 2013  09 47  -20.9830 26009.8 -03488.7 -07.6395 26242.8
 28 08 2013  09 48  -20.9837 26009.9 -03488.8 -07.6398 26242.8
 28 08 2013  09 49  -20.9833 26009.7 -03488.8 -07.6398 26242.7
 28 08 2013  09 50  -20.9826 26009.6 -03488.8 -07.6397 26242.5
 28 08 2013  09 51  -20.9825 26009.7 -03488.9 -07.6400 26242.7
 28 08 2013  09 52  -20.9826 26009.9 -03489.1 -07.6403 26242.9
 28 08 2013  09 53  -20.9824 26009.8 -03489.1 -07.6404 26242.8
 28 08 2013  09 54  -20.9824 26009.7 -03489.2 -07.6405 26242.7
 28 08 2013  09 55  -20.9827 26009.8 -03489.3 -07.6409 26242.8
 28 08 2013  09 56  -20.9829 26009.9 -03489.4 -07.6410 26242.9
 28 08 2013  09 57  -20.9832 26009.8 -03489.5 -07.6412 26242.9
 28 08 2013  09 58  -20.9834 26010.1 -03489.6 -07.6415 26243.1
 28 08 2013  09 59  -20.9835 26010.1 -03489.7 -07.6416 26243.2
 28 08 2013  10 00  -20.9837 26010.2 -03489.8 -07.6417 26243.2
 28 08 2013  10 01  -20.9837 26010.2 -03489.8 -07.6418 26243.2
 28 08 2013  10 02  -20.9840 26010.1 -03489.8 -07.6419 26243.1
 28 08 2013  10 03  -20.9842 26010.0 -03489.9 -07.6421 26243.1
 28 08 2013  10 04  -20.9844 26010.1 -03490.0 -07.6422 26243.2
 28 08 2013  10 05  -20.9845 26010.0 -03490.0 -07.6423 26243.2
 28 08 2013  10 06  -20.9847 26010.1 -03490.1 -07.6424 26243.2
 28 08 2013  10 07  -20.9849 26010.2 -03490.1 -07.6425 26243.4
 28 08 2013  10 08  -20.9850 26010.4 -03490.2 -07.6427 26243.5
 28 08 2013  10 09  -20.9847 26010.3 -03490.2 -07.6427 26243.4
 28 08 2013  10 10  -20.9846 26010.2 -03490.2 -07.6427 26243.3
 28 08 2013  10 11  -20.9848 26010.1 -03490.3 -07.6428 26243.3
 28 08 2013  10 12  -20.9841 26009.9 -03490.2 -07.6427 26243.0
 28 08 2013  10 13  -20.9840 26009.9 -03490.3 -07.6428 26243.1
 28 08 2013  10 14  -20.9843 26010.0 -03490.4 -07.6431 26243.2
 28 08 2013  10 15  -20.9839 26010.2 -03490.5 -07.6432 26243.4
 28 08 2013  10 16  -20.9839 26010.4 -03490.6 -07.6434 26243.6
 28 08 2013  10 17  -20.9846 26010.7 -03490.8 -07.6437 26243.9
 28 08 2013  10 18  -20.9853 26010.9 -03490.9 -07.6439 26244.1
 28 08 2013  10 19  -20.9856 26010.8 -03490.9 -07.6439 26244.0
 28 08 2013  10 20  -20.9858 26010.8 -03490.8 -07.6438 26244.0
 28 08 2013  10 21  -20.9855 26010.9 -03490.9 -07.6439 26244.1
 28 08 2013  10 22  -20.9860 26010.8 -03490.9 -07.6440 26244.0
 28 08 2013  10 23  -20.9865 26010.8 -03491.0 -07.6441 26244.0
 28 08 2013  10 24  -20.9869 26010.7 -03491.0 -07.6441 26243.9
 28 08 2013  10 25  -20.9875 26010.7 -03491.0 -07.6442 26244.0
 28 08 2013  10 26  -20.9875 26011.0 -03491.1 -07.6444 26244.3
 28 08 2013  10 27  -20.9867 26011.4 -03491.2 -07.6445 26244.6
 28 08 2013  10 28  -20.9863 26011.4 -03491.2 -07.6444 26244.6
 28 08 2013  10 29  -20.9866 26011.3 -03491.2 -07.6444 26244.5
 28 08 2013  10 30  -20.9875 26011.3 -03491.2 -07.6445 26244.5
 28 08 2013  10 31  -20.9888 26011.6 -03491.4 -07.6449 26244.8
 28 08 2013  10 32  -20.9897 26011.7 -03491.5 -07.6450 26245.0
 28 08 2013  10 33  -20.9900 26012.1 -03491.6 -07.6451 26245.4
 28 08 2013  10 34  -20.9894 26012.1 -03491.5 -07.6449 26245.4
 28 08 2013  10 35  -20.9889 26012.0 -03491.4 -07.6446 26245.2
 28 08 2013  10 36  -20.9897 26011.4 -03491.2 -07.6444 26244.6
 28 08 2013  10 37  -20.9907 26011.1 -03491.1 -07.6443 26244.3
 28 08 2013  10 38  -20.9905 26011.5 -03491.3 -07.6446 26244.8
 28 08 2013  10 39  -20.9902 26012.0 -03491.4 -07.6448 26245.2
 28 08 2013  10 40  -20.9907 26011.9 -03491.4 -07.6447 26245.1
 28 08 2013  10 41  -20.9909 26012.4 -03491.5 -07.6449 26245.7
 28 08 2013  10 42  -20.9910 26012.8 -03491.6 -07.6449 26246.0
 28 08 2013  10 43  -20.9910 26012.1 -03491.2 -07.6443 26245.3
 28 08 2013  10 44  -20.9924 26012.0 -03491.2 -07.6443 26245.2
 28 08 2013  10 45  -20.9936 26012.4 -03491.4 -07.6445 26245.6
 28 08 2013  10 46  -20.9941 26013.0 -03491.6 -07.6448 26246.3
 28 08 2013  10 47  -20.9941 26012.8 -03491.4 -07.6443 26246.1
 28 08 2013  10 48  -20.9941 26013.0 -03491.3 -07.6443 26246.2
 28 08 2013  10 49  -20.9947 26012.7 -03491.2 -07.6440 26245.9
 28 08 2013  10 50  -20.9956 26012.5 -03491.2 -07.6441 26245.7
 28 08 2013  10 51  -20.9962 26012.9 -03491.4 -07.6444 26246.1
 28 08 2013  10 52  -20.9963 26013.4 -03491.6 -07.6447 26246.7
 28 08 2013  10 53  -20.9970 26013.6 -03491.6 -07.6447 26246.9
 28 08 2013  10 54  -20.9985 26013.6 -03491.7 -07.6448 26246.8
 28 08 2013  10 55  -20.9996 26013.7 -03491.8 -07.6450 26247.0
 28 08 2013  10 56  -21.0007 26014.0 -03491.9 -07.6452 26247.3
 28 08 2013  10 57  -21.0013 26014.3 -03492.0 -07.6454 26247.6
 28 08 2013  10 58  -21.0021 26014.6 -03492.1 -07.6454 26247.9
 28 08 2013  10 59  -21.0025 26014.7 -03492.0 -07.6453 26248.0
 28 08 2013  11 00  -21.0023 26014.9 -03492.0 -07.6452 26248.2
 28 08 2013  11 01  -21.0028 26015.0 -03492.0 -07.6452 26248.4
 28 08 2013  11 02  -21.0036 26015.4 -03492.1 -07.6453 26248.7
 28 08 2013  11 03  -21.0038 26015.8 -03492.2 -07.6454 26249.1
 28 08 2013  11 04  -21.0037 26016.3 -03492.4 -07.6456 26249.6
 28 08 2013  11 05  -21.0035 26016.8 -03492.5 -07.6457 26250.2
 28 08 2013  11 06  -21.0034 26017.5 -03492.6 -07.6458 26250.9
 28 08 2013  11 07  -21.0027 26018.0 -03492.7 -07.6457 26251.4
 28 08 2013  11 08  -21.0017 26018.1 -03492.5 -07.6453 26251.5
 28 08 2013  11 09  -21.0010 26018.1 -03492.3 -07.6449 26251.5
 28 08 2013  11 10  -21.0012 26018.5 -03492.4 -07.6449 26251.8
 28 08 2013  11 11  -21.0017 26018.8 -03492.3 -07.6447 26252.1
 28 08 2013  11 12  -21.0018 26019.0 -03492.2 -07.6444 26252.3
 28 08 2013  11 13  -21.0020 26019.2 -03492.2 -07.6442 26252.5
 28 08 2013  11 14  -21.0028 26019.8 -03492.2 -07.6442 26253.1
 28 08 2013  11 15  -21.0040 26020.4 -03492.4 -07.6444 26253.8
 28 08 2013  11 16  -21.0051 26021.0 -03492.4 -07.6443 26254.3
 28 08 2013  11 17  -21.0059 26021.4 -03492.4 -07.6442 26254.7
 28 08 2013  11 18  -21.0070 26021.8 -03492.4 -07.6440 26255.1
 28 08 2013  11 19  -21.0079 26022.3 -03492.4 -07.6438 26255.6
 28 08 2013  11 20  -21.0087 26022.9 -03492.5 -07.6439 26256.2
 28 08 2013  11 21  -21.0093 26023.6 -03492.6 -07.6438 26256.9
 28 08 2013  11 22  -21.0097 26024.0 -03492.5 -07.6436 26257.3
 28 08 2013  11 23  -21.0104 26024.1 -03492.4 -07.6433 26257.4
 28 08 2013  11 24  -21.0111 26024.3 -03492.3 -07.6431 26257.6
 28 08 2013  11 25  -21.0113 26024.7 -03492.3 -07.6430 26258.0
 28 08 2013  11 26  -21.0120 26024.8 -03492.2 -07.6427 26258.1
 28 08 2013  11 27  -21.0125 26025.1 -03492.2 -07.6427 26258.3
 28 08 2013  11 28  -21.0134 26025.5 -03492.3 -07.6427 26258.8
 28 08 2013  11 29  -21.0140 26026.0 -03492.4 -07.6428 26259.3
 28 08 2013  11 30  -21.0146 26026.6 -03492.5 -07.6427 26259.9
 28 08 2013  11 31  -21.0152 26027.0 -03492.3 -07.6424 26260.2
 28 08 2013  11 32  -21.0155 26026.9 -03492.1 -07.6418 26260.2
 28 08 2013  11 33  -21.0160 26026.7 -03491.7 -07.6411 26259.9
 28 08 2013  11 34  -21.0173 26026.1 -03491.4 -07.6406 26259.3
 28 08 2013  11 35  -21.0189 26025.8 -03491.3 -07.6405 26259.0
 28 08 2013  11 36  -21.0212 26026.0 -03491.5 -07.6408 26259.1
 28 08 2013  11 37  -21.0234 26025.9 -03491.6 -07.6410 26259.1
 28 08 2013  11 38  -21.0254 26025.5 -03491.5 -07.6410 26258.7
 28 08 2013  11 39  -21.0270 26025.4 -03491.6 -07.6413 26258.6
 28 08 2013  11 40  -21.0280 26025.7 -03491.9 -07.6417 26258.9
 28 08 2013  11 41  -21.0283 26026.2 -03492.2 -07.6422 26259.5
 28 08 2013  11 42  -21.0289 26026.4 -03492.2 -07.6423 26259.6
 28 08 2013  11 43  -21.0301 26026.2 -03492.1 -07.6421 26259.4
 28 08 2013  11 44  -21.0312 26026.2 -03492.1 -07.6421 26259.4
 28 08 2013  11 45  -21.0318 26026.4 -03492.2 -07.6422 26259.6
 28 08 2013  11 46  -21.0321 26026.6 -03492.2 -07.6421 26259.9
 28 08 2013  11 47  -21.0320 26027.2 -03492.2 -07.6421 26260.4
 28 08 2013  11 48  -21.0326 26027.9 -03492.4 -07.6422 26261.1
 28 08 2013  11 49  -21.0337 26028.1 -03492.3 -07.6419 26261.3
 28 08 2013  11 50  -21.0347 26027.9 -03492.0 -07.6413 26261.1
 28 08 2013  11 51  -21.0352 26028.0 -03491.8 -07.6409 26261.2
 28 08 2013  11 52  -21.0359 26028.7 -03491.9 -07.6409 26261.9
 28 08 2013  11 53  -21.0365 26029.5 -03492.0 -07.6408 26262.6
 28 08 2013  11 54  -21.0369 26029.8 -03491.8 -07.6404 26262.9
 28 08 2013  11 55  -21.0372 26029.7 -03491.6 -07.6399 26262.9
 28 08 2013  11 56  -21.0377 26030.1 -03491.5 -07.6397 26263.3
 28 08 2013  11 57  -21.0382 26030.5 -03491.5 -07.6395 26263.7
 28 08 2013  11 58  -21.0388 26030.9 -03491.4 -07.6392 26264.0
 28 08 2013  11 59  -21.0394 26031.7 -03491.5 -07.6392 26264.8
 28 08 2013  12 00  -21.0399 26032.5 -03491.5 -07.6390 26265.6
 28 08 2013  12 01  -21.0402 26032.9 -03491.4 -07.6387 26266.0
 28 08 2013  12 02  -21.0408 26033.1 -03491.1 -07.6380 26266.1
 28 08 2013  12 03  -21.0415 26033.5 -03491.0 -07.6376 26266.5
 28 08 2013  12 04  -21.0419 26034.1 -03490.9 -07.6373 26267.1
 28 08 2013  12 05  -21.0420 26034.4 -03490.8 -07.6368 26267.4
 28 08 2013  12 06  -21.0420 26034.7 -03490.6 -07.6363 26267.7
 28 08 2013  12 07  -21.0421 26035.2 -03490.5 -07.6360 26268.1
 28 08 2013  12 08  -21.0421 26035.9 -03490.5 -07.6358 26268.8
 28 08 2013  12 09  -21.0424 26036.6 -03490.5 -07.6356 26269.5
 28 08 2013  12 10  -21.0426 26037.0 -03490.4 -07.6352 26270.0
 28 08 2013  12 11  -21.0432 26037.4 -03490.2 -07.6348 26270.3
 28 08 2013  12 12  -21.0440 26037.7 -03490.0 -07.6342 26270.6
 28 08 2013  12 13  -21.0449 26038.0 -03489.8 -07.6338 26270.8
 28 08 2013  12 14  -21.0456 26038.2 -03489.6 -07.6332 26271.0
 28 08 2013  12 15  -21.0461 26038.3 -03489.4 -07.6326 26271.1
 28 08 2013  12 16  -21.0469 26038.5 -03489.2 -07.6322 26271.2
 28 08 2013  12 17  -21.0475 26038.5 -03489.0 -07.6319 26271.2
 28 08 2013  12 18  -21.0481 26038.6 -03488.8 -07.6313 26271.3
 28 08 2013  12 19  -21.0488 26038.7 -03488.7 -07.6311 26271.4
 28 08 2013  12 20  -21.0496 26038.9 -03488.6 -07.6308 26271.6
 28 08 2013  12 21  -21.0505 26039.0 -03488.4 -07.6304 26271.6
 28 08 2013  12 22  -21.0515 26039.3 -03488.4 -07.6302 26272.0
 28 08 2013  12 23  -21.0524 26039.6 -03488.2 -07.6298 26272.2
 28 08 2013  12 24  -21.0530 26039.7 -03488.0 -07.6293 26272.3
 28 08 2013  12 25  -21.0536 26040.2 -03488.0 -07.6291 26272.8
 28 08 2013  12 26  -21.0540 26040.6 -03487.9 -07.6287 26273.1
 28 08 2013  12 27  -21.0543 26040.7 -03487.7 -07.6283 26273.2
 28 08 2013  12 28  -21.0545 26040.8 -03487.6 -07.6280 26273.3
 28 08 2013  12 29  -21.0547 26041.1 -03487.5 -07.6279 26273.6
 28 08 2013  12 30  -21.0554 26041.7 -03487.5 -07.6278 26274.2
 28 08 2013  12 31  -21.0562 26042.0 -03487.5 -07.6276 26274.5
 28 08 2013  12 32  -21.0567 26042.5 -03487.4 -07.6272 26274.9
 28 08 2013  12 33  -21.0571 26042.7 -03487.1 -07.6266 26275.1
 28 08 2013  12 34  -21.0575 26042.8 -03486.9 -07.6260 26275.2
 28 08 2013  12 35  -21.0583 26042.6 -03486.5 -07.6253 26274.9
 28 08 2013  12 36  -21.0591 26042.7 -03486.3 -07.6249 26275.0
 28 08 2013  12 37  -21.0595 26042.6 -03486.1 -07.6244 26274.9
 28 08 2013  12 38  -21.0598 26042.2 -03485.8 -07.6238 26274.5
 28 08 2013  12 39  -21.0599 26042.1 -03485.6 -07.6235 26274.4
 28 08 2013  12 40  -21.0601 26042.5 -03485.6 -07.6233 26274.7
 28 08 2013  12 41  -21.0604 26043.0 -03485.6 -07.6232 26275.3
 28 08 2013  12 42  -21.0609 26043.5 -03485.6 -07.6230 26275.7
 28 08 2013  12 43  -21.0612 26043.7 -03485.4 -07.6225 26275.9
 28 08 2013  12 44  -21.0612 26043.9 -03485.3 -07.6222 26276.1
 28 08 2013  12 45  -21.0613 26043.9 -03485.0 -07.6216 26276.1
 28 08 2013  12 46  -21.0613 26044.1 -03484.9 -07.6212 26276.2
 28 08 2013  12 47  -21.0613 26044.0 -03484.7 -07.6208 26276.1
 28 08 2013  12 48  -21.0611 26044.2 -03484.6 -07.6205 26276.3
 28 08 2013  12 49  -21.0613 26044.3 -03484.4 -07.6202 26276.3
 28 08 2013  12 50  -21.0615 26044.0 -03484.1 -07.6197 26276.0
 28 08 2013  12 51  -21.0616 26044.3 -03484.2 -07.6197 26276.3
 28 08 2013  12 52  -21.0619 26044.8 -03484.3 -07.6198 26276.9
 28 08 2013  12 53  -21.0623 26045.5 -03484.3 -07.6197 26277.5
 28 08 2013  12 54  -21.0626 26045.8 -03484.3 -07.6196 26277.8
 28 08 2013  12 55  -21.0627 26046.0 -03484.2 -07.6193 26278.0
 28 08 2013  12 56  -21.0627 26046.2 -03484.1 -07.6190 26278.2
 28 08 2013  12 57  -21.0629 26046.5 -03484.1 -07.6189 26278.5
 28 08 2013  12 58  -21.0631 26046.8 -03484.1 -07.6187 26278.8
 28 08 2013  12 59  -21.0632 26047.0 -03484.0 -07.6185 26279.0
 28 08 2013  13 00  -21.0634 26047.3 -03484.0 -07.6185 26279.3
 28 08 2013  13 01  -21.0636 26047.4 -03483.9 -07.6182 26279.4
 28 08 2013  13 02  -21.0640 26047.6 -03483.9 -07.6181 26279.6
 28 08 2013  13 03  -21.0641 26047.8 -03483.8 -07.6179 26279.7
 28 08 2013  13 04  -21.0641 26047.9 -03483.8 -07.6178 26279.9
 28 08 2013  13 05  -21.0641 26047.8 -03483.7 -07.6176 26279.7
 28 08 2013  13 06  -21.0644 26047.6 -03483.6 -07.6174 26279.5
 28 08 2013  13 07  -21.0644 26047.4 -03483.5 -07.6173 26279.3
 28 08 2013  13 08  -21.0644 26047.4 -03483.5 -07.6174 26279.3
 28 08 2013  13 09  -21.0644 26047.6 -03483.6 -07.6176 26279.6
 28 08 2013  13 10  -21.0643 26047.9 -03483.8 -07.6178 26279.8
 28 08 2013  13 11  -21.0648 26048.3 -03483.9 -07.6179 26280.2
 28 08 2013  13 12  -21.0651 26048.3 -03483.9 -07.6180 26280.3
 28 08 2013  13 13  -21.0653 26048.1 -03483.8 -07.6177 26280.0
 28 08 2013  13 14  -21.0657 26048.0 -03483.7 -07.6176 26279.9
 28 08 2013  13 15  -21.0659 26048.1 -03483.7 -07.6175 26280.0
 28 08 2013  13 16  -21.0661 26048.3 -03483.8 -07.6177 26280.2
 28 08 2013  13 17  -21.0661 26048.3 -03483.8 -07.6177 26280.2
 28 08 2013  13 18  -21.0662 26048.5 -03483.9 -07.6178 26280.4
 28 08 2013  13 19  -21.0664 26048.8 -03484.0 -07.6180 26280.8
 28 08 2013  13 20  -21.0663 26049.0 -03484.1 -07.6182 26281.0
 28 08 2013  13 21  -21.0661 26049.3 -03484.1 -07.6182 26281.3
 28 08 2013  13 22  -21.0663 26049.6 -03484.2 -07.6183 26281.5
 28 08 2013  13 23  -21.0669 26049.9 -03484.4 -07.6185 26281.9
 28 08 2013  13 24  -21.0674 26050.1 -03484.4 -07.6185 26282.1
 28 08 2013  13 25  -21.0679 26050.2 -03484.3 -07.6183 26282.2
 28 08 2013  13 26  -21.0681 26050.6 -03484.3 -07.6182 26282.6
 28 08 2013  13 27  -21.0681 26051.1 -03484.3 -07.6180 26283.1
 28 08 2013  13 28  -21.0681 26051.9 -03484.4 -07.6179 26283.8
 28 08 2013  13 29  -21.0681 26052.6 -03484.4 -07.6178 26284.5
 28 08 2013  13 30  -21.0679 26053.0 -03484.3 -07.6174 26285.0
 28 08 2013  13 31  -21.0678 26053.6 -03484.3 -07.6172 26285.6
 28 08 2013  13 32  -21.0679 26054.4 -03484.3 -07.6171 26286.3
 28 08 2013  13 33  -21.0678 26054.6 -03484.1 -07.6165 26286.5
 28 08 2013  13 34  -21.0676 26055.1 -03484.0 -07.6162 26287.0
 28 08 2013  13 35  -21.0676 26055.4 -03483.9 -07.6159 26287.3
 28 08 2013  13 36  -21.0680 26055.6 -03483.8 -07.6157 26287.5
 28 08 2013  13 37  -21.0684 26056.3 -03483.8 -07.6154 26288.1
 28 08 2013  13 38  -21.0685 26057.1 -03483.9 -07.6154 26289.0
 28 08 2013  13 39  -21.0687 26057.4 -03483.7 -07.6149 26289.3
 28 08 2013  13 40  -21.0686 26057.7 -03483.6 -07.6145 26289.5
 28 08 2013  13 41  -21.0685 26058.1 -03483.5 -07.6142 26289.9
 28 08 2013  13 42  -21.0688 26058.7 -03483.5 -07.6141 26290.5
 28 08 2013  13 43  -21.0687 26058.9 -03483.4 -07.6137 26290.7
 28 08 2013  13 44  -21.0685 26058.7 -03483.1 -07.6132 26290.5
 28 08 2013  13 45  -21.0682 26058.8 -03483.0 -07.6130 26290.5
 28 08 2013  13 46  -21.0684 26058.8 -03482.9 -07.6128 26290.5
 28 08 2013  13 47  -21.0686 26058.9 -03482.9 -07.6128 26290.7
 28 08 2013  13 48  -21.0689 26059.3 -03483.0 -07.6129 26291.0
 28 08 2013  13 49  -21.0691 26059.5 -03483.0 -07.6127 26291.2
 28 08 2013  13 50  -21.0692 26059.3 -03482.8 -07.6125 26291.0
 28 08 2013  13 51  -21.0699 26059.5 -03482.9 -07.6125 26291.2
 28 08 2013  13 52  -21.0707 26059.3 -03482.8 -07.6124 26291.0
 28 08 2013  13 53  -21.0710 26058.5 -03482.5 -07.6120 26290.2
 28 08 2013  13 54  -21.0713 26057.7 -03482.2 -07.6116 26289.3
 28 08 2013  13 55  -21.0715 26056.9 -03482.1 -07.6115 26288.5
 28 08 2013  13 56  -21.0720 26056.5 -03482.2 -07.6119 26288.2
 28 08 2013  13 57  -21.0728 26056.4 -03482.4 -07.6124 26288.1
 28 08 2013  13 58  -21.0735 26056.0 -03482.4 -07.6126 26287.6
 28 08 2013  13 59  -21.0737 26055.7 -03482.5 -07.6128 26287.4
 28 08 2013  14 00  -21.0739 26056.0 -03482.8 -07.6134 26287.8
 28 08 2013  14 01  -21.0743 26055.8 -03482.9 -07.6136 26287.5
 28 08 2013  14 02  -21.0746 26056.0 -03483.1 -07.6139 26287.8
 28 08 2013  14 03  -21.0753 26056.8 -03483.5 -07.6146 26288.6
 28 08 2013  14 04  -21.0753 26057.0 -03483.7 -07.6149 26288.9
 28 08 2013  14 05  -21.0756 26056.8 -03483.6 -07.6148 26288.7
 28 08 2013  14 06  -21.0756 26057.1 -03483.7 -07.6150 26288.9
 28 08 2013  14 07  -21.0762 26057.2 -03483.8 -07.6152 26289.0
 28 08 2013  14 08  -21.0764 26057.3 -03483.9 -07.6153 26289.1
 28 08 2013  14 09  -21.0765 26056.9 -03483.7 -07.6151 26288.8
 28 08 2013  14 10  -21.0767 26057.3 -03483.9 -07.6154 26289.2
 28 08 2013  14 11  -21.0771 26057.8 -03484.2 -07.6158 26289.7
 28 08 2013  14 12  -21.0768 26058.0 -03484.2 -07.6158 26289.9
 28 08 2013  14 13  -21.0766 26058.0 -03484.2 -07.6158 26289.9
 28 08 2013  14 14  -21.0767 26058.3 -03484.3 -07.6159 26290.3
 28 08 2013  14 15  -21.0770 26058.2 -03484.3 -07.6159 26290.1
 28 08 2013  14 16  -21.0768 26057.0 -03483.8 -07.6153 26288.8
 28 08 2013  14 17  -21.0770 26056.5 -03483.7 -07.6152 26288.3
 28 08 2013  14 18  -21.0772 26056.3 -03483.9 -07.6156 26288.2
 28 08 2013  14 19  -21.0778 26056.5 -03484.1 -07.6161 26288.4
 28 08 2013  14 20  -21.0781 26056.8 -03484.3 -07.6164 26288.7
 28 08 2013  14 21  -21.0785 26057.3 -03484.6 -07.6168 26289.2
 28 08 2013  14 22  -21.0787 26057.2 -03484.6 -07.6168 26289.2
 28 08 2013  14 23  -21.0788 26057.3 -03484.6 -07.6169 26289.3
 28 08 2013  14 24  -21.0791 26058.0 -03484.9 -07.6174 26290.0
 28 08 2013  14 25  -21.0795 26058.2 -03485.0 -07.6175 26290.2
 28 08 2013  14 26  -21.0801 26058.3 -03485.0 -07.6175 26290.4
 28 08 2013  14 27  -21.0807 26058.9 -03485.2 -07.6177 26291.0
 28 08 2013  14 28  -21.0814 26059.3 -03485.3 -07.6178 26291.4
 28 08 2013  14 29  -21.0816 26059.5 -03485.2 -07.6176 26291.6
 28 08 2013  14 30  -21.0817 26059.6 -03485.1 -07.6173 26291.6
 28 08 2013  14 31  -21.0825 26059.7 -03485.1 -07.6173 26291.7
 28 08 2013  14 32  -21.0826 26059.3 -03484.9 -07.6169 26291.2
 28 08 2013  14 33  -21.0822 26059.1 -03484.7 -07.6166 26291.1
 28 08 2013  14 34  -21.0818 26059.7 -03484.9 -07.6169 26291.6
 28 08 2013  14 35  -21.0824 26060.9 -03485.4 -07.6176 26292.9
 28 08 2013  14 36  -21.0833 26061.3 -03485.5 -07.6177 26293.3
 28 08 2013  14 37  -21.0837 26061.2 -03485.3 -07.6172 26293.2
 28 08 2013  14 38  -21.0843 26061.3 -03485.2 -07.6169 26293.3
 28 08 2013  14 39  -21.0851 26061.4 -03485.0 -07.6166 26293.4
 28 08 2013  14 40  -21.0860 26061.7 -03485.0 -07.6165 26293.7
 28 08 2013  14 41  -21.0861 26061.4 -03484.7 -07.6158 26293.3
 28 08 2013  14 42  -21.0857 26060.6 -03484.2 -07.6150 26292.5
 28 08 2013  14 43  -21.0858 26060.2 -03484.0 -07.6148 26292.0
 28 08 2013  14 44  -21.0863 26060.5 -03484.2 -07.6151 26292.3
 28 08 2013  14 45  -21.0866 26060.7 -03484.3 -07.6153 26292.6
 28 08 2013  14 46  -21.0870 26060.9 -03484.4 -07.6154 26292.8
 28 08 2013  14 47  -21.0870 26061.0 -03484.4 -07.6153 26292.9
 28 08 2013  14 48  -21.0876 26061.0 -03484.3 -07.6151 26292.9
 28 08 2013  14 49  -21.0882 26060.6 -03484.1 -07.6148 26292.5
 28 08 2013  14 50  -21.0886 26060.6 -03484.1 -07.6148 26292.5
 28 08 2013  14 51  -21.0891 26060.7 -03484.1 -07.6148 26292.6
 28 08 2013  14 52  -21.0893 26060.7 -03484.0 -07.6146 26292.5
 28 08 2013  14 53  -21.0894 26060.6 -03483.9 -07.6145 26292.4
 28 08 2013  14 54  -21.0899 26060.7 -03483.9 -07.6144 26292.6
 28 08 2013  14 55  -21.0904 26061.0 -03484.0 -07.6146 26292.8
 28 08 2013  14 56  -21.0906 26060.9 -03484.0 -07.6145 26292.8
 28 08 2013  14 57  -21.0904 26060.6 -03483.8 -07.6141 26292.4
 28 08 2013  14 58  -21.0905 26060.5 -03483.7 -07.6140 26292.4
 28 08 2013  14 59  -21.0909 26060.3 -03483.6 -07.6138 26292.1
 28 08 2013  15 00  -21.0914 26060.1 -03483.5 -07.6137 26291.9
 28 08 2013  15 01  -21.0918 26060.0 -03483.4 -07.6135 26291.7
 28 08 2013  15 02  -21.0920 26059.8 -03483.3 -07.6134 26291.6
 28 08 2013  15 03  -21.0922 26059.3 -03483.1 -07.6130 26291.1
 28 08 2013  15 04  -21.0925 26058.9 -03482.9 -07.6128 26290.6
 28 08 2013  15 05  -21.0928 26058.7 -03482.9 -07.6127 26290.5
 28 08 2013  15 06  -21.0935 26058.7 -03482.9 -07.6128 26290.5
 28 08 2013  15 07  -21.0941 26058.5 -03482.7 -07.6124 26290.2
 28 08 2013  15 08  -21.0946 26058.2 -03482.5 -07.6120 26289.8
 28 08 2013  15 09  -21.0947 26057.9 -03482.2 -07.6116 26289.5
 28 08 2013  15 10  -21.0943 26057.1 -03481.9 -07.6110 26288.7
 28 08 2013  15 11  -21.0940 26056.6 -03481.6 -07.6107 26288.2
 28 08 2013  15 12  -21.0940 26056.2 -03481.5 -07.6106 26287.7
 28 08 2013  15 13  -21.0940 26055.7 -03481.3 -07.6103 26287.2
 28 08 2013  15 14  -21.0946 26055.5 -03481.3 -07.6102 26287.1
 28 08 2013  15 15  -21.0951 26055.1 -03481.1 -07.6100 26286.6
 28 08 2013  15 16  -21.0953 26054.7 -03480.9 -07.6097 26286.2
 28 08 2013  15 17  -21.0951 26054.2 -03480.7 -07.6093 26285.6
 28 08 2013  15 18  -21.0952 26054.5 -03480.7 -07.6094 26285.9
 28 08 2013  15 19  -21.0956 26055.1 -03480.9 -07.6096 26286.6
 28 08 2013  15 20  -21.0951 26055.3 -03480.8 -07.6093 26286.7
 28 08 2013  15 21  -21.0949 26055.1 -03480.6 -07.6089 26286.5
 28 08 2013  15 22  -21.0947 26055.3 -03480.6 -07.6087 26286.7
 28 08 2013  15 23  -21.0942 26054.7 -03480.2 -07.6081 26286.1
 28 08 2013  15 24  -21.0946 26054.7 -03480.0 -07.6078 26286.1
 28 08 2013  15 25  -21.0946 26054.3 -03479.7 -07.6072 26285.7
 28 08 2013  15 26  -21.0944 26054.3 -03479.6 -07.6068 26285.6
 28 08 2013  15 27  -21.0948 26054.3 -03479.4 -07.6064 26285.6
 28 08 2013  15 28  -21.0950 26053.9 -03479.0 -07.6058 26285.2
 28 08 2013  15 29  -21.0944 26053.2 -03478.6 -07.6050 26284.4
 28 08 2013  15 30  -21.0941 26053.0 -03478.3 -07.6045 26284.1
 28 08 2013  15 31  -21.0935 26052.6 -03478.1 -07.6041 26283.7
 28 08 2013  15 32  -21.0925 26052.0 -03477.7 -07.6036 26283.1
 28 08 2013  15 33  -21.0917 26052.2 -03477.7 -07.6035 26283.2
 28 08 2013  15 34  -21.0912 26052.3 -03477.8 -07.6036 26283.4
 28 08 2013  15 35  -21.0910 26052.4 -03477.7 -07.6034 26283.5
 28 08 2013  15 36  -21.0911 26052.2 -03477.4 -07.6029 26283.3
 28 08 2013  15 37  -21.0902 26051.7 -03477.0 -07.6021 26282.7
 28 08 2013  15 38  -21.0888 26051.2 -03476.5 -07.6012 26282.1
 28 08 2013  15 39  -21.0877 26051.0 -03476.3 -07.6007 26281.9
 28 08 2013  15 40  -21.0869 26051.3 -03476.3 -07.6006 26282.2
 28 08 2013  15 41  -21.0862 26051.5 -03476.2 -07.6003 26282.4
 28 08 2013  15 42  -21.0855 26052.1 -03476.2 -07.6003 26283.0
 28 08 2013  15 43  -21.0849 26052.6 -03476.2 -07.6001 26283.5
 28 08 2013  15 44  -21.0845 26052.8 -03476.1 -07.5998 26283.7
 28 08 2013  15 45  -21.0841 26052.8 -03475.8 -07.5992 26283.6
 28 08 2013  15 46  -21.0832 26052.8 -03475.6 -07.5987 26283.6
 28 08 2013  15 47  -21.0818 26052.7 -03475.2 -07.5980 26283.5
 28 08 2013  15 48  -21.0799 26052.6 -03474.9 -07.5973 26283.3
 28 08 2013  15 49  -21.0780 26052.7 -03474.8 -07.5970 26283.4
 28 08 2013  15 50  -21.0769 26052.7 -03474.7 -07.5969 26283.4
 28 08 2013  15 51  -21.0758 26052.6 -03474.6 -07.5967 26283.3
 28 08 2013  15 52  -21.0748 26052.4 -03474.5 -07.5965 26283.1
 28 08 2013  15 53  -21.0735 26052.1 -03474.4 -07.5964 26282.8
 28 08 2013  15 54  -21.0723 26051.8 -03474.3 -07.5962 26282.5
 28 08 2013  15 55  -21.0714 26051.7 -03474.3 -07.5961 26282.3
 28 08 2013  15 56  -21.0706 26051.6 -03474.3 -07.5962 26282.3
 28 08 2013  15 57  -21.0696 26051.6 -03474.3 -07.5962 26282.2
 28 08 2013  15 58  -21.0686 26051.2 -03474.2 -07.5962 26281.9
 28 08 2013  15 59  -21.0672 26050.8 -03474.1 -07.5960 26281.4
 28 08 2013  16 00  -21.0658 26050.7 -03474.1 -07.5961 26281.3
 28 08 2013  16 01  -21.0646 26050.7 -03474.3 -07.5964 26281.4
 28 08 2013  16 02  -21.0636 26050.8 -03474.5 -07.5968 26281.5
 28 08 2013  16 03  -21.0626 26050.9 -03474.6 -07.5972 26281.6
 28 08 2013  16 04  -21.0614 26051.0 -03474.8 -07.5975 26281.7
 28 08 2013  16 05  -21.0603 26050.9 -03474.9 -07.5978 26281.6
 28 08 2013  16 06  -21.0590 26050.8 -03475.1 -07.5982 26281.5
 28 08 2013  16 07  -21.0579 26050.6 -03475.2 -07.5986 26281.4
 28 08 2013  16 08  -21.0567 26050.5 -03475.4 -07.5989 26281.3
 28 08 2013  16 09  -21.0558 26050.6 -03475.6 -07.5993 26281.5
 28 08 2013  16 10  -21.0551 26050.7 -03475.8 -07.5997 26281.6
 28 08 2013  16 11  -21.0544 26050.8 -03475.9 -07.6000 26281.7
 28 08 2013  16 12  -21.0538 26050.7 -03476.0 -07.6001 26281.6
 28 08 2013  16 13  -21.0533 26050.5 -03476.0 -07.6002 26281.4
 28 08 2013  16 14  -21.0526 26050.3 -03476.0 -07.6003 26281.2
 28 08 2013  16 15  -21.0518 26050.2 -03476.1 -07.6005 26281.0
 28 08 2013  16 16  -21.0509 26050.2 -03476.2 -07.6008 26281.1
 28 08 2013  16 17  -21.0502 26050.2 -03476.4 -07.6011 26281.1
 28 08 2013  16 18  -21.0494 26050.4 -03476.6 -07.6015 26281.4
 28 08 2013  16 19  -21.0489 26050.5 -03476.7 -07.6018 26281.5
 28 08 2013  16 20  -21.0483 26050.9 -03476.9 -07.6021 26281.9
 28 08 2013  16 21  -21.0478 26051.0 -03477.0 -07.6023 26282.0
 28 08 2013  16 22  -21.0475 26051.2 -03477.1 -07.6024 26282.2
 28 08 2013  16 23  -21.0471 26051.4 -03477.2 -07.6025 26282.5
 28 08 2013  16 24  -21.0465 26051.3 -03477.0 -07.6023 26282.3
 28 08 2013  16 25  -21.0457 26051.1 -03477.0 -07.6022 26282.1
 28 08 2013  16 26  -21.0451 26051.0 -03476.9 -07.6020 26282.0
 28 08 2013  16 27  -21.0447 26050.7 -03476.8 -07.6018 26281.7
 28 08 2013  16 28  -21.0443 26050.7 -03476.7 -07.6018 26281.6
 28 08 2013  16 29  -21.0439 26050.4 -03476.6 -07.6017 26281.4
 28 08 2013  16 30  -21.0432 26050.0 -03476.5 -07.6014 26281.0
 28 08 2013  16 31  -21.0427 26049.9 -03476.4 -07.6013 26280.9
 28 08 2013  16 32  -21.0421 26049.7 -03476.3 -07.6011 26280.7
 28 08 2013  16 33  -21.0413 26049.6 -03476.2 -07.6009 26280.5
 28 08 2013  16 34  -21.0405 26049.5 -03476.1 -07.6007 26280.4
 28 08 2013  16 35  -21.0399 26049.3 -03476.0 -07.6006 26280.2
 28 08 2013  16 36  -21.0392 26049.2 -03475.9 -07.6005 26280.1
 28 08 2013  16 37  -21.0386 26049.1 -03475.9 -07.6004 26280.0
 28 08 2013  16 38  -21.0383 26049.3 -03476.0 -07.6006 26280.2
 28 08 2013  16 39  -21.0380 26049.5 -03476.0 -07.6006 26280.4
 28 08 2013  16 40  -21.0377 26049.5 -03476.0 -07.6006 26280.4
 28 08 2013  16 41  -21.0373 26049.4 -03475.9 -07.6004 26280.3
 28 08 2013  16 42  -21.0368 26049.4 -03475.8 -07.6002 26280.2
 28 08 2013  16 43  -21.0363 26049.4 -03475.7 -07.6000 26280.2
 28 08 2013  16 44  -21.0361 26049.5 -03475.8 -07.6000 26280.4
 28 08 2013  16 45  -21.0360 26049.7 -03475.8 -07.6000 26280.6
 28 08 2013  16 46  -21.0356 26049.7 -03475.6 -07.5997 26280.5
 28 08 2013  16 47  -21.0354 26049.6 -03475.5 -07.5994 26280.4
 28 08 2013  16 48  -21.0348 26049.5 -03475.3 -07.5990 26280.3
 28 08 2013  16 49  -21.0341 26049.2 -03475.1 -07.5987 26279.9
 28 08 2013  16 50  -21.0333 26048.9 -03474.9 -07.5984 26279.6
 28 08 2013  16 51  -21.0325 26048.6 -03474.8 -07.5981 26279.3
 28 08 2013  16 52  -21.0316 26048.3 -03474.6 -07.5979 26279.0
 28 08 2013  16 53  -21.0310 26048.2 -03474.7 -07.5981 26279.0
 28 08 2013  16 54  -21.0306 26048.2 -03474.6 -07.5980 26278.9
 28 08 2013  16 55  -21.0303 26047.9 -03474.6 -07.5980 26278.7
 28 08 2013  16 56  -21.0296 26047.7 -03474.5 -07.5978 26278.4
 28 08 2013  16 57  -21.0291 26047.5 -03474.5 -07.5978 26278.2
 28 08 2013  16 58  -21.0289 26047.3 -03474.5 -07.5979 26278.0
 28 08 2013  16 59  -21.0285 26047.1 -03474.4 -07.5978 26277.8
 28 08 2013  17 00  -21.0280 26046.8 -03474.4 -07.5977 26277.5
 28 08 2013  17 01  -21.0277 26046.6 -03474.3 -07.5977 26277.3
 28 08 2013  17 02  -21.0274 26046.5 -03474.3 -07.5978 26277.2
 28 08 2013  17 03  -21.0272 26046.4 -03474.4 -07.5979 26277.1
 28 08 2013  17 04  -21.0272 26046.3 -03474.5 -07.5981 26277.1
 28 08 2013  17 05  -21.0270 26046.1 -03474.4 -07.5981 26276.8
 28 08 2013  17 06  -21.0267 26046.1 -03474.4 -07.5981 26276.8
 28 08 2013  17 07  -21.0266 26046.1 -03474.5 -07.5982 26276.9
 28 08 2013  17 08  -21.0268 26046.2 -03474.6 -07.5984 26276.9
 28 08 2013  17 09  -21.0269 26046.1 -03474.6 -07.5984 26276.8
 28 08 2013  17 10  -21.0268 26046.0 -03474.5 -07.5983 26276.7
 28 08 2013  17 11  -21.0269 26045.8 -03474.4 -07.5982 26276.5
 28 08 2013  17 12  -21.0266 26045.4 -03474.2 -07.5979 26276.1
 28 08 2013  17 13  -21.0260 26044.8 -03473.9 -07.5975 26275.4
 28 08 2013  17 14  -21.0256 26044.4 -03473.8 -07.5973 26275.1
 28 08 2013  17 15  -21.0256 26044.3 -03473.8 -07.5974 26274.9
 28 08 2013  17 16  -21.0255 26044.2 -03473.9 -07.5975 26274.9
 28 08 2013  17 17  -21.0255 26043.9 -03473.8 -07.5975 26274.6
 28 08 2013  17 18  -21.0252 26043.5 -03473.7 -07.5972 26274.2
 28 08 2013  17 19  -21.0250 26043.2 -03473.6 -07.5971 26273.8
 28 08 2013  17 20  -21.0248 26042.9 -03473.5 -07.5971 26273.5
 28 08 2013  17 21  -21.0247 26042.6 -03473.4 -07.5970 26273.2
 28 08 2013  17 22  -21.0248 26042.3 -03473.4 -07.5969 26272.9
 28 08 2013  17 23  -21.0248 26042.0 -03473.3 -07.5968 26272.6
 28 08 2013  17 24  -21.0247 26041.8 -03473.2 -07.5966 26272.3
 28 08 2013  17 25  -21.0246 26041.5 -03473.1 -07.5966 26272.1
 28 08 2013  17 26  -21.0245 26041.1 -03473.0 -07.5965 26271.7
 28 08 2013  17 27  -21.0243 26040.9 -03472.9 -07.5963 26271.4
 28 08 2013  17 28  -21.0243 26040.8 -03472.9 -07.5963 26271.3
 28 08 2013  17 29  -21.0246 26040.8 -03473.0 -07.5966 26271.4
 28 08 2013  17 30  -21.0250 26041.0 -03473.1 -07.5966 26271.5
 28 08 2013  17 31  -21.0252 26040.9 -03473.1 -07.5966 26271.5
 28 08 2013  17 32  -21.0253 26040.9 -03473.0 -07.5965 26271.4
 28 08 2013  17 33  -21.0254 26040.8 -03473.0 -07.5965 26271.4
 28 08 2013  17 34  -21.0256 26040.9 -03473.0 -07.5964 26271.5
 28 08 2013  17 35  -21.0257 26041.0 -03472.9 -07.5964 26271.6
 28 08 2013  17 36  -21.0259 26041.1 -03472.9 -07.5963 26271.6
 28 08 2013  17 37  -21.0258 26041.1 -03472.9 -07.5962 26271.6
 28 08 2013  17 38  -21.0257 26041.2 -03472.8 -07.5960 26271.7
 28 08 2013  17 39  -21.0258 26041.1 -03472.7 -07.5958 26271.7
 28 08 2013  17 40  -21.0257 26041.0 -03472.5 -07.5954 26271.5
 28 08 2013  17 41  -21.0252 26040.4 -03472.2 -07.5948 26270.9
 28 08 2013  17 42  -21.0247 26039.6 -03471.7 -07.5942 26270.0
 28 08 2013  17 43  -21.0244 26038.7 -03471.3 -07.5934 26269.1
 28 08 2013  17 44  -21.0238 26038.0 -03471.0 -07.5930 26268.4
 28 08 2013  17 45  -21.0228 26037.6 -03470.9 -07.5929 26267.9
 28 08 2013  17 46  -21.0222 26037.6 -03471.0 -07.5932 26267.9
 28 08 2013  17 47  -21.0220 26037.8 -03471.1 -07.5934 26268.2
 28 08 2013  17 48  -21.0220 26037.9 -03471.2 -07.5936 26268.3
 28 08 2013  17 49  -21.0219 26037.8 -03471.3 -07.5937 26268.2
 28 08 2013  17 50  -21.0218 26037.7 -03471.3 -07.5937 26268.1
 28 08 2013  17 51  -21.0218 26037.7 -03471.3 -07.5938 26268.0
 28 08 2013  17 52  -21.0216 26037.6 -03471.3 -07.5938 26268.0
 28 08 2013  17 53  -21.0215 26037.5 -03471.3 -07.5938 26267.8
 28 08 2013  17 54  -21.0214 26037.3 -03471.3 -07.5938 26267.7
 28 08 2013  17 55  -21.0213 26037.1 -03471.2 -07.5938 26267.4
 28 08 2013  17 56  -21.0212 26036.9 -03471.2 -07.5938 26267.3
 28 08 2013  17 57  -21.0209 26036.7 -03471.1 -07.5937 26267.0
 28 08 2013  17 58  -21.0205 26036.4 -03471.1 -07.5937 26266.7
 28 08 2013  17 59  -21.0202 26036.2 -03471.1 -07.5939 26266.5
 28 08 2013  18 00  -21.0200 26036.0 -03471.2 -07.5940 26266.4
 28 08 2013  18 01  -21.0198 26035.9 -03471.3 -07.5943 26266.3
 28 08 2013  18 02  -21.0198 26035.8 -03471.3 -07.5943 26266.2
 28 08 2013  18 03  -21.0198 26035.6 -03471.4 -07.5945 26266.0
 28 08 2013  18 04  -21.0197 26035.3 -03471.3 -07.5945 26265.7
 28 08 2013  18 05  -21.0196 26034.9 -03471.3 -07.5945 26265.3
 28 08 2013  18 06  -21.0195 26034.7 -03471.3 -07.5947 26265.1
 28 08 2013  18 07  -21.0192 26034.4 -03471.4 -07.5949 26264.8
 28 08 2013  18 08  -21.0191 26034.2 -03471.4 -07.5951 26264.6
 28 08 2013  18 09  -21.0190 26034.1 -03471.5 -07.5953 26264.5
 28 08 2013  18 10  -21.0188 26034.0 -03471.6 -07.5955 26264.4
 28 08 2013  18 11  -21.0187 26034.0 -03471.7 -07.5958 26264.4
 28 08 2013  18 12  -21.0186 26034.2 -03471.9 -07.5962 26264.6
 28 08 2013  18 13  -21.0187 26034.4 -03472.2 -07.5966 26264.9
 28 08 2013  18 14  -21.0186 26034.6 -03472.4 -07.5970 26265.2
 28 08 2013  18 15  -21.0187 26034.8 -03472.6 -07.5973 26265.3
 28 08 2013  18 16  -21.0188 26034.9 -03472.7 -07.5976 26265.4
 28 08 2013  18 17  -21.0192 26034.8 -03472.8 -07.5977 26265.4
 28 08 2013  18 18  -21.0193 26034.6 -03472.6 -07.5976 26265.1
 28 08 2013  18 19  -21.0191 26033.8 -03472.3 -07.5971 26264.3
 28 08 2013  18 20  -21.0186 26032.9 -03472.0 -07.5967 26263.4
 28 08 2013  18 21  -21.0182 26032.4 -03471.9 -07.5966 26262.9
 28 08 2013  18 22  -21.0180 26032.2 -03472.0 -07.5968 26262.7
 28 08 2013  18 23  -21.0178 26032.2 -03472.2 -07.5972 26262.7
 28 08 2013  18 24  -21.0176 26032.1 -03472.3 -07.5975 26262.7
 28 08 2013  18 25  -21.0175 26032.1 -03472.4 -07.5979 26262.7
 28 08 2013  18 26  -21.0173 26032.0 -03472.6 -07.5982 26262.6
 28 08 2013  18 27  -21.0174 26032.0 -03472.7 -07.5985 26262.6
 28 08 2013  18 28  -21.0175 26031.8 -03472.8 -07.5988 26262.4
 28 08 2013  18 29  -21.0174 26031.6 -03472.9 -07.5989 26262.2
 28 08 2013  18 30  -21.0173 26031.3 -03472.9 -07.5992 26262.0
 28 08 2013  18 31  -21.0171 26031.1 -03473.0 -07.5993 26261.7
 28 08 2013  18 32  -21.0171 26030.8 -03473.1 -07.5996 26261.5
 28 08 2013  18 33  -21.0170 26030.6 -03473.1 -07.5997 26261.2
 28 08 2013  18 34  -21.0168 26030.4 -03473.2 -07.6000 26261.1
 28 08 2013  18 35  -21.0168 26030.4 -03473.4 -07.6004 26261.1
 28 08 2013  18 36  -21.0168 26030.5 -03473.6 -07.6008 26261.3
 28 08 2013  18 37  -21.0169 26030.8 -03474.0 -07.6015 26261.6
 28 08 2013  18 38  -21.0172 26031.1 -03474.2 -07.6020 26261.9
 28 08 2013  18 39  -21.0175 26031.2 -03474.4 -07.6023 26262.0
 28 08 2013  18 40  -21.0177 26031.1 -03474.4 -07.6024 26261.9
 28 08 2013  18 41  -21.0179 26030.9 -03474.4 -07.6024 26261.7
 28 08 2013  18 42  -21.0179 26030.5 -03474.3 -07.6023 26261.4
 28 08 2013  18 43  -21.0181 26030.4 -03474.3 -07.6024 26261.2
 28 08 2013  18 44  -21.0182 26030.1 -03474.3 -07.6024 26260.9
 28 08 2013  18 45  -21.0181 26029.8 -03474.2 -07.6024 26260.7
 28 08 2013  18 46  -21.0181 26029.7 -03474.3 -07.6025 26260.5
 28 08 2013  18 47  -21.0181 26029.5 -03474.3 -07.6026 26260.3
 28 08 2013  18 48  -21.0183 26029.3 -03474.3 -07.6027 26260.1
 28 08 2013  18 49  -21.0183 26029.0 -03474.3 -07.6027 26259.8
 28 08 2013  18 50  -21.0181 26028.7 -03474.2 -07.6027 26259.5
 28 08 2013  18 51  -21.0179 26028.5 -03474.3 -07.6029 26259.3
 28 08 2013  18 52  -21.0180 26028.4 -03474.4 -07.6031 26259.2
 28 08 2013  18 53  -21.0184 26028.6 -03474.6 -07.6035 26259.4
 28 08 2013  18 54  -21.0186 26028.4 -03474.7 -07.6037 26259.3
 28 08 2013  18 55  -21.0186 26028.3 -03474.6 -07.6037 26259.2
 28 08 2013  18 56  -21.0189 26028.1 -03474.6 -07.6037 26259.0
 28 08 2013  18 57  -21.0192 26027.9 -03474.7 -07.6039 26258.8
 28 08 2013  18 58  -21.0196 26027.8 -03474.7 -07.6039 26258.7
 28 08 2013  18 59  -21.0199 26027.5 -03474.6 -07.6039 26258.4
 28 08 2013  19 00  -21.0202 26027.3 -03474.6 -07.6040 26258.2
 28 08 2013  19 01  -21.0203 26027.0 -03474.6 -07.6040 26257.9
 28 08 2013  19 02  -21.0204 26026.8 -03474.6 -07.6041 26257.7
 28 08 2013  19 03  -21.0206 26026.6 -03474.6 -07.6042 26257.5
 28 08 2013  19 04  -21.0207 26026.3 -03474.6 -07.6042 26257.2
 28 08 2013  19 05  -21.0210 26026.1 -03474.6 -07.6043 26257.0
 28 08 2013  19 06  -21.0211 26025.7 -03474.6 -07.6043 26256.6
 28 08 2013  19 07  -21.0210 26025.4 -03474.5 -07.6043 26256.4
 28 08 2013  19 08  -21.0209 26025.2 -03474.5 -07.6043 26256.1
 28 08 2013  19 09  -21.0210 26025.2 -03474.6 -07.6045 26256.1
 28 08 2013  19 10  -21.0211 26025.2 -03474.7 -07.6047 26256.1
 28 08 2013  19 11  -21.0211 26025.3 -03474.8 -07.6049 26256.2
 28 08 2013  19 12  -21.0210 26025.2 -03474.9 -07.6051 26256.2
 28 08 2013  19 13  -21.0208 26025.1 -03474.8 -07.6051 26256.1
 28 08 2013  19 14  -21.0206 26025.1 -03474.9 -07.6053 26256.1
 28 08 2013  19 15  -21.0206 26025.0 -03475.0 -07.6054 26256.0
 28 08 2013  19 16  -21.0207 26024.7 -03474.9 -07.6053 26255.7
 28 08 2013  19 17  -21.0206 26024.2 -03474.7 -07.6051 26255.1
 28 08 2013  19 18  -21.0203 26023.6 -03474.5 -07.6048 26254.5
 28 08 2013  19 19  -21.0199 26023.4 -03474.6 -07.6050 26254.3
 28 08 2013  19 20  -21.0198 26023.5 -03474.8 -07.6054 26254.4
 28 08 2013  19 21  -21.0199 26023.5 -03474.9 -07.6057 26254.5
 28 08 2013  19 22  -21.0198 26023.6 -03475.0 -07.6059 26254.6
 28 08 2013  19 23  -21.0198 26023.6 -03475.2 -07.6062 26254.6
 28 08 2013  19 24  -21.0198 26023.5 -03475.2 -07.6063 26254.5
 28 08 2013  19 25  -21.0200 26023.4 -03475.3 -07.6065 26254.4
 28 08 2013  19 26  -21.0199 26023.1 -03475.2 -07.6065 26254.2
 28 08 2013  19 27  -21.0201 26022.7 -03475.2 -07.6065 26253.8
 28 08 2013  19 28  -21.0201 26022.2 -03475.1 -07.6064 26253.2
 28 08 2013  19 29  -21.0200 26021.8 -03475.0 -07.6065 26252.8
 28 08 2013  19 30  -21.0205 26021.5 -03475.1 -07.6066 26252.5
 28 08 2013  19 31  -21.0203 26021.2 -03475.1 -07.6067 26252.3
 28 08 2013  19 32  -21.0202 26021.1 -03475.2 -07.6069 26252.1
 28 08 2013  19 33  -21.0201 26021.0 -03475.3 -07.6071 26252.1
 28 08 2013  19 34  -21.0202 26021.0 -03475.4 -07.6074 26252.0
 28 08 2013  19 35  -21.0203 26021.0 -03475.5 -07.6076 26252.0
 28 08 2013  19 36  -21.0203 26020.9 -03475.5 -07.6078 26251.9
 28 08 2013  19 37  -21.0204 26020.8 -03475.6 -07.6080 26251.9
 28 08 2013  19 38  -21.0204 26020.7 -03475.7 -07.6081 26251.8
 28 08 2013  19 39  -21.0205 26020.7 -03475.7 -07.6083 26251.8
 28 08 2013  19 40  -21.0206 26020.6 -03475.8 -07.6084 26251.8
 28 08 2013  19 41  -21.0205 26020.6 -03475.9 -07.6086 26251.8
 28 08 2013  19 42  -21.0204 26020.6 -03476.0 -07.6088 26251.8
 28 08 2013  19 43  -21.0206 26020.7 -03476.0 -07.6088 26251.9
 28 08 2013  19 44  -21.0212 26020.6 -03476.1 -07.6090 26251.8
 28 08 2013  19 45  -21.0210 26020.5 -03476.1 -07.6091 26251.7
 28 08 2013  19 46  -21.0208 26020.4 -03476.1 -07.6091 26251.6
 28 08 2013  19 47  -21.0208 26020.3 -03476.1 -07.6092 26251.5
 28 08 2013  19 48  -21.0208 26020.3 -03476.2 -07.6093 26251.4
 28 08 2013  19 49  -21.0206 26020.2 -03476.1 -07.6093 26251.4
 28 08 2013  19 50  -21.0206 26020.2 -03476.2 -07.6094 26251.4
 28 08 2013  19 51  -21.0207 26020.2 -03476.3 -07.6095 26251.4
 28 08 2013  19 52  -21.0210 26020.3 -03476.4 -07.6097 26251.5
 28 08 2013  19 53  -21.0213 26020.3 -03476.4 -07.6097 26251.5
 28 08 2013  19 54  -21.0214 26020.2 -03476.4 -07.6098 26251.4
 28 08 2013  19 55  -21.0213 26019.9 -03476.3 -07.6096 26251.1
 28 08 2013  19 56  -21.0214 26019.7 -03476.3 -07.6097 26250.9
 28 08 2013  19 57  -21.0217 26019.7 -03476.2 -07.6096 26250.9
 28 08 2013  19 58  -21.0219 26019.6 -03476.2 -07.6097 26250.8
 28 08 2013  19 59  -21.0220 26019.4 -03476.2 -07.6096 26250.5
 28 08 2013  20 00  -21.0222 26019.1 -03476.1 -07.6095 26250.3
 28 08 2013  20 01  -21.0224 26019.0 -03476.1 -07.6095 26250.2
 28 08 2013  20 02  -21.0226 26019.0 -03476.0 -07.6094 26250.1
 28 08 2013  20 03  -21.0227 26018.8 -03476.0 -07.6094 26250.0
 28 08 2013  20 04  -21.0229 26018.7 -03476.0 -07.6093 26249.9
 28 08 2013  20 05  -21.0232 26018.6 -03475.9 -07.6092 26249.7
 28 08 2013  20 06  -21.0235 26018.5 -03475.9 -07.6092 26249.7
 28 08 2013  20 07  -21.0237 26018.4 -03475.9 -07.6093 26249.6
 28 08 2013  20 08  -21.0238 26018.3 -03475.9 -07.6093 26249.4
 28 08 2013  20 09  -21.0240 26018.3 -03475.9 -07.6093 26249.4
 28 08 2013  20 10  -21.0241 26018.2 -03475.9 -07.6092 26249.4
 28 08 2013  20 11  -21.0243 26018.2 -03475.8 -07.6092 26249.4
 28 08 2013  20 12  -21.0244 26018.0 -03475.8 -07.6091 26249.2
 28 08 2013  20 13  -21.0244 26017.8 -03475.7 -07.6090 26248.9
 28 08 2013  20 14  -21.0245 26017.7 -03475.7 -07.6090 26248.8
 28 08 2013  20 15  -21.0247 26017.6 -03475.7 -07.6091 26248.7
 28 08 2013  20 16  -21.0250 26017.6 -03475.7 -07.6091 26248.8
 28 08 2013  20 17  -21.0252 26017.5 -03475.7 -07.6091 26248.6
 28 08 2013  20 18  -21.0255 26017.4 -03475.6 -07.6090 26248.5
 28 08 2013  20 19  -21.0255 26017.3 -03475.6 -07.6090 26248.4
 28 08 2013  20 20  -21.0256 26017.2 -03475.6 -07.6089 26248.3
 28 08 2013  20 21  -21.0257 26017.1 -03475.6 -07.6089 26248.3
 28 08 2013  20 22  -21.0257 26017.2 -03475.6 -07.6090 26248.3
 28 08 2013  20 23  -21.0259 26017.1 -03475.6 -07.6090 26248.2
 28 08 2013  20 24  -21.0260 26017.1 -03475.6 -07.6090 26248.2
 28 08 2013  20 25  -21.0261 26016.8 -03475.4 -07.6088 26248.0
 28 08 2013  20 26  -21.0262 26016.8 -03475.5 -07.6088 26247.9
 28 08 2013  20 27  -21.0264 26016.8 -03475.5 -07.6089 26247.9
 28 08 2013  20 28  -21.0266 26016.8 -03475.5 -07.6089 26247.9
 28 08 2013  20 29  -21.0267 26016.8 -03475.5 -07.6089 26247.9
 28 08 2013  20 30  -21.0269 26016.8 -03475.6 -07.6090 26247.9
 28 08 2013  20 31  -21.0271 26016.7 -03475.5 -07.6090 26247.8
 28 08 2013  20 32  -21.0271 26016.7 -03475.5 -07.6089 26247.8
 28 08 2013  20 33  -21.0271 26016.6 -03475.5 -07.6089 26247.7
 28 08 2013  20 34  -21.0272 26016.4 -03475.4 -07.6088 26247.5
 28 08 2013  20 35  -21.0271 26016.2 -03475.3 -07.6087 26247.3
 28 08 2013  20 36  -21.0271 26016.1 -03475.3 -07.6087 26247.2
 28 08 2013  20 37  -21.0272 26016.1 -03475.3 -07.6088 26247.2
 28 08 2013  20 38  -21.0272 26016.0 -03475.4 -07.6088 26247.1
 28 08 2013  20 39  -21.0272 26015.9 -03475.3 -07.6088 26247.0
 28 08 2013  20 40  -21.0272 26015.7 -03475.3 -07.6088 26246.8
 28 08 2013  20 41  -21.0272 26015.5 -03475.3 -07.6088 26246.6
 28 08 2013  20 42  -21.0271 26015.4 -03475.3 -07.6088 26246.5
 28 08 2013  20 43  -21.0271 26015.4 -03475.3 -07.6090 26246.5
 28 08 2013  20 44  -21.0269 26015.2 -03475.3 -07.6090 26246.4
 28 08 2013  20 45  -21.0267 26015.2 -03475.5 -07.6092 26246.3
 28 08 2013  20 46  -21.0265 26015.2 -03475.6 -07.6095 26246.3
 28 08 2013  20 47  -21.0265 26015.3 -03475.7 -07.6098 26246.4
 28 08 2013  20 48  -21.0264 26015.6 -03476.0 -07.6103 26246.8
 28 08 2013  20 49  -21.0265 26015.8 -03476.2 -07.6107 26247.0
 28 08 2013  20 50  -21.0266 26016.0 -03476.4 -07.6110 26247.2
 28 08 2013  20 51  -21.0267 26015.9 -03476.2 -07.6106 26247.1
 28 08 2013  20 52  -21.0269 26015.9 -03476.5 -07.6113 26247.2
 28 08 2013  20 53  -21.0272 26015.8 -03476.5 -07.6114 26247.1
 28 08 2013  20 54  -21.0273 26015.7 -03476.4 -07.6112 26247.0
 28 08 2013  20 55  -21.0274 26015.6 -03476.6 -07.6116 26246.9
 28 08 2013  20 56  -21.0274 26015.5 -03476.6 -07.6117 26246.8
 28 08 2013  20 57  -21.0274 26015.6 -03476.7 -07.6119 26246.8
 28 08 2013  20 58  -21.0273 26015.8 -03476.9 -07.6122 26247.1
 28 08 2013  20 59  -21.0275 26015.9 -03477.0 -07.6124 26247.2
 28 08 2013  21 00  -21.0278 26015.8 -03477.0 -07.6124 26247.1
 28 08 2013  21 01  -21.0285 26015.9 -03477.1 -07.6126 26247.3
 28 08 2013  21 02  -21.0288 26016.0 -03477.2 -07.6128 26247.3
 28 08 2013  21 03  -21.0291 26016.1 -03477.3 -07.6129 26247.4
 28 08 2013  21 04  -21.0294 26016.2 -03477.3 -07.6131 26247.5
 28 08 2013  21 05  -21.0297 26016.3 -03477.5 -07.6133 26247.7
 28 08 2013  21 06  -21.0298 26016.4 -03477.4 -07.6132 26247.7
 28 08 2013  21 07  -21.0300 26016.5 -03477.5 -07.6134 26247.9
 28 08 2013  21 08  -21.0305 26016.4 -03477.5 -07.6133 26247.8
 28 08 2013  21 09  -21.0306 26016.5 -03477.5 -07.6133 26247.8
 28 08 2013  21 10  -21.0307 26016.5 -03477.5 -07.6133 26247.9
 28 08 2013  21 11  -21.0306 26016.5 -03477.5 -07.6133 26247.9
 28 08 2013  21 12  -21.0307 26016.5 -03477.5 -07.6132 26247.9
 28 08 2013  21 13  -21.0310 26016.5 -03477.4 -07.6132 26247.9
 28 08 2013  21 14  -21.0314 26016.3 -03477.4 -07.6131 26247.7
 28 08 2013  21 15  -21.0318 26016.2 -03477.3 -07.6130 26247.5
 28 08 2013  21 16  -21.0321 26016.2 -03477.3 -07.6129 26247.5
 28 08 2013  21 17  -21.0322 26016.1 -03477.2 -07.6129 26247.5
 28 08 2013  21 18  -21.0324 26016.1 -03477.2 -07.6128 26247.4
 28 08 2013  21 19  -21.0327 26015.9 -03477.1 -07.6127 26247.2
 28 08 2013  21 20  -21.0328 26015.8 -03477.1 -07.6125 26247.1
 28 08 2013  21 21  -21.0329 26015.7 -03477.0 -07.6124 26247.0
 28 08 2013  21 22  -21.0332 26015.5 -03476.9 -07.6123 26246.8
 28 08 2013  21 23  -21.0333 26015.5 -03476.9 -07.6124 26246.8
 28 08 2013  21 24  -21.0335 26015.6 -03477.0 -07.6125 26246.9
 28 08 2013  21 25  -21.0336 26015.7 -03477.0 -07.6125 26247.0
 28 08 2013  21 26  -21.0337 26015.8 -03477.1 -07.6127 26247.2
 28 08 2013  21 27  -21.0337 26015.9 -03477.2 -07.6128 26247.3
 28 08 2013  21 28  -21.0337 26016.0 -03477.2 -07.6128 26247.3
 28 08 2013  21 29  -21.0335 26016.0 -03477.2 -07.6128 26247.4
 28 08 2013  21 30  -21.0335 26016.0 -03477.1 -07.6127 26247.3
 28 08 2013  21 31  -21.0337 26015.9 -03477.1 -07.6127 26247.3
 28 08 2013  21 32  -21.0339 26015.9 -03477.1 -07.6126 26247.2
 28 08 2013  21 33  -21.0342 26015.9 -03477.0 -07.6124 26247.2
 28 08 2013  21 34  -21.0345 26015.9 -03477.1 -07.6126 26247.2
 28 08 2013  21 35  -21.0347 26015.8 -03477.0 -07.6125 26247.1
 28 08 2013  21 36  -21.0348 26015.7 -03477.0 -07.6124 26247.0
 28 08 2013  21 37  -21.0349 26015.6 -03476.9 -07.6124 26246.9
 28 08 2013  21 38  -21.0350 26015.5 -03476.9 -07.6124 26246.8
 28 08 2013  21 39  -21.0352 26015.6 -03476.9 -07.6123 26246.9
 28 08 2013  21 40  -21.0352 26015.7 -03476.9 -07.6123 26247.0
 28 08 2013  21 41  -21.0352 26015.7 -03477.0 -07.6125 26247.1
 28 08 2013  21 42  -21.0352 26015.7 -03477.0 -07.6126 26247.1
 28 08 2013  21 43  -21.0354 26015.8 -03477.1 -07.6126 26247.1
 28 08 2013  21 44  -21.0355 26015.7 -03477.1 -07.6126 26247.0
 28 08 2013  21 45  -21.0356 26015.7 -03477.1 -07.6126 26247.1
 28 08 2013  21 46  -21.0358 26015.8 -03477.1 -07.6126 26247.1
 28 08 2013  21 47  -21.0360 26015.8 -03477.1 -07.6127 26247.1
 28 08 2013  21 48  -21.0361 26015.8 -03477.1 -07.6127 26247.1
 28 08 2013  21 49  -21.0361 26015.8 -03477.2 -07.6128 26247.1
 28 08 2013  21 50  -21.0361 26015.7 -03477.1 -07.6127 26247.0
 28 08 2013  21 51  -21.0361 26015.6 -03477.0 -07.6125 26246.9
 28 08 2013  21 52  -21.0360 26015.5 -03477.0 -07.6126 26246.9
 28 08 2013  21 53  -21.0359 26015.5 -03477.0 -07.6125 26246.9
 28 08 2013  21 54  -21.0358 26015.7 -03477.1 -07.6126 26247.0
 28 08 2013  21 55  -21.0357 26015.8 -03477.2 -07.6128 26247.2
 28 08 2013  21 56  -21.0358 26015.9 -03477.3 -07.6130 26247.3
 28 08 2013  21 57  -21.0359 26015.9 -03477.3 -07.6130 26247.2
 28 08 2013  21 58  -21.0361 26015.7 -03477.2 -07.6130 26247.1
 28 08 2013  21 59  -21.0362 26015.6 -03477.2 -07.6129 26247.0
 28 08 2013  22 00  -21.0363 26015.6 -03477.2 -07.6129 26246.9
 28 08 2013  22 01  -21.0364 26015.6 -03477.2 -07.6129 26247.0
 28 08 2013  22 02  -21.0365 26015.7 -03477.2 -07.6130 26247.1
 28 08 2013  22 03  -21.0366 26015.7 -03477.3 -07.6131 26247.0
 28 08 2013  22 04  -21.0368 26015.6 -03477.2 -07.6130 26247.0
 28 08 2013  22 05  -21.0367 26015.6 -03477.2 -07.6130 26246.9
 28 08 2013  22 06  -21.0367 26015.6 -03477.2 -07.6130 26246.9
 28 08 2013  22 07  -21.0368 26015.6 -03477.2 -07.6130 26247.0
 28 08 2013  22 08  -21.0368 26015.6 -03477.3 -07.6131 26247.0
 28 08 2013  22 09  -21.0367 26015.6 -03477.3 -07.6130 26247.0
 28 08 2013  22 10  -21.0367 26015.7 -03477.3 -07.6132 26247.0
 28 08 2013  22 11  -21.0366 26015.8 -03477.4 -07.6133 26247.1
 28 08 2013  22 12  -21.0363 26015.8 -03477.4 -07.6133 26247.2
 28 08 2013  22 13  -21.0361 26015.8 -03477.4 -07.6133 26247.1
 28 08 2013  22 14  -21.0361 26015.8 -03477.4 -07.6133 26247.2
 28 08 2013  22 15  -21.0361 26015.8 -03477.4 -07.6134 26247.2
 28 08 2013  22 16  -21.0360 26015.9 -03477.5 -07.6136 26247.3
 28 08 2013  22 17  -21.0361 26015.8 -03477.5 -07.6136 26247.2
 28 08 2013  22 18  -21.0361 26015.8 -03477.6 -07.6136 26247.2
 28 08 2013  22 19  -21.0360 26015.8 -03477.6 -07.6136 26247.2
 28 08 2013  22 20  -21.0360 26015.7 -03477.6 -07.6136 26247.1
 28 08 2013  22 21  -21.0360 26015.7 -03477.5 -07.6137 26247.1
 28 08 2013  22 22  -21.0361 26015.7 -03477.5 -07.6136 26247.1
 28 08 2013  22 23  -21.0361 26015.7 -03477.6 -07.6137 26247.1
 28 08 2013  22 24  -21.0361 26015.7 -03477.6 -07.6137 26247.1
 28 08 2013  22 25  -21.0360 26015.7 -03477.6 -07.6138 26247.1
 28 08 2013  22 26  -21.0361 26015.7 -03477.7 -07.6139 26247.1
 28 08 2013  22 27  -21.0361 26015.6 -03477.7 -07.6139 26247.0
 28 08 2013  22 28  -21.0361 26015.5 -03477.6 -07.6138 26246.9
 28 08 2013  22 29  -21.0360 26015.4 -03477.6 -07.6139 26246.8
 28 08 2013  22 30  -21.0359 26015.3 -03477.6 -07.6139 26246.7
 28 08 2013  22 31  -21.0357 26015.3 -03477.6 -07.6138 26246.7
 28 08 2013  22 32  -21.0354 26015.4 -03477.6 -07.6139 26246.8
 28 08 2013  22 33  -21.0353 26015.4 -03477.7 -07.6140 26246.8
 28 08 2013  22 34  -21.0353 26015.5 -03477.8 -07.6142 26246.9
 28 08 2013  22 35  -21.0353 26015.5 -03477.8 -07.6143 26246.9
 28 08 2013  22 36  -21.0353 26015.5 -03477.8 -07.6143 26246.9
 28 08 2013  22 37  -21.0355 26015.4 -03477.9 -07.6144 26246.8
 28 08 2013  22 38  -21.0356 26015.5 -03477.9 -07.6145 26246.9
 28 08 2013  22 39  -21.0358 26015.5 -03477.9 -07.6145 26246.9
 28 08 2013  22 40  -21.0359 26015.6 -03477.9 -07.6145 26247.0
 28 08 2013  22 41  -21.0361 26015.6 -03478.0 -07.6146 26247.0
 28 08 2013  22 42  -21.0363 26015.7 -03478.1 -07.6148 26247.1
 28 08 2013  22 43  -21.0364 26015.7 -03478.1 -07.6148 26247.1
 28 08 2013  22 44  -21.0364 26015.7 -03478.0 -07.6147 26247.1
 28 08 2013  22 45  -21.0362 26015.7 -03478.1 -07.6148 26247.1
 28 08 2013  22 46  -21.0360 26015.5 -03478.0 -07.6147 26247.0
 28 08 2013  22 47  -21.0357 26015.5 -03478.0 -07.6147 26247.0
 28 08 2013  22 48  -21.0355 26015.6 -03478.0 -07.6147 26247.0
 28 08 2013  22 49  -21.0353 26015.6 -03478.1 -07.6148 26247.1
 28 08 2013  22 50  -21.0353 26015.6 -03478.1 -07.6148 26247.1
 28 08 2013  22 51  -21.0354 26015.7 -03478.1 -07.6149 26247.1
 28 08 2013  22 52  -21.0370 26015.7 -03478.0 -07.6146 26247.1
 28 08 2013  22 53  -21.0373 26015.6 -03477.9 -07.6145 26247.1
 28 08 2013  22 54  -21.0371 26015.4 -03477.8 -07.6144 26246.8
 28 08 2013  22 55  -21.0355 26015.2 -03477.9 -07.6145 26246.7
 28 08 2013  22 56  -21.0349 26015.1 -03477.9 -07.6147 26246.6
 28 08 2013  22 57  -21.0349 26015.1 -03478.0 -07.6148 26246.6
 28 08 2013  22 58  -21.0349 26015.3 -03478.1 -07.6149 26246.7
 28 08 2013  22 59  -21.0351 26015.3 -03478.1 -07.6151 26246.7
 28 08 2013  23 00  -21.0353 26015.2 -03478.2 -07.6151 26246.7
 28 08 2013  23 01  -21.0354 26015.1 -03478.1 -07.6151 26246.6
 28 08 2013  23 02  -21.0353 26015.0 -03478.1 -07.6150 26246.5
 28 08 2013  23 03  -21.0352 26015.1 -03478.1 -07.6150 26246.5
 28 08 2013  23 04  -21.0352 26015.1 -03478.1 -07.6151 26246.6
 28 08 2013  23 05  -21.0351 26015.1 -03478.2 -07.6152 26246.6
 28 08 2013  23 06  -21.0349 26015.2 -03478.2 -07.6152 26246.6
 28 08 2013  23 07  -21.0348 26015.3 -03478.3 -07.6154 26246.8
 28 08 2013  23 08  -21.0346 26015.5 -03478.4 -07.6155 26247.0
 28 08 2013  23 09  -21.0344 26015.6 -03478.5 -07.6156 26247.1
 28 08 2013  23 10  -21.0344 26015.7 -03478.5 -07.6158 26247.2
 28 08 2013  23 11  -21.0344 26015.7 -03478.5 -07.6157 26247.3
 28 08 2013  23 12  -21.0345 26015.7 -03478.5 -07.6158 26247.2
 28 08 2013  23 13  -21.0347 26015.6 -03478.5 -07.6158 26247.2
 28 08 2013  23 14  -21.0349 26015.6 -03478.5 -07.6158 26247.1
 28 08 2013  23 15  -21.0351 26015.6 -03478.5 -07.6158 26247.1
 28 08 2013  23 16  -21.0352 26015.6 -03478.5 -07.6158 26247.1
 28 08 2013  23 17  -21.0352 26015.6 -03478.5 -07.6158 26247.1
 28 08 2013  23 18  -21.0350 26015.7 -03478.5 -07.6157 26247.2
 28 08 2013  23 19  -21.0348 26015.7 -03478.6 -07.6158 26247.2
 28 08 2013  23 20  -21.0345 26015.7 -03478.5 -07.6158 26247.2
 28 08 2013  23 21  -21.0343 26015.7 -03478.5 -07.6158 26247.2
 28 08 2013  23 22  -21.0343 26015.7 -03478.6 -07.6159 26247.3
 28 08 2013  23 23  -21.0343 26015.9 -03478.6 -07.6159 26247.4
 28 08 2013  23 24  -21.0343 26015.9 -03478.7 -07.6160 26247.5
 28 08 2013  23 25  -21.0342 26016.0 -03478.7 -07.6161 26247.6
 28 08 2013  23 26  -21.0342 26016.1 -03478.8 -07.6161 26247.6
 28 08 2013  23 27  -21.0341 26016.1 -03478.7 -07.6161 26247.6
 28 08 2013  23 28  -21.0339 26016.1 -03478.7 -07.6161 26247.6
 28 08 2013  23 29  -21.0338 26016.1 -03478.7 -07.6161 26247.6
 28 08 2013  23 30  -21.0337 26016.0 -03478.7 -07.6161 26247.6
 28 08 2013  23 31  -21.0336 26016.0 -03478.7 -07.6161 26247.5
 28 08 2013  23 32  -21.0335 26016.1 -03478.8 -07.6162 26247.6
 28 08 2013  23 33  -21.0335 26016.2 -03478.8 -07.6163 26247.8
 28 08 2013  23 34  -21.0334 26016.3 -03478.9 -07.6164 26247.8
 28 08 2013  23 35  -21.0334 26016.4 -03479.0 -07.6165 26248.0
 28 08 2013  23 36  -21.0334 26016.4 -03479.0 -07.6166 26248.0
 28 08 2013  23 37  -21.0333 26016.5 -03479.0 -07.6166 26248.1
 28 08 2013  23 38  -21.0332 26016.5 -03479.0 -07.6166 26248.1
 28 08 2013  23 39  -21.0330 26016.5 -03479.0 -07.6165 26248.1
 28 08 2013  23 40  -21.0327 26016.4 -03479.0 -07.6165 26248.0
 28 08 2013  23 41  -21.0324 26016.4 -03478.9 -07.6163 26247.9
 28 08 2013  23 42  -21.0322 26016.5 -03478.9 -07.6164 26248.1
 28 08 2013  23 43  -21.0321 26016.7 -03479.1 -07.6166 26248.3
 28 08 2013  23 44  -21.0321 26017.0 -03479.2 -07.6169 26248.6
 28 08 2013  23 45  -21.0321 26017.2 -03479.4 -07.6171 26248.8
 28 08 2013  23 46  -21.0321 26017.3 -03479.4 -07.6172 26249.0
 28 08 2013  23 47  -21.0322 26017.4 -03479.4 -07.6172 26249.0
 28 08 2013  23 48  -21.0320 26017.3 -03479.4 -07.6171 26248.9
 28 08 2013  23 49  -21.0319 26017.0 -03479.2 -07.6168 26248.6
 28 08 2013  23 50  -21.0318 26016.7 -03479.0 -07.6165 26248.2
 28 08 2013  23 51  -21.0317 26016.3 -03478.8 -07.6162 26247.8
 28 08 2013  23 52  -21.0316 26016.1 -03478.8 -07.6162 26247.7
 28 08 2013  23 53  -21.0315 26016.2 -03478.8 -07.6162 26247.8
 28 08 2013  23 54  -21.0314 26016.4 -03478.9 -07.6164 26248.0
 28 08 2013  23 55  -21.0312 26016.5 -03479.0 -07.6166 26248.1
 28 08 2013  23 56  -21.0312 26016.6 -03479.1 -07.6167 26248.1
 28 08 2013  23 57  -21.0310 26016.5 -03479.1 -07.6167 26248.1
