SAO LUIS EMBRACE-03 <293> 1 Min. Reported data

 DD MM YYYY  HH MM   D(Deg)  H(nT)   Z(nT)   I(Deg)   F(nT)

 20 10 2013  00 00  -21.0055 26020.4 -03497.2 -07.6548 26254.4
 20 10 2013  00 01  -21.0055 26020.4 -03497.2 -07.6548 26254.3
 20 10 2013  00 02  -21.0055 26020.3 -03497.2 -07.6547 26254.3
 20 10 2013  00 03  -21.0053 26020.4 -03497.1 -07.6547 26254.3
 20 10 2013  00 04  -21.0053 26020.4 -03497.2 -07.6547 26254.4
 20 10 2013  00 05  -21.0053 26020.4 -03497.2 -07.6547 26254.3
 20 10 2013  00 06  -21.0053 26020.3 -03497.1 -07.6547 26254.3
 20 10 2013  00 07  -21.0053 26020.3 -03497.1 -07.6547 26254.3
 20 10 2013  00 08  -21.0052 26020.3 -03497.1 -07.6547 26254.3
 20 10 2013  00 09  -21.0051 26020.4 -03497.2 -07.6547 26254.3
 20 10 2013  00 10  -21.0050 26020.4 -03497.2 -07.6547 26254.4
 20 10 2013  00 11  -21.0050 26020.5 -03497.2 -07.6548 26254.5
 20 10 2013  00 12  -21.0050 26020.6 -03497.3 -07.6549 26254.6
 20 10 2013  00 13  -21.0050 26020.7 -03497.3 -07.6549 26254.7
 20 10 2013  00 14  -21.0050 26020.8 -03497.3 -07.6550 26254.8
 20 10 2013  00 15  -21.0050 26021.0 -03497.4 -07.6550 26254.9
 20 10 2013  00 16  -21.0050 26021.0 -03497.4 -07.6551 26255.0
 20 10 2013  00 17  -21.0050 26021.1 -03497.4 -07.6551 26255.1
 20 10 2013  00 18  -21.0051 26021.2 -03497.4 -07.6551 26255.1
 20 10 2013  00 19  -21.0050 26021.2 -03497.4 -07.6550 26255.2
 20 10 2013  00 20  -21.0050 26021.2 -03497.4 -07.6550 26255.2
 20 10 2013  00 21  -21.0048 26021.3 -03497.4 -07.6549 26255.2
 20 10 2013  00 22  -21.0048 26021.3 -03497.4 -07.6549 26255.2
 20 10 2013  00 23  -21.0049 26021.3 -03497.4 -07.6549 26255.3
 20 10 2013  00 24  -21.0049 26021.3 -03497.3 -07.6548 26255.3
 20 10 2013  00 25  -21.0050 26021.3 -03497.3 -07.6548 26255.3
 20 10 2013  00 26  -21.0049 26021.3 -03497.3 -07.6548 26255.3
 20 10 2013  00 27  -21.0049 26021.3 -03497.3 -07.6548 26255.3
 20 10 2013  00 28  -21.0049 26021.4 -03497.3 -07.6548 26255.3
 20 10 2013  00 29  -21.0049 26021.4 -03497.3 -07.6548 26255.3
 20 10 2013  00 30  -21.0049 26021.4 -03497.3 -07.6547 26255.4
 20 10 2013  00 31  -21.0050 26021.4 -03497.3 -07.6547 26255.3
 20 10 2013  00 32  -21.0050 26021.4 -03497.2 -07.6546 26255.3
 20 10 2013  00 33  -21.0050 26021.3 -03497.2 -07.6546 26255.3
 20 10 2013  00 34  -21.0050 26021.3 -03497.2 -07.6546 26255.3
 20 10 2013  00 35  -21.0050 26021.3 -03497.2 -07.6546 26255.3
 20 10 2013  00 36  -21.0049 26021.3 -03497.2 -07.6546 26255.2
 20 10 2013  00 37  -21.0050 26021.3 -03497.2 -07.6546 26255.3
 20 10 2013  00 38  -21.0049 26021.3 -03497.2 -07.6546 26255.2
 20 10 2013  00 39  -21.0049 26021.3 -03497.2 -07.6545 26255.2
 20 10 2013  00 40  -21.0047 26021.3 -03497.2 -07.6545 26255.3
 20 10 2013  00 41  -21.0047 26021.3 -03497.2 -07.6546 26255.3
 20 10 2013  00 42  -21.0048 26021.3 -03497.2 -07.6546 26255.3
 20 10 2013  00 43  -21.0049 26021.3 -03497.2 -07.6546 26255.3
 20 10 2013  00 44  -21.0049 26021.3 -03497.2 -07.6545 26255.2
 20 10 2013  00 45  -21.0050 26021.3 -03497.2 -07.6545 26255.2
 20 10 2013  00 46  -21.0051 26021.2 -03497.1 -07.6544 26255.1
 20 10 2013  00 47  -21.0051 26021.1 -03497.1 -07.6543 26255.0
 20 10 2013  00 48  -21.0051 26021.0 -03497.0 -07.6542 26254.9
 20 10 2013  00 49  -21.0052 26020.9 -03497.0 -07.6542 26254.8
 20 10 2013  00 50  -21.0052 26020.8 -03496.9 -07.6541 26254.7
 20 10 2013  00 51  -21.0052 26020.8 -03496.9 -07.6541 26254.7
 20 10 2013  00 52  -21.0053 26020.8 -03496.9 -07.6541 26254.7
 20 10 2013  00 53  -21.0053 26020.8 -03496.9 -07.6541 26254.8
 20 10 2013  00 54  -21.0053 26020.9 -03497.0 -07.6541 26254.8
 20 10 2013  00 55  -21.0053 26020.9 -03497.0 -07.6541 26254.9
 20 10 2013  00 56  -21.0053 26021.0 -03497.0 -07.6542 26254.9
 20 10 2013  00 57  -21.0053 26021.0 -03497.0 -07.6542 26254.9
 20 10 2013  00 58  -21.0054 26021.0 -03497.0 -07.6542 26254.9
 20 10 2013  00 59  -21.0054 26021.0 -03497.0 -07.6542 26254.9
 20 10 2013  01 00  -21.0054 26021.0 -03497.0 -07.6542 26254.9
 20 10 2013  01 01  -21.0054 26021.0 -03497.0 -07.6542 26254.9
 20 10 2013  01 02  -21.0055 26021.0 -03497.0 -07.6542 26255.0
 20 10 2013  01 03  -21.0056 26021.1 -03497.0 -07.6542 26255.0
 20 10 2013  01 04  -21.0057 26021.1 -03497.0 -07.6542 26255.0
 20 10 2013  01 05  -21.0057 26021.1 -03497.0 -07.6542 26255.1
 20 10 2013  01 06  -21.0058 26021.1 -03497.0 -07.6541 26255.0
 20 10 2013  01 07  -21.0059 26021.1 -03497.0 -07.6541 26255.0
 20 10 2013  01 08  -21.0060 26021.1 -03497.0 -07.6541 26255.0
 20 10 2013  01 09  -21.0062 26021.0 -03497.0 -07.6541 26255.0
 20 10 2013  01 10  -21.0063 26021.0 -03496.9 -07.6540 26255.0
 20 10 2013  01 11  -21.0064 26021.0 -03496.9 -07.6540 26254.9
 20 10 2013  01 12  -21.0065 26021.0 -03496.9 -07.6539 26254.9
 20 10 2013  01 13  -21.0065 26020.9 -03496.9 -07.6540 26254.8
 20 10 2013  01 14  -21.0066 26020.9 -03496.9 -07.6540 26254.8
 20 10 2013  01 15  -21.0067 26020.9 -03496.9 -07.6540 26254.8
 20 10 2013  01 16  -21.0069 26020.9 -03496.9 -07.6540 26254.8
 20 10 2013  01 17  -21.0069 26020.9 -03496.9 -07.6540 26254.8
 20 10 2013  01 18  -21.0069 26020.8 -03496.9 -07.6540 26254.7
 20 10 2013  01 19  -21.0070 26020.7 -03496.9 -07.6540 26254.6
 20 10 2013  01 20  -21.0072 26020.6 -03496.8 -07.6540 26254.5
 20 10 2013  01 21  -21.0073 26020.5 -03496.8 -07.6539 26254.4
 20 10 2013  01 22  -21.0073 26020.4 -03496.8 -07.6540 26254.3
 20 10 2013  01 23  -21.0074 26020.3 -03496.8 -07.6539 26254.2
 20 10 2013  01 24  -21.0074 26020.2 -03496.8 -07.6539 26254.1
 20 10 2013  01 25  -21.0076 26020.1 -03496.8 -07.6539 26254.0
 20 10 2013  01 26  -21.0076 26020.1 -03496.7 -07.6539 26254.0
 20 10 2013  01 27  -21.0077 26020.1 -03496.7 -07.6539 26254.0
 20 10 2013  01 28  -21.0077 26020.1 -03496.8 -07.6540 26254.0
 20 10 2013  01 29  -21.0078 26020.1 -03496.8 -07.6541 26254.0
 20 10 2013  01 30  -21.0077 26020.1 -03496.9 -07.6542 26254.0
 20 10 2013  01 31  -21.0078 26020.2 -03496.9 -07.6543 26254.1
 20 10 2013  01 32  -21.0078 26020.2 -03497.0 -07.6544 26254.1
 20 10 2013  01 33  -21.0078 26020.2 -03497.0 -07.6545 26254.1
 20 10 2013  01 34  -21.0078 26020.2 -03497.1 -07.6545 26254.1
 20 10 2013  01 35  -21.0078 26020.2 -03497.1 -07.6546 26254.1
 20 10 2013  01 36  -21.0078 26020.2 -03497.1 -07.6547 26254.2
 20 10 2013  01 37  -21.0078 26020.3 -03497.2 -07.6548 26254.2
 20 10 2013  01 38  -21.0078 26020.2 -03497.2 -07.6548 26254.1
 20 10 2013  01 39  -21.0078 26020.2 -03497.2 -07.6549 26254.1
 20 10 2013  01 40  -21.0078 26020.1 -03497.2 -07.6549 26254.1
 20 10 2013  01 41  -21.0078 26020.0 -03497.2 -07.6549 26254.0
 20 10 2013  01 42  -21.0079 26020.0 -03497.2 -07.6550 26254.0
 20 10 2013  01 43  -21.0080 26020.0 -03497.2 -07.6550 26254.0
 20 10 2013  01 44  -21.0081 26020.0 -03497.3 -07.6550 26254.0
 20 10 2013  01 45  -21.0081 26019.9 -03497.2 -07.6550 26253.9
 20 10 2013  01 46  -21.0082 26019.9 -03497.3 -07.6550 26253.9
 20 10 2013  01 47  -21.0082 26019.9 -03497.3 -07.6552 26253.8
 20 10 2013  01 48  -21.0082 26019.8 -03497.3 -07.6551 26253.8
 20 10 2013  01 49  -21.0082 26019.7 -03497.3 -07.6552 26253.7
 20 10 2013  01 50  -21.0082 26019.7 -03497.3 -07.6553 26253.6
 20 10 2013  01 51  -21.0083 26019.6 -03497.3 -07.6553 26253.6
 20 10 2013  01 52  -21.0082 26019.5 -03497.3 -07.6553 26253.5
 20 10 2013  01 53  -21.0083 26019.5 -03497.4 -07.6554 26253.5
 20 10 2013  01 54  -21.0083 26019.5 -03497.4 -07.6555 26253.5
 20 10 2013  01 55  -21.0083 26019.5 -03497.4 -07.6555 26253.5
 20 10 2013  01 56  -21.0083 26019.4 -03497.4 -07.6555 26253.4
 20 10 2013  01 57  -21.0084 26019.3 -03497.4 -07.6556 26253.3
 20 10 2013  01 58  -21.0084 26019.3 -03497.4 -07.6556 26253.3
 20 10 2013  01 59  -21.0085 26019.2 -03497.5 -07.6557 26253.3
 20 10 2013  02 00  -21.0086 26019.2 -03497.5 -07.6557 26253.2
 20 10 2013  02 01  -21.0087 26019.1 -03497.5 -07.6558 26253.1
 20 10 2013  02 02  -21.0087 26019.0 -03497.5 -07.6558 26253.1
 20 10 2013  02 03  -21.0088 26019.0 -03497.5 -07.6559 26253.0
 20 10 2013  02 04  -21.0089 26018.9 -03497.5 -07.6559 26253.0
 20 10 2013  02 05  -21.0091 26018.9 -03497.5 -07.6559 26252.9
 20 10 2013  02 06  -21.0092 26018.8 -03497.5 -07.6559 26252.8
 20 10 2013  02 07  -21.0092 26018.8 -03497.5 -07.6560 26252.8
 20 10 2013  02 08  -21.0093 26018.8 -03497.6 -07.6560 26252.8
 20 10 2013  02 09  -21.0095 26018.7 -03497.6 -07.6561 26252.8
 20 10 2013  02 10  -21.0096 26018.7 -03497.6 -07.6561 26252.7
 20 10 2013  02 11  -21.0096 26018.7 -03497.6 -07.6562 26252.8
 20 10 2013  02 12  -21.0098 26018.7 -03497.7 -07.6563 26252.8
 20 10 2013  02 13  -21.0099 26018.7 -03497.7 -07.6563 26252.7
 20 10 2013  02 14  -21.0101 26018.7 -03497.7 -07.6564 26252.7
 20 10 2013  02 15  -21.0102 26018.6 -03497.7 -07.6564 26252.7
 20 10 2013  02 16  -21.0103 26018.6 -03497.7 -07.6564 26252.7
 20 10 2013  02 17  -21.0104 26018.6 -03497.7 -07.6565 26252.7
 20 10 2013  02 18  -21.0106 26018.6 -03497.8 -07.6566 26252.6
 20 10 2013  02 19  -21.0108 26018.5 -03497.8 -07.6566 26252.6
 20 10 2013  02 20  -21.0108 26018.5 -03497.8 -07.6566 26252.6
 20 10 2013  02 21  -21.0111 26018.5 -03497.8 -07.6566 26252.5
 20 10 2013  02 22  -21.0112 26018.4 -03497.8 -07.6566 26252.5
 20 10 2013  02 23  -21.0114 26018.4 -03497.8 -07.6567 26252.5
 20 10 2013  02 24  -21.0116 26018.4 -03497.8 -07.6567 26252.5
 20 10 2013  02 25  -21.0118 26018.3 -03497.8 -07.6567 26252.4
 20 10 2013  02 26  -21.0120 26018.3 -03497.8 -07.6567 26252.4
 20 10 2013  02 27  -21.0122 26018.3 -03497.8 -07.6567 26252.4
 20 10 2013  02 28  -21.0123 26018.4 -03497.8 -07.6568 26252.4
 20 10 2013  02 29  -21.0125 26018.4 -03497.9 -07.6568 26252.5
 20 10 2013  02 30  -21.0128 26018.4 -03497.9 -07.6569 26252.5
 20 10 2013  02 31  -21.0130 26018.5 -03497.9 -07.6569 26252.6
 20 10 2013  02 32  -21.0132 26018.5 -03497.9 -07.6570 26252.6
 20 10 2013  02 33  -21.0133 26018.5 -03497.9 -07.6569 26252.6
 20 10 2013  02 34  -21.0135 26018.5 -03497.9 -07.6569 26252.6
 20 10 2013  02 35  -21.0137 26018.4 -03497.9 -07.6568 26252.5
 20 10 2013  02 36  -21.0139 26018.4 -03497.8 -07.6568 26252.4
 20 10 2013  02 37  -21.0140 26018.2 -03497.8 -07.6567 26252.3
 20 10 2013  02 38  -21.0142 26018.2 -03497.8 -07.6566 26252.3
 20 10 2013  02 39  -21.0143 26018.2 -03497.7 -07.6565 26252.2
 20 10 2013  02 40  -21.0145 26018.1 -03497.7 -07.6565 26252.1
 20 10 2013  02 41  -21.0147 26018.1 -03497.7 -07.6565 26252.1
 20 10 2013  02 42  -21.0148 26018.0 -03497.7 -07.6565 26252.1
 20 10 2013  02 43  -21.0150 26018.0 -03497.7 -07.6565 26252.1
 20 10 2013  02 44  -21.0151 26018.0 -03497.6 -07.6564 26252.1
 20 10 2013  02 45  -21.0154 26018.0 -03497.7 -07.6565 26252.1
 20 10 2013  02 46  -21.0154 26018.0 -03497.6 -07.6565 26252.0
 20 10 2013  02 47  -21.0156 26018.0 -03497.7 -07.6565 26252.1
 20 10 2013  02 48  -21.0157 26018.0 -03497.6 -07.6564 26252.0
 20 10 2013  02 49  -21.0157 26018.0 -03497.6 -07.6565 26252.0
 20 10 2013  02 50  -21.0158 26017.9 -03497.6 -07.6564 26252.0
 20 10 2013  02 51  -21.0159 26017.9 -03497.6 -07.6564 26252.0
 20 10 2013  02 52  -21.0160 26017.9 -03497.6 -07.6564 26251.9
 20 10 2013  02 53  -21.0161 26017.9 -03497.6 -07.6564 26252.0
 20 10 2013  02 54  -21.0162 26017.9 -03497.7 -07.6565 26252.0
 20 10 2013  02 55  -21.0162 26017.9 -03497.7 -07.6565 26251.9
 20 10 2013  02 56  -21.0163 26017.9 -03497.7 -07.6566 26252.0
 20 10 2013  02 57  -21.0164 26017.9 -03497.7 -07.6566 26252.0
 20 10 2013  02 58  -21.0163 26018.0 -03497.7 -07.6566 26252.0
 20 10 2013  02 59  -21.0164 26018.0 -03497.7 -07.6567 26252.0
 20 10 2013  03 00  -21.0164 26018.0 -03497.7 -07.6566 26252.0
 20 10 2013  03 01  -21.0163 26017.9 -03497.7 -07.6566 26252.0
 20 10 2013  03 02  -21.0163 26017.9 -03497.7 -07.6566 26252.0
 20 10 2013  03 03  -21.0163 26017.9 -03497.7 -07.6567 26251.9
 20 10 2013  03 04  -21.0164 26017.9 -03497.7 -07.6567 26251.9
 20 10 2013  03 05  -21.0163 26017.9 -03497.7 -07.6566 26251.9
 20 10 2013  03 06  -21.0164 26017.8 -03497.7 -07.6566 26251.9
 20 10 2013  03 07  -21.0165 26017.8 -03497.8 -07.6568 26251.9
 20 10 2013  03 08  -21.0165 26017.8 -03497.8 -07.6569 26251.9
 20 10 2013  03 09  -21.0165 26017.8 -03497.8 -07.6568 26251.9
 20 10 2013  03 10  -21.0166 26017.8 -03497.8 -07.6569 26251.9
 20 10 2013  03 11  -21.0167 26017.8 -03497.8 -07.6569 26251.9
 20 10 2013  03 12  -21.0168 26017.8 -03497.9 -07.6570 26251.9
 20 10 2013  03 13  -21.0169 26017.8 -03497.9 -07.6570 26251.9
 20 10 2013  03 14  -21.0169 26017.8 -03497.9 -07.6571 26251.9
 20 10 2013  03 15  -21.0171 26017.9 -03497.9 -07.6571 26252.0
 20 10 2013  03 16  -21.0172 26018.0 -03498.0 -07.6572 26252.0
 20 10 2013  03 17  -21.0174 26017.9 -03498.0 -07.6572 26252.0
 20 10 2013  03 18  -21.0174 26018.0 -03498.0 -07.6573 26252.1
 20 10 2013  03 19  -21.0176 26018.0 -03498.0 -07.6573 26252.1
 20 10 2013  03 20  -21.0177 26018.0 -03498.0 -07.6573 26252.1
 20 10 2013  03 21  -21.0178 26018.0 -03498.1 -07.6574 26252.1
 20 10 2013  03 22  -21.0179 26018.0 -03498.1 -07.6574 26252.1
 20 10 2013  03 23  -21.0179 26018.0 -03498.1 -07.6574 26252.1
 20 10 2013  03 24  -21.0180 26018.0 -03498.1 -07.6575 26252.1
 20 10 2013  03 25  -21.0181 26018.0 -03498.1 -07.6575 26252.2
 20 10 2013  03 26  -21.0182 26018.1 -03498.1 -07.6575 26252.2
 20 10 2013  03 27  -21.0183 26018.1 -03498.1 -07.6575 26252.2
 20 10 2013  03 28  -21.0184 26018.0 -03498.1 -07.6575 26252.1
 20 10 2013  03 29  -21.0185 26018.0 -03498.1 -07.6574 26252.1
 20 10 2013  03 30  -21.0186 26018.0 -03498.1 -07.6573 26252.1
 20 10 2013  03 31  -21.0186 26018.0 -03498.1 -07.6573 26252.1
 20 10 2013  03 32  -21.0187 26018.0 -03498.1 -07.6574 26252.1
 20 10 2013  03 33  -21.0187 26018.0 -03498.1 -07.6574 26252.1
 20 10 2013  03 34  -21.0187 26018.1 -03498.1 -07.6574 26252.2
 20 10 2013  03 35  -21.0188 26018.1 -03498.1 -07.6574 26252.2
 20 10 2013  03 36  -21.0188 26018.2 -03498.1 -07.6574 26252.3
 20 10 2013  03 37  -21.0189 26018.2 -03498.1 -07.6574 26252.3
 20 10 2013  03 38  -21.0190 26018.3 -03498.2 -07.6575 26252.4
 20 10 2013  03 39  -21.0190 26018.3 -03498.2 -07.6575 26252.5
 20 10 2013  03 40  -21.0190 26018.4 -03498.2 -07.6576 26252.5
 20 10 2013  03 41  -21.0190 26018.5 -03498.2 -07.6576 26252.6
 20 10 2013  03 42  -21.0191 26018.5 -03498.2 -07.6576 26252.7
 20 10 2013  03 43  -21.0191 26018.6 -03498.3 -07.6576 26252.7
 20 10 2013  03 44  -21.0192 26018.7 -03498.3 -07.6576 26252.8
 20 10 2013  03 45  -21.0192 26018.7 -03498.2 -07.6575 26252.8
 20 10 2013  03 46  -21.0193 26018.8 -03498.3 -07.6576 26252.9
 20 10 2013  03 47  -21.0192 26018.8 -03498.2 -07.6575 26252.9
 20 10 2013  03 48  -21.0191 26018.8 -03498.2 -07.6574 26252.9
 20 10 2013  03 49  -21.0189 26018.8 -03498.2 -07.6573 26252.9
 20 10 2013  03 50  -21.0189 26018.8 -03498.1 -07.6573 26252.9
 20 10 2013  03 51  -21.0189 26018.7 -03498.1 -07.6573 26252.8
 20 10 2013  03 52  -21.0188 26018.7 -03498.1 -07.6572 26252.8
 20 10 2013  03 53  -21.0187 26018.7 -03498.0 -07.6571 26252.8
 20 10 2013  03 54  -21.0187 26018.7 -03498.0 -07.6571 26252.8
 20 10 2013  03 55  -21.0187 26018.7 -03498.0 -07.6571 26252.8
 20 10 2013  03 56  -21.0188 26018.7 -03498.0 -07.6571 26252.8
 20 10 2013  03 57  -21.0189 26018.7 -03498.0 -07.6571 26252.8
 20 10 2013  03 58  -21.0190 26018.7 -03498.0 -07.6571 26252.8
 20 10 2013  03 59  -21.0190 26018.8 -03498.0 -07.6571 26252.9
 20 10 2013  04 00  -21.0191 26018.8 -03498.1 -07.6571 26252.9
 20 10 2013  04 01  -21.0190 26018.9 -03498.0 -07.6570 26253.0
 20 10 2013  04 02  -21.0189 26018.9 -03497.9 -07.6568 26253.0
 20 10 2013  04 03  -21.0188 26018.8 -03497.9 -07.6568 26252.9
 20 10 2013  04 04  -21.0187 26018.8 -03497.9 -07.6568 26252.8
 20 10 2013  04 05  -21.0187 26018.7 -03497.9 -07.6568 26252.8
 20 10 2013  04 06  -21.0186 26018.8 -03497.9 -07.6568 26252.8
 20 10 2013  04 07  -21.0186 26018.7 -03497.9 -07.6567 26252.8
 20 10 2013  04 08  -21.0185 26018.7 -03497.9 -07.6567 26252.8
 20 10 2013  04 09  -21.0184 26018.7 -03497.8 -07.6566 26252.8
 20 10 2013  04 10  -21.0183 26018.7 -03497.8 -07.6566 26252.8
 20 10 2013  04 11  -21.0183 26018.7 -03497.9 -07.6567 26252.8
 20 10 2013  04 12  -21.0182 26018.7 -03497.9 -07.6567 26252.8
 20 10 2013  04 13  -21.0182 26018.8 -03497.9 -07.6568 26252.9
 20 10 2013  04 14  -21.0182 26018.9 -03498.0 -07.6569 26253.0
 20 10 2013  04 15  -21.0181 26019.0 -03498.0 -07.6570 26253.1
 20 10 2013  04 16  -21.0181 26019.2 -03498.1 -07.6571 26253.3
 20 10 2013  04 17  -21.0184 26019.2 -03498.2 -07.6572 26253.3
 20 10 2013  04 18  -21.0184 26019.2 -03498.1 -07.6571 26253.3
 20 10 2013  04 19  -21.0182 26019.3 -03498.1 -07.6571 26253.4
 20 10 2013  04 20  -21.0181 26019.4 -03498.2 -07.6572 26253.5
 20 10 2013  04 21  -21.0182 26019.3 -03498.2 -07.6572 26253.4
 20 10 2013  04 22  -21.0181 26019.2 -03498.1 -07.6571 26253.3
 20 10 2013  04 23  -21.0179 26019.3 -03498.1 -07.6571 26253.4
 20 10 2013  04 24  -21.0177 26019.4 -03498.2 -07.6572 26253.5
 20 10 2013  04 25  -21.0177 26019.4 -03498.2 -07.6573 26253.5
 20 10 2013  04 26  -21.0176 26019.3 -03498.2 -07.6572 26253.4
 20 10 2013  04 27  -21.0174 26019.3 -03498.2 -07.6572 26253.4
 20 10 2013  04 28  -21.0174 26019.3 -03498.2 -07.6573 26253.4
 20 10 2013  04 29  -21.0173 26019.3 -03498.2 -07.6573 26253.4
 20 10 2013  04 30  -21.0172 26019.4 -03498.3 -07.6574 26253.5
 20 10 2013  04 31  -21.0175 26019.3 -03498.3 -07.6575 26253.5
 20 10 2013  04 32  -21.0172 26019.4 -03498.3 -07.6575 26253.5
 20 10 2013  04 33  -21.0173 26019.6 -03498.4 -07.6576 26253.7
 20 10 2013  04 34  -21.0174 26019.4 -03498.4 -07.6576 26253.5
 20 10 2013  04 35  -21.0172 26019.3 -03498.3 -07.6575 26253.4
 20 10 2013  04 36  -21.0171 26019.4 -03498.4 -07.6576 26253.6
 20 10 2013  04 37  -21.0172 26019.3 -03498.3 -07.6576 26253.4
 20 10 2013  04 38  -21.0170 26019.2 -03498.3 -07.6575 26253.3
 20 10 2013  04 39  -21.0169 26019.3 -03498.4 -07.6576 26253.5
 20 10 2013  04 40  -21.0171 26019.3 -03498.4 -07.6577 26253.4
 20 10 2013  04 41  -21.0171 26019.2 -03498.4 -07.6576 26253.4
 20 10 2013  04 42  -21.0171 26019.3 -03498.4 -07.6577 26253.4
 20 10 2013  04 43  -21.0169 26019.5 -03498.5 -07.6578 26253.7
 20 10 2013  04 44  -21.0172 26019.5 -03498.5 -07.6578 26253.6
 20 10 2013  04 45  -21.0173 26019.3 -03498.4 -07.6578 26253.5
 20 10 2013  04 46  -21.0169 26019.5 -03498.5 -07.6578 26253.6
 20 10 2013  04 47  -21.0168 26019.7 -03498.6 -07.6580 26253.9
 20 10 2013  04 48  -21.0170 26019.6 -03498.6 -07.6580 26253.7
 20 10 2013  04 49  -21.0169 26019.5 -03498.5 -07.6578 26253.7
 20 10 2013  04 50  -21.0167 26019.6 -03498.6 -07.6580 26253.8
 20 10 2013  04 51  -21.0166 26019.8 -03498.7 -07.6581 26253.9
 20 10 2013  04 52  -21.0167 26019.7 -03498.7 -07.6582 26253.9
 20 10 2013  04 53  -21.0166 26019.6 -03498.6 -07.6581 26253.8
 20 10 2013  04 54  -21.0164 26019.9 -03498.7 -07.6582 26254.1
 20 10 2013  04 55  -21.0165 26019.9 -03498.8 -07.6583 26254.1
 20 10 2013  04 56  -21.0164 26019.9 -03498.7 -07.6583 26254.0
 20 10 2013  04 57  -21.0163 26020.0 -03498.8 -07.6584 26254.2
 20 10 2013  04 58  -21.0161 26019.8 -03498.7 -07.6582 26254.0
 20 10 2013  04 59  -21.0161 26020.0 -03498.8 -07.6584 26254.1
 20 10 2013  05 00  -21.0159 26019.8 -03498.7 -07.6583 26254.0
 20 10 2013  05 01  -21.0158 26020.0 -03498.8 -07.6583 26254.1
 20 10 2013  05 02  -21.0158 26019.8 -03498.8 -07.6583 26254.0
 20 10 2013  05 03  -21.0156 26019.6 -03498.6 -07.6581 26253.8
 20 10 2013  05 04  -21.0155 26019.7 -03498.7 -07.6582 26253.8
 20 10 2013  05 05  -21.0154 26019.6 -03498.7 -07.6582 26253.8
 20 10 2013  05 06  -21.0156 26019.8 -03498.7 -07.6583 26253.9
 20 10 2013  05 07  -21.0158 26019.7 -03498.8 -07.6584 26253.9
 20 10 2013  05 08  -21.0158 26019.6 -03498.7 -07.6582 26253.8
 20 10 2013  05 09  -21.0157 26019.7 -03498.7 -07.6583 26253.8
 20 10 2013  05 10  -21.0156 26019.8 -03498.8 -07.6584 26254.0
 20 10 2013  05 11  -21.0156 26019.7 -03498.8 -07.6584 26253.9
 20 10 2013  05 12  -21.0154 26019.7 -03498.7 -07.6583 26253.8
 20 10 2013  05 13  -21.0154 26019.7 -03498.7 -07.6583 26253.8
 20 10 2013  05 14  -21.0154 26019.8 -03498.8 -07.6584 26253.9
 20 10 2013  05 15  -21.0157 26019.8 -03498.8 -07.6585 26254.0
 20 10 2013  05 16  -21.0159 26019.9 -03498.9 -07.6585 26254.0
 20 10 2013  05 17  -21.0160 26019.9 -03498.9 -07.6585 26254.1
 20 10 2013  05 18  -21.0158 26020.0 -03498.9 -07.6586 26254.2
 20 10 2013  05 19  -21.0161 26020.0 -03498.9 -07.6586 26254.2
 20 10 2013  05 20  -21.0160 26019.9 -03498.8 -07.6585 26254.1
 20 10 2013  05 21  -21.0161 26019.7 -03498.7 -07.6582 26253.8
 20 10 2013  05 22  -21.0159 26019.8 -03498.7 -07.6582 26254.0
 20 10 2013  05 23  -21.0158 26019.7 -03498.7 -07.6582 26253.9
 20 10 2013  05 24  -21.0158 26019.7 -03498.7 -07.6582 26253.8
 20 10 2013  05 25  -21.0154 26019.6 -03498.6 -07.6581 26253.8
 20 10 2013  05 26  -21.0153 26019.5 -03498.6 -07.6580 26253.7
 20 10 2013  05 27  -21.0152 26019.5 -03498.6 -07.6580 26253.7
 20 10 2013  05 28  -21.0150 26019.5 -03498.6 -07.6581 26253.7
 20 10 2013  05 29  -21.0150 26019.5 -03498.6 -07.6581 26253.7
 20 10 2013  05 30  -21.0150 26019.6 -03498.6 -07.6582 26253.8
 20 10 2013  05 31  -21.0150 26019.6 -03498.7 -07.6583 26253.8
 20 10 2013  05 32  -21.0152 26019.7 -03498.7 -07.6583 26253.8
 20 10 2013  05 33  -21.0153 26019.7 -03498.7 -07.6583 26253.8
 20 10 2013  05 34  -21.0152 26019.7 -03498.7 -07.6583 26253.9
 20 10 2013  05 35  -21.0152 26019.8 -03498.8 -07.6584 26254.0
 20 10 2013  05 36  -21.0152 26020.1 -03498.9 -07.6586 26254.3
 20 10 2013  05 37  -21.0151 26020.3 -03499.0 -07.6587 26254.5
 20 10 2013  05 38  -21.0157 26020.2 -03499.0 -07.6587 26254.4
 20 10 2013  05 39  -21.0154 26020.1 -03498.9 -07.6585 26254.3
 20 10 2013  05 40  -21.0154 26020.6 -03499.1 -07.6588 26254.8
 20 10 2013  05 41  -21.0157 26021.0 -03499.3 -07.6591 26255.2
 20 10 2013  05 42  -21.0160 26020.7 -03499.2 -07.6590 26254.9
 20 10 2013  05 43  -21.0155 26020.7 -03499.1 -07.6587 26254.9
 20 10 2013  05 44  -21.0153 26020.9 -03499.2 -07.6589 26255.2
 20 10 2013  05 45  -21.0154 26020.8 -03499.1 -07.6588 26255.0
 20 10 2013  05 46  -21.0152 26021.1 -03499.2 -07.6589 26255.3
 20 10 2013  05 47  -21.0156 26021.0 -03499.2 -07.6589 26255.2
 20 10 2013  05 48  -21.0153 26021.1 -03499.2 -07.6589 26255.4
 20 10 2013  05 49  -21.0151 26021.4 -03499.3 -07.6590 26255.6
 20 10 2013  05 50  -21.0153 26021.2 -03499.2 -07.6589 26255.4
 20 10 2013  05 51  -21.0148 26021.0 -03499.1 -07.6586 26255.2
 20 10 2013  05 52  -21.0147 26021.0 -03499.1 -07.6587 26255.2
 20 10 2013  05 53  -21.0145 26021.0 -03499.1 -07.6586 26255.2
 20 10 2013  05 54  -21.0145 26021.1 -03499.1 -07.6587 26255.3
 20 10 2013  05 55  -21.0146 26021.1 -03499.1 -07.6588 26255.3
 20 10 2013  05 56  -21.0146 26021.1 -03499.2 -07.6588 26255.3
 20 10 2013  05 57  -21.0144 26021.0 -03499.1 -07.6587 26255.2
 20 10 2013  05 58  -21.0144 26021.0 -03499.1 -07.6587 26255.2
 20 10 2013  05 59  -21.0143 26020.9 -03499.1 -07.6587 26255.2
 20 10 2013  06 00  -21.0144 26021.0 -03499.1 -07.6588 26255.2
 20 10 2013  06 01  -21.0144 26021.0 -03499.1 -07.6588 26255.2
 20 10 2013  06 02  -21.0145 26021.0 -03499.2 -07.6589 26255.2
 20 10 2013  06 03  -21.0146 26021.0 -03499.2 -07.6589 26255.3
 20 10 2013  06 04  -21.0147 26021.1 -03499.2 -07.6589 26255.3
 20 10 2013  06 05  -21.0147 26021.1 -03499.2 -07.6590 26255.3
 20 10 2013  06 06  -21.0145 26020.9 -03499.2 -07.6589 26255.2
 20 10 2013  06 07  -21.0145 26020.8 -03499.1 -07.6588 26255.1
 20 10 2013  06 08  -21.0143 26020.7 -03499.0 -07.6587 26255.0
 20 10 2013  06 09  -21.0142 26020.7 -03499.0 -07.6587 26254.9
 20 10 2013  06 10  -21.0143 26020.7 -03499.1 -07.6588 26254.9
 20 10 2013  06 11  -21.0141 26020.6 -03499.1 -07.6587 26254.8
 20 10 2013  06 12  -21.0141 26020.5 -03499.0 -07.6587 26254.7
 20 10 2013  06 13  -21.0141 26020.5 -03499.0 -07.6587 26254.7
 20 10 2013  06 14  -21.0142 26020.5 -03499.1 -07.6588 26254.7
 20 10 2013  06 15  -21.0141 26020.5 -03499.1 -07.6589 26254.7
 20 10 2013  06 16  -21.0140 26020.5 -03499.1 -07.6588 26254.7
 20 10 2013  06 17  -21.0139 26020.4 -03499.1 -07.6588 26254.6
 20 10 2013  06 18  -21.0138 26020.3 -03499.0 -07.6588 26254.5
 20 10 2013  06 19  -21.0137 26020.2 -03499.0 -07.6588 26254.4
 20 10 2013  06 20  -21.0136 26020.2 -03499.1 -07.6589 26254.4
 20 10 2013  06 21  -21.0135 26020.2 -03499.1 -07.6589 26254.5
 20 10 2013  06 22  -21.0134 26020.2 -03499.1 -07.6590 26254.5
 20 10 2013  06 23  -21.0134 26020.3 -03499.2 -07.6591 26254.5
 20 10 2013  06 24  -21.0133 26020.3 -03499.2 -07.6591 26254.5
 20 10 2013  06 25  -21.0131 26020.2 -03499.2 -07.6592 26254.5
 20 10 2013  06 26  -21.0129 26020.2 -03499.3 -07.6593 26254.4
 20 10 2013  06 27  -21.0127 26020.1 -03499.2 -07.6592 26254.4
 20 10 2013  06 28  -21.0126 26020.1 -03499.3 -07.6593 26254.4
 20 10 2013  06 29  -21.0126 26020.0 -03499.3 -07.6594 26254.3
 20 10 2013  06 30  -21.0127 26020.0 -03499.3 -07.6595 26254.3
 20 10 2013  06 31  -21.0127 26020.0 -03499.4 -07.6596 26254.2
 20 10 2013  06 32  -21.0125 26019.9 -03499.3 -07.6595 26254.1
 20 10 2013  06 33  -21.0121 26019.8 -03499.3 -07.6595 26254.1
 20 10 2013  06 34  -21.0119 26019.7 -03499.2 -07.6594 26253.9
 20 10 2013  06 35  -21.0115 26019.6 -03499.2 -07.6594 26253.8
 20 10 2013  06 36  -21.0113 26019.5 -03499.2 -07.6594 26253.7
 20 10 2013  06 37  -21.0112 26019.4 -03499.3 -07.6595 26253.7
 20 10 2013  06 38  -21.0112 26019.4 -03499.3 -07.6596 26253.6
 20 10 2013  06 39  -21.0110 26019.3 -03499.3 -07.6596 26253.6
 20 10 2013  06 40  -21.0112 26019.3 -03499.4 -07.6598 26253.6
 20 10 2013  06 41  -21.0111 26019.3 -03499.4 -07.6598 26253.5
 20 10 2013  06 42  -21.0109 26019.2 -03499.3 -07.6598 26253.4
 20 10 2013  06 43  -21.0107 26019.1 -03499.3 -07.6597 26253.3
 20 10 2013  06 44  -21.0106 26019.0 -03499.3 -07.6598 26253.3
 20 10 2013  06 45  -21.0107 26019.0 -03499.4 -07.6599 26253.3
 20 10 2013  06 46  -21.0108 26019.0 -03499.4 -07.6600 26253.3
 20 10 2013  06 47  -21.0109 26019.0 -03499.5 -07.6601 26253.3
 20 10 2013  06 48  -21.0109 26019.0 -03499.5 -07.6601 26253.2
 20 10 2013  06 49  -21.0109 26018.9 -03499.5 -07.6601 26253.2
 20 10 2013  06 50  -21.0110 26018.9 -03499.5 -07.6601 26253.2
 20 10 2013  06 51  -21.0112 26018.9 -03499.5 -07.6602 26253.2
 20 10 2013  06 52  -21.0115 26019.0 -03499.6 -07.6603 26253.3
 20 10 2013  06 53  -21.0118 26019.1 -03499.7 -07.6605 26253.4
 20 10 2013  06 54  -21.0120 26019.1 -03499.7 -07.6605 26253.4
 20 10 2013  06 55  -21.0121 26019.2 -03499.7 -07.6605 26253.5
 20 10 2013  06 56  -21.0122 26019.1 -03499.7 -07.6606 26253.4
 20 10 2013  06 57  -21.0123 26019.1 -03499.7 -07.6605 26253.4
 20 10 2013  06 58  -21.0122 26019.0 -03499.7 -07.6605 26253.3
 20 10 2013  06 59  -21.0124 26019.0 -03499.7 -07.6605 26253.3
 20 10 2013  07 00  -21.0125 26019.0 -03499.7 -07.6605 26253.3
 20 10 2013  07 01  -21.0125 26019.0 -03499.7 -07.6605 26253.3
 20 10 2013  07 02  -21.0125 26019.0 -03499.7 -07.6606 26253.3
 20 10 2013  07 03  -21.0126 26019.1 -03499.7 -07.6606 26253.4
 20 10 2013  07 04  -21.0125 26019.0 -03499.6 -07.6605 26253.3
 20 10 2013  07 05  -21.0125 26018.9 -03499.6 -07.6604 26253.2
 20 10 2013  07 06  -21.0125 26018.9 -03499.6 -07.6603 26253.2
 20 10 2013  07 07  -21.0126 26019.0 -03499.6 -07.6604 26253.2
 20 10 2013  07 08  -21.0128 26019.0 -03499.7 -07.6605 26253.4
 20 10 2013  07 09  -21.0128 26019.1 -03499.7 -07.6605 26253.4
 20 10 2013  07 10  -21.0128 26019.1 -03499.7 -07.6606 26253.4
 20 10 2013  07 11  -21.0129 26019.1 -03499.7 -07.6606 26253.4
 20 10 2013  07 12  -21.0130 26019.1 -03499.7 -07.6606 26253.4
 20 10 2013  07 13  -21.0128 26019.0 -03499.6 -07.6605 26253.3
 20 10 2013  07 14  -21.0126 26018.9 -03499.6 -07.6604 26253.2
 20 10 2013  07 15  -21.0123 26018.8 -03499.5 -07.6603 26253.1
 20 10 2013  07 16  -21.0121 26018.8 -03499.5 -07.6602 26253.1
 20 10 2013  07 17  -21.0118 26018.7 -03499.4 -07.6601 26253.0
 20 10 2013  07 18  -21.0117 26018.6 -03499.4 -07.6600 26252.9
 20 10 2013  07 19  -21.0116 26018.6 -03499.4 -07.6601 26252.9
 20 10 2013  07 20  -21.0115 26018.6 -03499.4 -07.6601 26252.9
 20 10 2013  07 21  -21.0114 26018.6 -03499.4 -07.6601 26252.8
 20 10 2013  07 22  -21.0114 26018.5 -03499.4 -07.6601 26252.8
 20 10 2013  07 23  -21.0115 26018.6 -03499.5 -07.6602 26252.9
 20 10 2013  07 24  -21.0115 26018.6 -03499.5 -07.6602 26252.9
 20 10 2013  07 25  -21.0114 26018.6 -03499.5 -07.6602 26252.9
 20 10 2013  07 26  -21.0113 26018.6 -03499.4 -07.6602 26252.9
 20 10 2013  07 27  -21.0110 26018.6 -03499.4 -07.6601 26252.8
 20 10 2013  07 28  -21.0108 26018.5 -03499.4 -07.6600 26252.8
 20 10 2013  07 29  -21.0107 26018.5 -03499.4 -07.6600 26252.8
 20 10 2013  07 30  -21.0105 26018.4 -03499.3 -07.6600 26252.7
 20 10 2013  07 31  -21.0103 26018.4 -03499.3 -07.6600 26252.6
 20 10 2013  07 32  -21.0100 26018.3 -03499.3 -07.6600 26252.5
 20 10 2013  07 33  -21.0097 26018.2 -03499.3 -07.6600 26252.5
 20 10 2013  07 34  -21.0096 26018.2 -03499.3 -07.6600 26252.4
 20 10 2013  07 35  -21.0097 26018.2 -03499.4 -07.6601 26252.5
 20 10 2013  07 36  -21.0096 26018.1 -03499.4 -07.6602 26252.4
 20 10 2013  07 37  -21.0094 26018.2 -03499.4 -07.6602 26252.4
 20 10 2013  07 38  -21.0091 26018.1 -03499.4 -07.6602 26252.4
 20 10 2013  07 39  -21.0088 26018.0 -03499.3 -07.6601 26252.3
 20 10 2013  07 40  -21.0083 26017.9 -03499.3 -07.6601 26252.2
 20 10 2013  07 41  -21.0080 26017.9 -03499.3 -07.6601 26252.2
 20 10 2013  07 42  -21.0079 26017.8 -03499.3 -07.6602 26252.1
 20 10 2013  07 43  -21.0076 26018.0 -03499.5 -07.6604 26252.3
 20 10 2013  07 44  -21.0072 26018.1 -03499.5 -07.6605 26252.4
 20 10 2013  07 45  -21.0072 26018.0 -03499.5 -07.6606 26252.3
 20 10 2013  07 46  -21.0072 26018.1 -03499.6 -07.6607 26252.4
 20 10 2013  07 47  -21.0072 26018.3 -03499.8 -07.6609 26252.6
 20 10 2013  07 48  -21.0070 26018.3 -03499.8 -07.6610 26252.6
 20 10 2013  07 49  -21.0070 26018.3 -03499.8 -07.6610 26252.6
 20 10 2013  07 50  -21.0070 26018.3 -03499.8 -07.6610 26252.6
 20 10 2013  07 51  -21.0070 26018.3 -03499.8 -07.6611 26252.6
 20 10 2013  07 52  -21.0071 26018.2 -03499.8 -07.6610 26252.6
 20 10 2013  07 53  -21.0071 26018.2 -03499.7 -07.6609 26252.5
 20 10 2013  07 54  -21.0071 26018.0 -03499.7 -07.6609 26252.4
 20 10 2013  07 55  -21.0069 26017.9 -03499.6 -07.6608 26252.2
 20 10 2013  07 56  -21.0066 26017.8 -03499.6 -07.6607 26252.1
 20 10 2013  07 57  -21.0063 26017.7 -03499.6 -07.6607 26252.0
 20 10 2013  07 58  -21.0060 26017.6 -03499.5 -07.6607 26251.9
 20 10 2013  07 59  -21.0056 26017.5 -03499.5 -07.6607 26251.8
 20 10 2013  08 00  -21.0054 26017.6 -03499.6 -07.6608 26251.9
 20 10 2013  08 01  -21.0050 26017.6 -03499.6 -07.6609 26251.9
 20 10 2013  08 02  -21.0047 26017.6 -03499.7 -07.6610 26251.9
 20 10 2013  08 03  -21.0046 26017.6 -03499.7 -07.6610 26251.9
 20 10 2013  08 04  -21.0046 26017.6 -03499.8 -07.6611 26251.9
 20 10 2013  08 05  -21.0045 26017.5 -03499.7 -07.6611 26251.8
 20 10 2013  08 06  -21.0043 26017.4 -03499.7 -07.6611 26251.8
 20 10 2013  08 07  -21.0043 26017.4 -03499.7 -07.6612 26251.7
 20 10 2013  08 08  -21.0041 26017.3 -03499.7 -07.6612 26251.6
 20 10 2013  08 09  -21.0040 26017.3 -03499.8 -07.6613 26251.6
 20 10 2013  08 10  -21.0036 26017.1 -03499.8 -07.6613 26251.5
 20 10 2013  08 11  -21.0035 26017.1 -03499.8 -07.6614 26251.5
 20 10 2013  08 12  -21.0035 26017.1 -03499.8 -07.6614 26251.5
 20 10 2013  08 13  -21.0036 26017.2 -03499.9 -07.6615 26251.5
 20 10 2013  08 14  -21.0035 26017.2 -03499.9 -07.6616 26251.5
 20 10 2013  08 15  -21.0035 26017.1 -03499.9 -07.6617 26251.5
 20 10 2013  08 16  -21.0035 26017.0 -03500.0 -07.6618 26251.4
 20 10 2013  08 17  -21.0034 26017.0 -03499.9 -07.6617 26251.3
 20 10 2013  08 18  -21.0033 26016.8 -03499.9 -07.6617 26251.2
 20 10 2013  08 19  -21.0030 26016.7 -03499.8 -07.6616 26251.0
 20 10 2013  08 20  -21.0026 26016.6 -03499.8 -07.6615 26250.9
 20 10 2013  08 21  -21.0021 26016.4 -03499.7 -07.6614 26250.7
 20 10 2013  08 22  -21.0016 26016.3 -03499.7 -07.6613 26250.6
 20 10 2013  08 23  -21.0012 26016.2 -03499.6 -07.6613 26250.5
 20 10 2013  08 24  -21.0006 26016.0 -03499.6 -07.6613 26250.3
 20 10 2013  08 25  -21.0000 26016.0 -03499.7 -07.6614 26250.4
 20 10 2013  08 26  -20.9994 26016.0 -03499.7 -07.6616 26250.3
 20 10 2013  08 27  -20.9987 26016.0 -03499.8 -07.6618 26250.4
 20 10 2013  08 28  -20.9982 26016.0 -03499.9 -07.6620 26250.3
 20 10 2013  08 29  -20.9977 26016.0 -03500.1 -07.6624 26250.4
 20 10 2013  08 30  -20.9970 26015.9 -03500.2 -07.6626 26250.3
 20 10 2013  08 31  -20.9965 26016.0 -03500.4 -07.6630 26250.4
 20 10 2013  08 32  -20.9958 26015.9 -03500.6 -07.6634 26250.4
 20 10 2013  08 33  -20.9954 26015.9 -03500.8 -07.6638 26250.4
 20 10 2013  08 34  -20.9947 26015.9 -03501.0 -07.6643 26250.4
 20 10 2013  08 35  -20.9943 26016.0 -03501.2 -07.6648 26250.5
 20 10 2013  08 36  -20.9944 26016.1 -03501.6 -07.6655 26250.7
 20 10 2013  08 37  -20.9939 26016.0 -03501.8 -07.6659 26250.6
 20 10 2013  08 38  -20.9939 26016.2 -03502.1 -07.6666 26250.8
 20 10 2013  08 39  -20.9939 26015.9 -03502.3 -07.6671 26250.6
 20 10 2013  08 40  -20.9933 26016.0 -03502.5 -07.6675 26250.7
 20 10 2013  08 41  -20.9932 26015.9 -03502.7 -07.6680 26250.6
 20 10 2013  08 42  -20.9932 26015.7 -03502.8 -07.6684 26250.5
 20 10 2013  08 43  -20.9932 26015.9 -03503.2 -07.6691 26250.7
 20 10 2013  08 44  -20.9933 26015.9 -03503.5 -07.6696 26250.8
 20 10 2013  08 45  -20.9934 26015.8 -03503.7 -07.6701 26250.7
 20 10 2013  08 46  -20.9937 26015.8 -03504.0 -07.6707 26250.7
 20 10 2013  08 47  -20.9937 26015.7 -03504.1 -07.6712 26250.7
 20 10 2013  08 48  -20.9940 26015.9 -03504.5 -07.6718 26250.9
 20 10 2013  08 49  -20.9944 26015.9 -03504.7 -07.6722 26250.9
 20 10 2013  08 50  -20.9949 26016.3 -03505.0 -07.6728 26251.3
 20 10 2013  08 51  -20.9952 26016.0 -03505.1 -07.6731 26251.0
 20 10 2013  08 52  -20.9957 26016.4 -03505.4 -07.6737 26251.4
 20 10 2013  08 53  -20.9964 26016.4 -03505.6 -07.6742 26251.5
 20 10 2013  08 54  -20.9969 26016.4 -03505.8 -07.6745 26251.5
 20 10 2013  08 55  -20.9973 26016.5 -03506.0 -07.6749 26251.7
 20 10 2013  08 56  -20.9975 26016.7 -03506.1 -07.6752 26251.8
 20 10 2013  08 57  -20.9978 26016.8 -03506.3 -07.6756 26252.0
 20 10 2013  08 58  -20.9984 26017.0 -03506.5 -07.6759 26252.2
 20 10 2013  08 59  -20.9989 26017.0 -03506.7 -07.6763 26252.3
 20 10 2013  09 00  -20.9995 26017.1 -03506.9 -07.6767 26252.4
 20 10 2013  09 01  -21.0002 26017.1 -03507.0 -07.6770 26252.5
 20 10 2013  09 02  -21.0011 26017.1 -03507.1 -07.6772 26252.4
 20 10 2013  09 03  -21.0020 26017.1 -03507.2 -07.6773 26252.5
 20 10 2013  09 04  -21.0030 26017.2 -03507.3 -07.6776 26252.5
 20 10 2013  09 05  -21.0035 26017.3 -03507.3 -07.6776 26252.6
 20 10 2013  09 06  -21.0041 26017.4 -03507.4 -07.6778 26252.7
 20 10 2013  09 07  -21.0043 26017.4 -03507.5 -07.6779 26252.8
 20 10 2013  09 08  -21.0044 26017.3 -03507.6 -07.6781 26252.7
 20 10 2013  09 09  -21.0046 26017.4 -03507.7 -07.6783 26252.8
 20 10 2013  09 10  -21.0049 26017.5 -03507.8 -07.6785 26252.9
 20 10 2013  09 11  -21.0049 26017.4 -03507.9 -07.6787 26252.8
 20 10 2013  09 12  -21.0052 26017.5 -03507.9 -07.6789 26252.9
 20 10 2013  09 13  -21.0058 26017.7 -03508.1 -07.6792 26253.1
 20 10 2013  09 14  -21.0065 26017.8 -03508.3 -07.6795 26253.3
 20 10 2013  09 15  -21.0067 26017.6 -03508.3 -07.6796 26253.1
 20 10 2013  09 16  -21.0070 26017.6 -03508.4 -07.6798 26253.1
 20 10 2013  09 17  -21.0075 26017.8 -03508.6 -07.6802 26253.3
 20 10 2013  09 18  -21.0079 26017.8 -03508.7 -07.6804 26253.3
 20 10 2013  09 19  -21.0086 26018.0 -03508.8 -07.6806 26253.5
 20 10 2013  09 20  -21.0098 26018.2 -03509.0 -07.6810 26253.8
 20 10 2013  09 21  -21.0107 26018.4 -03509.1 -07.6812 26253.9
 20 10 2013  09 22  -21.0111 26018.4 -03509.2 -07.6813 26254.0
 20 10 2013  09 23  -21.0122 26018.7 -03509.3 -07.6815 26254.3
 20 10 2013  09 24  -21.0137 26018.9 -03509.5 -07.6817 26254.5
 20 10 2013  09 25  -21.0139 26018.8 -03509.3 -07.6815 26254.4
 20 10 2013  09 26  -21.0149 26018.9 -03509.4 -07.6817 26254.5
 20 10 2013  09 27  -21.0155 26018.9 -03509.4 -07.6817 26254.5
 20 10 2013  09 28  -21.0159 26018.9 -03509.5 -07.6818 26254.6
 20 10 2013  09 29  -21.0169 26018.8 -03509.4 -07.6817 26254.4
 20 10 2013  09 30  -21.0181 26019.2 -03509.6 -07.6819 26254.8
 20 10 2013  09 31  -21.0188 26019.5 -03509.6 -07.6819 26255.1
 20 10 2013  09 32  -21.0190 26019.5 -03509.6 -07.6819 26255.1
 20 10 2013  09 33  -21.0192 26019.5 -03509.6 -07.6819 26255.1
 20 10 2013  09 34  -21.0193 26019.3 -03509.5 -07.6818 26254.9
 20 10 2013  09 35  -21.0197 26019.5 -03509.6 -07.6820 26255.1
 20 10 2013  09 36  -21.0202 26019.4 -03509.7 -07.6821 26255.1
 20 10 2013  09 37  -21.0209 26019.6 -03509.8 -07.6823 26255.2
 20 10 2013  09 38  -21.0225 26020.0 -03510.0 -07.6826 26255.6
 20 10 2013  09 39  -21.0238 26020.3 -03510.1 -07.6828 26256.0
 20 10 2013  09 40  -21.0251 26020.6 -03510.3 -07.6830 26256.3
 20 10 2013  09 41  -21.0261 26020.8 -03510.3 -07.6829 26256.5
 20 10 2013  09 42  -21.0267 26020.8 -03510.1 -07.6827 26256.5
 20 10 2013  09 43  -21.0272 26020.7 -03510.1 -07.6826 26256.4
 20 10 2013  09 44  -21.0273 26020.5 -03510.0 -07.6824 26256.1
 20 10 2013  09 45  -21.0279 26020.4 -03510.0 -07.6825 26256.1
 20 10 2013  09 46  -21.0281 26020.2 -03510.1 -07.6827 26255.9
 20 10 2013  09 47  -21.0279 26020.1 -03510.1 -07.6828 26255.8
 20 10 2013  09 48  -21.0281 26020.0 -03510.3 -07.6832 26255.7
 20 10 2013  09 49  -21.0287 26020.2 -03510.5 -07.6835 26255.9
 20 10 2013  09 50  -21.0299 26020.7 -03510.8 -07.6840 26256.4
 20 10 2013  09 51  -21.0309 26021.0 -03510.9 -07.6843 26256.8
 20 10 2013  09 52  -21.0314 26021.1 -03511.0 -07.6845 26256.9
 20 10 2013  09 53  -21.0328 26021.5 -03511.1 -07.6846 26257.3
 20 10 2013  09 54  -21.0334 26021.5 -03511.2 -07.6847 26257.3
 20 10 2013  09 55  -21.0336 26021.2 -03511.1 -07.6845 26257.0
 20 10 2013  09 56  -21.0345 26021.3 -03511.1 -07.6847 26257.1
 20 10 2013  09 57  -21.0352 26021.5 -03511.3 -07.6850 26257.3
 20 10 2013  09 58  -21.0361 26021.7 -03511.4 -07.6852 26257.6
 20 10 2013  09 59  -21.0367 26021.7 -03511.5 -07.6853 26257.6
 20 10 2013  10 00  -21.0366 26021.8 -03511.5 -07.6852 26257.7
 20 10 2013  10 01  -21.0373 26021.9 -03511.6 -07.6854 26257.8
 20 10 2013  10 02  -21.0383 26022.2 -03511.7 -07.6856 26258.1
 20 10 2013  10 03  -21.0395 26022.6 -03511.8 -07.6857 26258.5
 20 10 2013  10 04  -21.0403 26022.8 -03511.8 -07.6857 26258.6
 20 10 2013  10 05  -21.0412 26022.9 -03511.8 -07.6857 26258.8
 20 10 2013  10 06  -21.0421 26023.1 -03511.8 -07.6856 26259.0
 20 10 2013  10 07  -21.0429 26023.2 -03511.8 -07.6855 26259.1
 20 10 2013  10 08  -21.0435 26023.4 -03511.8 -07.6855 26259.3
 20 10 2013  10 09  -21.0442 26023.6 -03511.8 -07.6855 26259.5
 20 10 2013  10 10  -21.0448 26023.8 -03511.8 -07.6853 26259.7
 20 10 2013  10 11  -21.0455 26024.0 -03511.7 -07.6851 26259.9
 20 10 2013  10 12  -21.0463 26024.3 -03511.7 -07.6850 26260.2
 20 10 2013  10 13  -21.0471 26024.5 -03511.6 -07.6848 26260.4
 20 10 2013  10 14  -21.0479 26024.7 -03511.6 -07.6846 26260.6
 20 10 2013  10 15  -21.0487 26025.1 -03511.5 -07.6845 26260.9
 20 10 2013  10 16  -21.0494 26025.4 -03511.5 -07.6843 26261.2
 20 10 2013  10 17  -21.0502 26025.7 -03511.4 -07.6840 26261.6
 20 10 2013  10 18  -21.0511 26026.1 -03511.4 -07.6839 26261.9
 20 10 2013  10 19  -21.0521 26026.5 -03511.4 -07.6837 26262.3
 20 10 2013  10 20  -21.0530 26026.8 -03511.3 -07.6834 26262.6
 20 10 2013  10 21  -21.0540 26027.2 -03511.3 -07.6832 26263.0
 20 10 2013  10 22  -21.0550 26027.5 -03511.1 -07.6829 26263.2
 20 10 2013  10 23  -21.0558 26027.8 -03511.0 -07.6826 26263.6
 20 10 2013  10 24  -21.0565 26028.1 -03510.9 -07.6822 26263.9
 20 10 2013  10 25  -21.0572 26028.5 -03510.8 -07.6818 26264.2
 20 10 2013  10 26  -21.0579 26028.9 -03510.7 -07.6814 26264.5
 20 10 2013  10 27  -21.0585 26029.2 -03510.5 -07.6810 26264.8
 20 10 2013  10 28  -21.0592 26029.4 -03510.3 -07.6806 26265.1
 20 10 2013  10 29  -21.0599 26029.7 -03510.2 -07.6802 26265.3
 20 10 2013  10 30  -21.0605 26029.8 -03510.0 -07.6798 26265.4
 20 10 2013  10 31  -21.0610 26030.1 -03509.9 -07.6794 26265.6
 20 10 2013  10 32  -21.0616 26030.3 -03509.8 -07.6791 26265.8
 20 10 2013  10 33  -21.0623 26030.6 -03509.7 -07.6788 26266.1
 20 10 2013  10 34  -21.0629 26030.9 -03509.6 -07.6785 26266.5
 20 10 2013  10 35  -21.0633 26031.2 -03509.5 -07.6782 26266.7
 20 10 2013  10 36  -21.0637 26031.4 -03509.3 -07.6778 26266.9
 20 10 2013  10 37  -21.0641 26031.6 -03509.2 -07.6774 26267.1
 20 10 2013  10 38  -21.0646 26031.9 -03509.0 -07.6771 26267.4
 20 10 2013  10 39  -21.0652 26032.2 -03509.0 -07.6768 26267.7
 20 10 2013  10 40  -21.0657 26032.5 -03508.8 -07.6764 26267.9
 20 10 2013  10 41  -21.0664 26032.9 -03508.7 -07.6761 26268.2
 20 10 2013  10 42  -21.0671 26033.3 -03508.6 -07.6758 26268.6
 20 10 2013  10 43  -21.0678 26033.6 -03508.5 -07.6754 26268.9
 20 10 2013  10 44  -21.0683 26033.9 -03508.4 -07.6750 26269.3
 20 10 2013  10 45  -21.0688 26034.2 -03508.2 -07.6745 26269.5
 20 10 2013  10 46  -21.0693 26034.5 -03508.0 -07.6741 26269.8
 20 10 2013  10 47  -21.0699 26034.8 -03507.9 -07.6737 26270.0
 20 10 2013  10 48  -21.0703 26035.0 -03507.7 -07.6733 26270.2
 20 10 2013  10 49  -21.0706 26035.3 -03507.6 -07.6729 26270.5
 20 10 2013  10 50  -21.0710 26035.6 -03507.5 -07.6726 26270.8
 20 10 2013  10 51  -21.0713 26035.8 -03507.3 -07.6722 26270.9
 20 10 2013  10 52  -21.0716 26036.1 -03507.2 -07.6719 26271.3
 20 10 2013  10 53  -21.0720 26036.5 -03507.2 -07.6716 26271.7
 20 10 2013  10 54  -21.0726 26036.9 -03507.0 -07.6712 26272.0
 20 10 2013  10 55  -21.0730 26037.3 -03506.9 -07.6709 26272.5
 20 10 2013  10 56  -21.0732 26037.8 -03506.8 -07.6705 26272.9
 20 10 2013  10 57  -21.0736 26038.2 -03506.7 -07.6701 26273.2
 20 10 2013  10 58  -21.0738 26038.6 -03506.5 -07.6696 26273.6
 20 10 2013  10 59  -21.0739 26039.0 -03506.3 -07.6691 26274.0
 20 10 2013  11 00  -21.0740 26039.2 -03506.1 -07.6685 26274.2
 20 10 2013  11 01  -21.0741 26039.5 -03505.9 -07.6680 26274.5
 20 10 2013  11 02  -21.0742 26039.8 -03505.6 -07.6674 26274.7
 20 10 2013  11 03  -21.0742 26040.1 -03505.4 -07.6668 26274.9
 20 10 2013  11 04  -21.0741 26040.4 -03505.3 -07.6664 26275.3
 20 10 2013  11 05  -21.0738 26040.8 -03505.1 -07.6659 26275.6
 20 10 2013  11 06  -21.0736 26041.1 -03504.9 -07.6654 26276.0
 20 10 2013  11 07  -21.0737 26041.4 -03504.7 -07.6649 26276.2
 20 10 2013  11 08  -21.0738 26041.8 -03504.6 -07.6645 26276.6
 20 10 2013  11 09  -21.0740 26042.2 -03504.4 -07.6640 26276.9
 20 10 2013  11 10  -21.0743 26042.5 -03504.2 -07.6636 26277.2
 20 10 2013  11 11  -21.0746 26042.8 -03504.1 -07.6631 26277.5
 20 10 2013  11 12  -21.0749 26043.2 -03503.9 -07.6627 26277.8
 20 10 2013  11 13  -21.0750 26043.6 -03503.8 -07.6623 26278.3
 20 10 2013  11 14  -21.0751 26044.2 -03503.7 -07.6620 26278.9
 20 10 2013  11 15  -21.0751 26044.6 -03503.5 -07.6614 26279.2
 20 10 2013  11 16  -21.0750 26045.2 -03503.4 -07.6609 26279.7
 20 10 2013  11 17  -21.0750 26045.7 -03503.2 -07.6604 26280.2
 20 10 2013  11 18  -21.0750 26046.3 -03503.1 -07.6600 26280.9
 20 10 2013  11 19  -21.0748 26047.0 -03503.0 -07.6595 26281.5
 20 10 2013  11 20  -21.0747 26047.4 -03502.7 -07.6589 26281.9
 20 10 2013  11 21  -21.0749 26048.1 -03502.6 -07.6584 26282.5
 20 10 2013  11 22  -21.0748 26048.9 -03502.5 -07.6579 26283.3
 20 10 2013  11 23  -21.0745 26049.6 -03502.3 -07.6573 26284.0
 20 10 2013  11 24  -21.0738 26050.3 -03502.0 -07.6566 26284.6
 20 10 2013  11 25  -21.0732 26050.7 -03501.7 -07.6558 26285.0
 20 10 2013  11 26  -21.0722 26051.0 -03501.4 -07.6549 26285.3
 20 10 2013  11 27  -21.0715 26051.3 -03501.1 -07.6542 26285.5
 20 10 2013  11 28  -21.0709 26051.5 -03500.7 -07.6534 26285.6
 20 10 2013  11 29  -21.0707 26051.7 -03500.5 -07.6528 26285.8
 20 10 2013  11 30  -21.0704 26051.9 -03500.3 -07.6523 26286.0
 20 10 2013  11 31  -21.0701 26052.3 -03500.1 -07.6518 26286.4
 20 10 2013  11 32  -21.0702 26052.8 -03500.0 -07.6515 26286.9
 20 10 2013  11 33  -21.0703 26053.4 -03500.0 -07.6512 26287.4
 20 10 2013  11 34  -21.0701 26054.2 -03499.9 -07.6508 26288.2
 20 10 2013  11 35  -21.0702 26054.9 -03499.8 -07.6504 26288.9
 20 10 2013  11 36  -21.0703 26055.5 -03499.7 -07.6500 26289.5
 20 10 2013  11 37  -21.0704 26056.0 -03499.5 -07.6495 26290.0
 20 10 2013  11 38  -21.0702 26056.5 -03499.4 -07.6490 26290.4
 20 10 2013  11 39  -21.0697 26056.9 -03499.1 -07.6483 26290.8
 20 10 2013  11 40  -21.0693 26057.4 -03498.9 -07.6478 26291.3
 20 10 2013  11 41  -21.0691 26057.9 -03498.8 -07.6474 26291.7
 20 10 2013  11 42  -21.0685 26058.2 -03498.6 -07.6469 26292.0
 20 10 2013  11 43  -21.0682 26058.4 -03498.4 -07.6463 26292.1
 20 10 2013  11 44  -21.0680 26058.6 -03498.2 -07.6459 26292.4
 20 10 2013  11 45  -21.0678 26058.9 -03498.1 -07.6455 26292.7
 20 10 2013  11 46  -21.0676 26059.3 -03498.0 -07.6451 26293.0
 20 10 2013  11 47  -21.0675 26059.8 -03497.9 -07.6448 26293.5
 20 10 2013  11 48  -21.0673 26060.2 -03497.8 -07.6445 26293.9
 20 10 2013  11 49  -21.0670 26060.4 -03497.6 -07.6440 26294.1
 20 10 2013  11 50  -21.0669 26060.7 -03497.5 -07.6436 26294.4
 20 10 2013  11 51  -21.0670 26061.1 -03497.4 -07.6433 26294.7
 20 10 2013  11 52  -21.0668 26061.4 -03497.2 -07.6430 26295.0
 20 10 2013  11 53  -21.0667 26062.0 -03497.2 -07.6427 26295.6
 20 10 2013  11 54  -21.0667 26062.6 -03497.2 -07.6426 26296.2
 20 10 2013  11 55  -21.0667 26063.1 -03497.1 -07.6423 26296.7
 20 10 2013  11 56  -21.0667 26063.4 -03497.0 -07.6419 26297.0
 20 10 2013  11 57  -21.0668 26063.9 -03496.9 -07.6416 26297.4
 20 10 2013  11 58  -21.0668 26064.3 -03496.8 -07.6413 26297.9
 20 10 2013  11 59  -21.0669 26064.7 -03496.7 -07.6409 26298.2
 20 10 2013  12 00  -21.0669 26064.9 -03496.6 -07.6406 26298.3
 20 10 2013  12 01  -21.0669 26064.8 -03496.4 -07.6401 26298.3
 20 10 2013  12 02  -21.0670 26064.9 -03496.2 -07.6398 26298.4
 20 10 2013  12 03  -21.0670 26065.0 -03496.2 -07.6396 26298.5
 20 10 2013  12 04  -21.0671 26065.1 -03496.1 -07.6394 26298.5
 20 10 2013  12 05  -21.0671 26065.4 -03496.1 -07.6393 26298.8
 20 10 2013  12 06  -21.0672 26065.7 -03496.1 -07.6392 26299.1
 20 10 2013  12 07  -21.0670 26065.9 -03496.0 -07.6390 26299.3
 20 10 2013  12 08  -21.0669 26066.2 -03496.0 -07.6390 26299.6
 20 10 2013  12 09  -21.0668 26066.5 -03496.0 -07.6387 26299.9
 20 10 2013  12 10  -21.0666 26066.9 -03495.9 -07.6386 26300.3
 20 10 2013  12 11  -21.0664 26067.3 -03496.0 -07.6386 26300.7
 20 10 2013  12 12  -21.0662 26067.6 -03496.0 -07.6384 26301.0
 20 10 2013  12 13  -21.0659 26067.8 -03495.9 -07.6382 26301.1
 20 10 2013  12 14  -21.0657 26068.0 -03495.8 -07.6380 26301.3
 20 10 2013  12 15  -21.0656 26068.2 -03495.8 -07.6379 26301.6
 20 10 2013  12 16  -21.0656 26068.6 -03495.8 -07.6378 26301.9
 20 10 2013  12 17  -21.0656 26069.0 -03495.9 -07.6378 26302.3
 20 10 2013  12 18  -21.0657 26069.3 -03495.8 -07.6377 26302.6
 20 10 2013  12 19  -21.0656 26069.5 -03495.7 -07.6374 26302.8
 20 10 2013  12 20  -21.0654 26069.5 -03495.6 -07.6371 26302.9
 20 10 2013  12 21  -21.0654 26069.6 -03495.5 -07.6369 26302.9
 20 10 2013  12 22  -21.0653 26069.7 -03495.4 -07.6366 26303.0
 20 10 2013  12 23  -21.0652 26069.8 -03495.3 -07.6364 26303.1
 20 10 2013  12 24  -21.0651 26070.0 -03495.3 -07.6364 26303.3
 20 10 2013  12 25  -21.0650 26070.3 -03495.3 -07.6363 26303.6
 20 10 2013  12 26  -21.0648 26070.6 -03495.3 -07.6361 26303.9
 20 10 2013  12 27  -21.0647 26071.0 -03495.3 -07.6360 26304.2
 20 10 2013  12 28  -21.0646 26071.2 -03495.2 -07.6358 26304.4
 20 10 2013  12 29  -21.0644 26071.3 -03495.1 -07.6354 26304.5
 20 10 2013  12 30  -21.0642 26071.6 -03495.0 -07.6352 26304.8
 20 10 2013  12 31  -21.0641 26071.8 -03494.9 -07.6350 26305.0
 20 10 2013  12 32  -21.0641 26072.1 -03494.9 -07.6347 26305.3
 20 10 2013  12 33  -21.0640 26072.6 -03494.9 -07.6346 26305.7
 20 10 2013  12 34  -21.0639 26072.9 -03494.8 -07.6343 26306.1
 20 10 2013  12 35  -21.0637 26073.2 -03494.6 -07.6339 26306.4
 20 10 2013  12 36  -21.0634 26073.5 -03494.5 -07.6335 26306.7
 20 10 2013  12 37  -21.0634 26073.9 -03494.4 -07.6332 26307.0
 20 10 2013  12 38  -21.0630 26074.1 -03494.2 -07.6327 26307.2
 20 10 2013  12 39  -21.0628 26074.3 -03494.0 -07.6323 26307.4
 20 10 2013  12 40  -21.0624 26074.6 -03493.9 -07.6319 26307.7
 20 10 2013  12 41  -21.0623 26074.9 -03493.8 -07.6316 26308.0
 20 10 2013  12 42  -21.0621 26075.2 -03493.7 -07.6313 26308.2
 20 10 2013  12 43  -21.0619 26075.5 -03493.5 -07.6309 26308.5
 20 10 2013  12 44  -21.0617 26075.8 -03493.4 -07.6306 26308.8
 20 10 2013  12 45  -21.0616 26076.2 -03493.3 -07.6302 26309.1
 20 10 2013  12 46  -21.0616 26076.7 -03493.3 -07.6300 26309.6
 20 10 2013  12 47  -21.0613 26077.0 -03493.1 -07.6296 26309.9
 20 10 2013  12 48  -21.0610 26077.4 -03493.0 -07.6293 26310.3
 20 10 2013  12 49  -21.0608 26077.7 -03492.9 -07.6289 26310.6
 20 10 2013  12 50  -21.0606 26078.0 -03492.8 -07.6285 26310.9
 20 10 2013  12 51  -21.0603 26078.3 -03492.7 -07.6282 26311.2
 20 10 2013  12 52  -21.0600 26078.6 -03492.5 -07.6278 26311.5
 20 10 2013  12 53  -21.0596 26078.9 -03492.4 -07.6274 26311.7
 20 10 2013  12 54  -21.0591 26079.0 -03492.2 -07.6270 26311.8
 20 10 2013  12 55  -21.0586 26079.3 -03492.2 -07.6268 26312.1
 20 10 2013  12 56  -21.0582 26079.6 -03492.1 -07.6266 26312.3
 20 10 2013  12 57  -21.0580 26079.9 -03492.0 -07.6264 26312.6
 20 10 2013  12 58  -21.0578 26080.2 -03491.9 -07.6261 26312.9
 20 10 2013  12 59  -21.0575 26080.3 -03491.8 -07.6257 26313.0
 20 10 2013  13 00  -21.0569 26080.5 -03491.6 -07.6254 26313.2
 20 10 2013  13 01  -21.0567 26080.8 -03491.6 -07.6252 26313.5
 20 10 2013  13 02  -21.0565 26080.9 -03491.5 -07.6250 26313.6
 20 10 2013  13 03  -21.0562 26080.9 -03491.3 -07.6246 26313.5
 20 10 2013  13 04  -21.0558 26081.1 -03491.3 -07.6244 26313.7
 20 10 2013  13 05  -21.0557 26081.2 -03491.2 -07.6242 26313.9
 20 10 2013  13 06  -21.0552 26081.3 -03491.1 -07.6240 26313.9
 20 10 2013  13 07  -21.0550 26081.4 -03491.1 -07.6239 26314.0
 20 10 2013  13 08  -21.0549 26081.6 -03491.0 -07.6238 26314.2
 20 10 2013  13 09  -21.0545 26081.6 -03491.0 -07.6236 26314.2
 20 10 2013  13 10  -21.0541 26081.7 -03490.9 -07.6235 26314.3
 20 10 2013  13 11  -21.0539 26081.8 -03490.9 -07.6234 26314.4
 20 10 2013  13 12  -21.0536 26082.0 -03490.9 -07.6234 26314.5
 20 10 2013  13 13  -21.0533 26082.1 -03490.9 -07.6234 26314.7
 20 10 2013  13 14  -21.0528 26082.3 -03491.0 -07.6233 26314.9
 20 10 2013  13 15  -21.0526 26082.7 -03491.0 -07.6234 26315.3
 20 10 2013  13 16  -21.0524 26082.9 -03491.0 -07.6233 26315.5
 20 10 2013  13 17  -21.0520 26083.0 -03490.9 -07.6231 26315.6
 20 10 2013  13 18  -21.0518 26083.3 -03490.9 -07.6230 26315.8
 20 10 2013  13 19  -21.0516 26083.4 -03490.9 -07.6229 26315.9
 20 10 2013  13 20  -21.0510 26083.3 -03490.8 -07.6227 26315.9
 20 10 2013  13 21  -21.0505 26083.2 -03490.7 -07.6225 26315.8
 20 10 2013  13 22  -21.0501 26083.2 -03490.6 -07.6224 26315.7
 20 10 2013  13 23  -21.0496 26083.2 -03490.6 -07.6223 26315.7
 20 10 2013  13 24  -21.0493 26083.2 -03490.6 -07.6224 26315.7
 20 10 2013  13 25  -21.0489 26083.3 -03490.6 -07.6224 26315.8
 20 10 2013  13 26  -21.0483 26083.4 -03490.7 -07.6225 26315.9
 20 10 2013  13 27  -21.0478 26083.5 -03490.7 -07.6224 26316.0
 20 10 2013  13 28  -21.0473 26083.4 -03490.7 -07.6224 26316.0
 20 10 2013  13 29  -21.0471 26083.5 -03490.7 -07.6225 26316.0
 20 10 2013  13 30  -21.0466 26083.4 -03490.7 -07.6225 26316.0
 20 10 2013  13 31  -21.0463 26083.5 -03490.7 -07.6225 26316.0
 20 10 2013  13 32  -21.0458 26083.7 -03490.8 -07.6226 26316.2
 20 10 2013  13 33  -21.0454 26083.7 -03490.8 -07.6226 26316.2
 20 10 2013  13 34  -21.0449 26083.6 -03490.7 -07.6225 26316.2
 20 10 2013  13 35  -21.0446 26083.7 -03490.8 -07.6226 26316.2
 20 10 2013  13 36  -21.0441 26083.6 -03490.7 -07.6224 26316.2
 20 10 2013  13 37  -21.0437 26083.6 -03490.7 -07.6224 26316.1
 20 10 2013  13 38  -21.0435 26083.8 -03490.7 -07.6224 26316.3
 20 10 2013  13 39  -21.0432 26083.8 -03490.7 -07.6224 26316.3
 20 10 2013  13 40  -21.0430 26083.9 -03490.7 -07.6223 26316.4
 20 10 2013  13 41  -21.0427 26083.9 -03490.6 -07.6221 26316.4
 20 10 2013  13 42  -21.0424 26083.7 -03490.5 -07.6219 26316.2
 20 10 2013  13 43  -21.0421 26083.6 -03490.3 -07.6217 26316.1
 20 10 2013  13 44  -21.0418 26083.5 -03490.3 -07.6216 26315.9
 20 10 2013  13 45  -21.0413 26083.1 -03490.1 -07.6213 26315.6
 20 10 2013  13 46  -21.0408 26082.9 -03490.1 -07.6213 26315.4
 20 10 2013  13 47  -21.0404 26082.8 -03490.0 -07.6212 26315.3
 20 10 2013  13 48  -21.0402 26082.8 -03490.0 -07.6213 26315.2
 20 10 2013  13 49  -21.0397 26082.5 -03489.9 -07.6211 26315.0
 20 10 2013  13 50  -21.0394 26082.5 -03490.0 -07.6212 26315.0
 20 10 2013  13 51  -21.0389 26082.5 -03490.0 -07.6212 26315.0
 20 10 2013  13 52  -21.0383 26082.4 -03489.9 -07.6211 26314.8
 20 10 2013  13 53  -21.0378 26082.2 -03489.9 -07.6211 26314.7
 20 10 2013  13 54  -21.0372 26082.2 -03489.9 -07.6211 26314.7
 20 10 2013  13 55  -21.0366 26082.2 -03489.9 -07.6212 26314.6
 20 10 2013  13 56  -21.0361 26082.1 -03489.9 -07.6212 26314.6
 20 10 2013  13 57  -21.0354 26082.0 -03489.9 -07.6211 26314.4
 20 10 2013  13 58  -21.0348 26081.8 -03489.8 -07.6210 26314.2
 20 10 2013  13 59  -21.0345 26081.8 -03489.8 -07.6211 26314.2
 20 10 2013  14 00  -21.0342 26081.7 -03489.9 -07.6212 26314.2
 20 10 2013  14 01  -21.0338 26081.5 -03489.8 -07.6211 26314.0
 20 10 2013  14 02  -21.0336 26081.5 -03489.8 -07.6211 26314.0
 20 10 2013  14 03  -21.0335 26081.5 -03489.8 -07.6211 26313.9
 20 10 2013  14 04  -21.0334 26081.4 -03489.8 -07.6210 26313.8
 20 10 2013  14 05  -21.0334 26081.2 -03489.7 -07.6209 26313.6
 20 10 2013  14 06  -21.0333 26081.3 -03489.7 -07.6210 26313.7
 20 10 2013  14 07  -21.0334 26081.4 -03489.8 -07.6211 26313.8
 20 10 2013  14 08  -21.0333 26081.0 -03489.6 -07.6208 26313.4
 20 10 2013  14 09  -21.0331 26080.9 -03489.6 -07.6208 26313.4
 20 10 2013  14 10  -21.0332 26080.9 -03489.6 -07.6207 26313.3
 20 10 2013  14 11  -21.0332 26080.5 -03489.4 -07.6206 26312.9
 20 10 2013  14 12  -21.0331 26080.1 -03489.3 -07.6204 26312.5
 20 10 2013  14 13  -21.0332 26079.9 -03489.3 -07.6205 26312.3
 20 10 2013  14 14  -21.0330 26079.6 -03489.2 -07.6204 26311.9
 20 10 2013  14 15  -21.0329 26079.4 -03489.2 -07.6205 26311.8
 20 10 2013  14 16  -21.0330 26079.1 -03489.2 -07.6205 26311.4
 20 10 2013  14 17  -21.0330 26078.9 -03489.2 -07.6206 26311.3
 20 10 2013  14 18  -21.0327 26078.6 -03489.1 -07.6205 26311.0
 20 10 2013  14 19  -21.0327 26078.7 -03489.2 -07.6207 26311.1
 20 10 2013  14 20  -21.0327 26078.6 -03489.3 -07.6208 26311.0
 20 10 2013  14 21  -21.0326 26078.5 -03489.3 -07.6208 26310.9
 20 10 2013  14 22  -21.0326 26078.5 -03489.3 -07.6210 26310.9
 20 10 2013  14 23  -21.0325 26078.6 -03489.4 -07.6211 26311.0
 20 10 2013  14 24  -21.0325 26078.5 -03489.3 -07.6210 26310.9
 20 10 2013  14 25  -21.0325 26078.3 -03489.3 -07.6209 26310.7
 20 10 2013  14 26  -21.0327 26078.2 -03489.3 -07.6210 26310.6
 20 10 2013  14 27  -21.0327 26078.2 -03489.3 -07.6210 26310.6
 20 10 2013  14 28  -21.0328 26078.2 -03489.3 -07.6211 26310.6
 20 10 2013  14 29  -21.0329 26078.2 -03489.3 -07.6210 26310.6
 20 10 2013  14 30  -21.0330 26078.0 -03489.2 -07.6209 26310.4
 20 10 2013  14 31  -21.0329 26077.7 -03489.2 -07.6208 26310.1
 20 10 2013  14 32  -21.0326 26077.5 -03489.1 -07.6208 26309.9
 20 10 2013  14 33  -21.0324 26077.1 -03489.0 -07.6206 26309.4
 20 10 2013  14 34  -21.0320 26076.6 -03488.9 -07.6205 26308.9
 20 10 2013  14 35  -21.0318 26076.3 -03488.9 -07.6206 26308.7
 20 10 2013  14 36  -21.0316 26076.2 -03488.9 -07.6207 26308.6
 20 10 2013  14 37  -21.0316 26076.1 -03489.0 -07.6208 26308.5
 20 10 2013  14 38  -21.0315 26076.0 -03489.0 -07.6209 26308.4
 20 10 2013  14 39  -21.0313 26075.8 -03489.0 -07.6210 26308.2
 20 10 2013  14 40  -21.0313 26075.5 -03488.9 -07.6209 26307.9
 20 10 2013  14 41  -21.0314 26075.2 -03488.9 -07.6210 26307.6
 20 10 2013  14 42  -21.0312 26075.0 -03488.9 -07.6210 26307.4
 20 10 2013  14 43  -21.0313 26074.6 -03488.9 -07.6211 26307.0
 20 10 2013  14 44  -21.0313 26074.4 -03488.8 -07.6211 26306.8
 20 10 2013  14 45  -21.0314 26074.1 -03488.9 -07.6212 26306.5
 20 10 2013  14 46  -21.0313 26073.6 -03488.8 -07.6212 26306.0
 20 10 2013  14 47  -21.0310 26072.9 -03488.7 -07.6212 26305.3
 20 10 2013  14 48  -21.0308 26072.5 -03488.7 -07.6213 26304.8
 20 10 2013  14 49  -21.0305 26072.4 -03488.9 -07.6217 26304.8
 20 10 2013  14 50  -21.0306 26072.1 -03489.0 -07.6220 26304.5
 20 10 2013  14 51  -21.0304 26071.4 -03488.8 -07.6219 26303.7
 20 10 2013  14 52  -21.0304 26071.5 -03489.1 -07.6225 26303.9
 20 10 2013  14 53  -21.0303 26071.2 -03489.1 -07.6227 26303.6
 20 10 2013  14 54  -21.0304 26070.5 -03489.1 -07.6227 26302.9
 20 10 2013  14 55  -21.0303 26070.3 -03489.3 -07.6232 26302.8
 20 10 2013  14 56  -21.0305 26069.8 -03489.3 -07.6233 26302.2
 20 10 2013  14 57  -21.0303 26069.4 -03489.3 -07.6236 26301.9
 20 10 2013  14 58  -21.0300 26069.1 -03489.4 -07.6239 26301.6
 20 10 2013  14 59  -21.0298 26068.7 -03489.5 -07.6242 26301.2
 20 10 2013  15 00  -21.0299 26068.5 -03489.7 -07.6247 26301.0
 20 10 2013  15 01  -21.0296 26068.3 -03489.9 -07.6251 26300.9
 20 10 2013  15 02  -21.0294 26068.1 -03490.1 -07.6255 26300.7
 20 10 2013  15 03  -21.0292 26068.0 -03490.2 -07.6258 26300.6
 20 10 2013  15 04  -21.0292 26067.7 -03490.3 -07.6261 26300.3
 20 10 2013  15 05  -21.0290 26067.4 -03490.4 -07.6264 26300.0
 20 10 2013  15 06  -21.0287 26067.3 -03490.5 -07.6267 26299.9
 20 10 2013  15 07  -21.0285 26067.0 -03490.6 -07.6270 26299.6
 20 10 2013  15 08  -21.0283 26067.0 -03490.8 -07.6274 26299.7
 20 10 2013  15 09  -21.0285 26066.5 -03490.8 -07.6275 26299.2
 20 10 2013  15 10  -21.0284 26066.7 -03491.0 -07.6280 26299.4
 20 10 2013  15 11  -21.0284 26066.5 -03491.1 -07.6282 26299.2
 20 10 2013  15 12  -21.0281 26066.2 -03491.1 -07.6283 26298.9
 20 10 2013  15 13  -21.0281 26066.0 -03491.2 -07.6286 26298.8
 20 10 2013  15 14  -21.0280 26065.6 -03491.2 -07.6287 26298.4
 20 10 2013  15 15  -21.0278 26065.7 -03491.4 -07.6291 26298.5
 20 10 2013  15 16  -21.0279 26065.4 -03491.4 -07.6293 26298.2
 20 10 2013  15 17  -21.0277 26065.2 -03491.5 -07.6294 26298.0
 20 10 2013  15 18  -21.0278 26065.4 -03491.7 -07.6299 26298.2
 20 10 2013  15 19  -21.0279 26064.8 -03491.6 -07.6298 26297.6
 20 10 2013  15 20  -21.0276 26064.3 -03491.5 -07.6298 26297.2
 20 10 2013  15 21  -21.0274 26063.9 -03491.5 -07.6299 26296.7
 20 10 2013  15 22  -21.0273 26063.5 -03491.6 -07.6301 26296.3
 20 10 2013  15 23  -21.0273 26063.0 -03491.6 -07.6303 26295.8
 20 10 2013  15 24  -21.0274 26062.8 -03491.8 -07.6307 26295.7
 20 10 2013  15 25  -21.0275 26062.2 -03491.7 -07.6307 26295.1
 20 10 2013  15 26  -21.0275 26062.0 -03491.9 -07.6312 26294.9
 20 10 2013  15 27  -21.0276 26061.2 -03491.7 -07.6311 26294.1
 20 10 2013  15 28  -21.0276 26060.7 -03491.8 -07.6314 26293.6
 20 10 2013  15 29  -21.0274 26060.3 -03491.8 -07.6317 26293.2
 20 10 2013  15 30  -21.0273 26060.0 -03492.0 -07.6321 26293.0
 20 10 2013  15 31  -21.0272 26060.0 -03492.2 -07.6325 26292.9
 20 10 2013  15 32  -21.0273 26059.4 -03492.2 -07.6326 26292.4
 20 10 2013  15 33  -21.0273 26058.9 -03492.2 -07.6327 26291.9
 20 10 2013  15 34  -21.0274 26058.6 -03492.2 -07.6330 26291.6
 20 10 2013  15 35  -21.0273 26058.3 -03492.3 -07.6332 26291.3
 20 10 2013  15 36  -21.0270 26058.1 -03492.4 -07.6335 26291.1
 20 10 2013  15 37  -21.0268 26058.2 -03492.6 -07.6339 26291.2
 20 10 2013  15 38  -21.0271 26057.9 -03492.6 -07.6340 26291.0
 20 10 2013  15 39  -21.0271 26057.6 -03492.6 -07.6342 26290.6
 20 10 2013  15 40  -21.0265 26057.6 -03492.7 -07.6342 26290.6
 20 10 2013  15 41  -21.0265 26057.2 -03492.7 -07.6343 26290.3
 20 10 2013  15 42  -21.0262 26056.8 -03492.6 -07.6344 26289.8
 20 10 2013  15 43  -21.0259 26056.4 -03492.7 -07.6346 26289.4
 20 10 2013  15 44  -21.0255 26056.0 -03492.7 -07.6348 26289.1
 20 10 2013  15 45  -21.0250 26055.8 -03492.8 -07.6351 26288.9
 20 10 2013  15 46  -21.0246 26055.3 -03492.9 -07.6353 26288.4
 20 10 2013  15 47  -21.0243 26054.9 -03492.9 -07.6356 26288.0
 20 10 2013  15 48  -21.0241 26054.5 -03493.0 -07.6359 26287.6
 20 10 2013  15 49  -21.0238 26054.3 -03493.1 -07.6361 26287.4
 20 10 2013  15 50  -21.0233 26053.9 -03493.2 -07.6364 26287.0
 20 10 2013  15 51  -21.0229 26053.3 -03493.2 -07.6366 26286.4
 20 10 2013  15 52  -21.0226 26052.6 -03493.2 -07.6368 26285.7
 20 10 2013  15 53  -21.0220 26052.1 -03493.3 -07.6372 26285.2
 20 10 2013  15 54  -21.0215 26051.6 -03493.4 -07.6376 26284.8
 20 10 2013  15 55  -21.0213 26051.4 -03493.7 -07.6382 26284.6
 20 10 2013  15 56  -21.0212 26051.1 -03493.9 -07.6387 26284.4
 20 10 2013  15 57  -21.0207 26050.8 -03494.0 -07.6391 26284.0
 20 10 2013  15 58  -21.0202 26050.5 -03494.2 -07.6396 26283.8
 20 10 2013  15 59  -21.0201 26050.2 -03494.4 -07.6401 26283.5
 20 10 2013  16 00  -21.0200 26049.9 -03494.6 -07.6406 26283.3
 20 10 2013  16 01  -21.0202 26049.7 -03494.8 -07.6412 26283.1
 20 10 2013  16 02  -21.0201 26049.5 -03495.1 -07.6417 26283.0
 20 10 2013  16 03  -21.0202 26049.2 -03495.2 -07.6421 26282.6
 20 10 2013  16 04  -21.0202 26048.9 -03495.4 -07.6426 26282.4
 20 10 2013  16 05  -21.0203 26048.8 -03495.6 -07.6430 26282.2
 20 10 2013  16 06  -21.0203 26048.6 -03495.9 -07.6437 26282.2
 20 10 2013  16 07  -21.0203 26048.4 -03496.0 -07.6441 26282.0
 20 10 2013  16 08  -21.0204 26047.9 -03496.1 -07.6444 26281.4
 20 10 2013  16 09  -21.0206 26047.3 -03496.2 -07.6448 26280.9
 20 10 2013  16 10  -21.0206 26046.7 -03496.3 -07.6452 26280.3
 20 10 2013  16 11  -21.0207 26046.3 -03496.4 -07.6456 26279.9
 20 10 2013  16 12  -21.0206 26046.2 -03496.8 -07.6464 26279.9
 20 10 2013  16 13  -21.0211 26045.8 -03496.9 -07.6469 26279.5
 20 10 2013  16 14  -21.0213 26045.7 -03497.2 -07.6474 26279.4
 20 10 2013  16 15  -21.0218 26044.9 -03497.1 -07.6476 26278.6
 20 10 2013  16 16  -21.0218 26044.5 -03497.3 -07.6479 26278.2
 20 10 2013  16 17  -21.0221 26044.3 -03497.5 -07.6484 26278.1
 20 10 2013  16 18  -21.0223 26044.3 -03497.8 -07.6492 26278.2
 20 10 2013  16 19  -21.0226 26044.2 -03498.0 -07.6497 26278.0
 20 10 2013  16 20  -21.0232 26043.8 -03498.1 -07.6499 26277.7
 20 10 2013  16 21  -21.0235 26043.4 -03498.1 -07.6501 26277.2
 20 10 2013  16 22  -21.0238 26043.0 -03498.2 -07.6505 26276.9
 20 10 2013  16 23  -21.0243 26042.5 -03498.3 -07.6506 26276.4
 20 10 2013  16 24  -21.0246 26042.2 -03498.4 -07.6510 26276.2
 20 10 2013  16 25  -21.0248 26041.9 -03498.5 -07.6513 26275.9
 20 10 2013  16 26  -21.0249 26041.8 -03498.6 -07.6517 26275.8
 20 10 2013  16 27  -21.0249 26041.2 -03498.6 -07.6518 26275.2
 20 10 2013  16 28  -21.0251 26041.0 -03498.8 -07.6522 26275.0
 20 10 2013  16 29  -21.0257 26040.5 -03498.8 -07.6525 26274.5
 20 10 2013  16 30  -21.0259 26040.2 -03498.9 -07.6528 26274.2
 20 10 2013  16 31  -21.0258 26039.7 -03499.0 -07.6530 26273.8
 20 10 2013  16 32  -21.0259 26039.4 -03499.1 -07.6533 26273.5
 20 10 2013  16 33  -21.0261 26039.2 -03499.2 -07.6537 26273.3
 20 10 2013  16 34  -21.0266 26039.0 -03499.4 -07.6541 26273.1
 20 10 2013  16 35  -21.0269 26038.5 -03499.4 -07.6543 26272.6
 20 10 2013  16 36  -21.0272 26038.2 -03499.5 -07.6546 26272.3
 20 10 2013  16 37  -21.0273 26038.1 -03499.7 -07.6551 26272.2
 20 10 2013  16 38  -21.0276 26037.6 -03499.7 -07.6552 26271.7
 20 10 2013  16 39  -21.0276 26037.2 -03499.7 -07.6553 26271.4
 20 10 2013  16 40  -21.0277 26037.0 -03499.8 -07.6557 26271.2
 20 10 2013  16 41  -21.0279 26036.9 -03500.0 -07.6561 26271.1
 20 10 2013  16 42  -21.0280 26036.7 -03500.1 -07.6564 26270.9
 20 10 2013  16 43  -21.0282 26036.7 -03500.3 -07.6567 26271.0
 20 10 2013  16 44  -21.0285 26036.7 -03500.4 -07.6569 26271.0
 20 10 2013  16 45  -21.0287 26036.8 -03500.5 -07.6572 26271.1
 20 10 2013  16 46  -21.0292 26036.9 -03500.6 -07.6574 26271.2
 20 10 2013  16 47  -21.0297 26036.8 -03500.5 -07.6572 26271.1
 20 10 2013  16 48  -21.0302 26036.6 -03500.4 -07.6569 26270.8
 20 10 2013  16 49  -21.0303 26036.1 -03500.1 -07.6565 26270.3
 20 10 2013  16 50  -21.0303 26035.5 -03499.8 -07.6560 26269.6
 20 10 2013  16 51  -21.0302 26034.8 -03499.6 -07.6557 26269.0
 20 10 2013  16 52  -21.0302 26034.4 -03499.4 -07.6555 26268.5
 20 10 2013  16 53  -21.0302 26034.3 -03499.4 -07.6556 26268.4
 20 10 2013  16 54  -21.0299 26033.9 -03499.3 -07.6554 26268.0
 20 10 2013  16 55  -21.0296 26033.6 -03499.2 -07.6553 26267.7
 20 10 2013  16 56  -21.0292 26033.2 -03499.1 -07.6552 26267.3
 20 10 2013  16 57  -21.0291 26033.1 -03499.2 -07.6554 26267.2
 20 10 2013  16 58  -21.0291 26033.0 -03499.2 -07.6555 26267.1
 20 10 2013  16 59  -21.0290 26033.0 -03499.3 -07.6557 26267.1
 20 10 2013  17 00  -21.0285 26032.8 -03499.3 -07.6558 26266.9
 20 10 2013  17 01  -21.0285 26032.8 -03499.4 -07.6559 26266.9
 20 10 2013  17 02  -21.0289 26032.8 -03499.4 -07.6559 26267.0
 20 10 2013  17 03  -21.0288 26032.4 -03499.2 -07.6555 26266.5
 20 10 2013  17 04  -21.0286 26032.3 -03499.1 -07.6555 26266.4
 20 10 2013  17 05  -21.0287 26032.0 -03499.1 -07.6555 26266.1
 20 10 2013  17 06  -21.0284 26031.6 -03498.9 -07.6553 26265.7
 20 10 2013  17 07  -21.0281 26031.3 -03498.9 -07.6552 26265.4
 20 10 2013  17 08  -21.0280 26030.8 -03498.8 -07.6553 26264.9
 20 10 2013  17 09  -21.0275 26030.6 -03498.9 -07.6555 26264.7
 20 10 2013  17 10  -21.0272 26030.3 -03498.9 -07.6557 26264.5
 20 10 2013  17 11  -21.0269 26030.1 -03499.0 -07.6560 26264.2
 20 10 2013  17 12  -21.0268 26030.0 -03499.2 -07.6564 26264.1
 20 10 2013  17 13  -21.0267 26029.9 -03499.4 -07.6567 26264.1
 20 10 2013  17 14  -21.0263 26029.9 -03499.5 -07.6570 26264.1
 20 10 2013  17 15  -21.0261 26029.6 -03499.5 -07.6572 26263.8
 20 10 2013  17 16  -21.0261 26029.5 -03499.7 -07.6575 26263.7
 20 10 2013  17 17  -21.0265 26029.5 -03499.8 -07.6578 26263.8
 20 10 2013  17 18  -21.0268 26029.3 -03499.9 -07.6580 26263.6
 20 10 2013  17 19  -21.0271 26029.1 -03499.9 -07.6581 26263.3
 20 10 2013  17 20  -21.0272 26029.0 -03499.9 -07.6582 26263.3
 20 10 2013  17 21  -21.0274 26028.9 -03500.0 -07.6584 26263.2
 20 10 2013  17 22  -21.0277 26028.9 -03500.0 -07.6584 26263.1
 20 10 2013  17 23  -21.0279 26028.4 -03499.9 -07.6583 26262.7
 20 10 2013  17 24  -21.0280 26028.3 -03499.9 -07.6583 26262.5
 20 10 2013  17 25  -21.0283 26028.1 -03500.0 -07.6586 26262.4
 20 10 2013  17 26  -21.0285 26027.7 -03499.9 -07.6585 26262.0
 20 10 2013  17 27  -21.0288 26027.6 -03499.9 -07.6585 26261.8
 20 10 2013  17 28  -21.0293 26027.5 -03500.0 -07.6587 26261.8
 20 10 2013  17 29  -21.0298 26027.6 -03500.0 -07.6588 26261.9
 20 10 2013  17 30  -21.0301 26027.6 -03500.1 -07.6589 26261.9
 20 10 2013  17 31  -21.0301 26027.5 -03500.0 -07.6588 26261.8
 20 10 2013  17 32  -21.0302 26027.6 -03500.0 -07.6588 26261.9
 20 10 2013  17 33  -21.0303 26027.8 -03500.1 -07.6589 26262.1
 20 10 2013  17 34  -21.0307 26028.0 -03500.2 -07.6591 26262.3
 20 10 2013  17 35  -21.0309 26027.9 -03500.1 -07.6589 26262.2
 20 10 2013  17 36  -21.0310 26027.9 -03500.1 -07.6588 26262.2
 20 10 2013  17 37  -21.0312 26027.8 -03500.0 -07.6586 26262.1
 20 10 2013  17 38  -21.0312 26027.7 -03499.9 -07.6586 26261.9
 20 10 2013  17 39  -21.0313 26027.5 -03499.9 -07.6586 26261.8
 20 10 2013  17 40  -21.0318 26027.6 -03500.0 -07.6589 26261.9
 20 10 2013  17 41  -21.0322 26027.7 -03500.1 -07.6589 26262.0
 20 10 2013  17 42  -21.0327 26027.7 -03500.1 -07.6589 26262.0
 20 10 2013  17 43  -21.0329 26027.3 -03499.9 -07.6586 26261.6
 20 10 2013  17 44  -21.0328 26027.1 -03499.8 -07.6585 26261.4
 20 10 2013  17 45  -21.0330 26027.3 -03499.9 -07.6587 26261.5
 20 10 2013  17 46  -21.0333 26027.2 -03499.9 -07.6587 26261.5
 20 10 2013  17 47  -21.0335 26026.8 -03499.8 -07.6586 26261.1
 20 10 2013  17 48  -21.0336 26026.4 -03499.7 -07.6584 26260.7
 20 10 2013  17 49  -21.0338 26026.6 -03499.8 -07.6587 26260.9
 20 10 2013  17 50  -21.0341 26026.9 -03500.0 -07.6590 26261.2
 20 10 2013  17 51  -21.0344 26027.0 -03500.0 -07.6590 26261.2
 20 10 2013  17 52  -21.0348 26026.8 -03500.0 -07.6589 26261.1
 20 10 2013  17 53  -21.0352 26026.7 -03499.9 -07.6588 26261.0
 20 10 2013  17 54  -21.0355 26026.5 -03499.8 -07.6587 26260.8
 20 10 2013  17 55  -21.0358 26026.2 -03499.7 -07.6585 26260.5
 20 10 2013  17 56  -21.0359 26026.2 -03499.7 -07.6586 26260.5
 20 10 2013  17 57  -21.0362 26026.3 -03499.9 -07.6588 26260.6
 20 10 2013  17 58  -21.0363 26026.2 -03499.8 -07.6587 26260.4
 20 10 2013  17 59  -21.0365 26026.0 -03499.8 -07.6587 26260.3
 20 10 2013  18 00  -21.0366 26026.1 -03499.8 -07.6587 26260.3
 20 10 2013  18 01  -21.0369 26026.0 -03499.7 -07.6586 26260.3
 20 10 2013  18 02  -21.0372 26026.1 -03499.8 -07.6587 26260.4
 20 10 2013  18 03  -21.0376 26026.4 -03499.9 -07.6589 26260.7
 20 10 2013  18 04  -21.0381 26026.4 -03499.9 -07.6588 26260.7
 20 10 2013  18 05  -21.0386 26026.3 -03499.8 -07.6586 26260.6
 20 10 2013  18 06  -21.0388 26026.1 -03499.6 -07.6583 26260.3
 20 10 2013  18 07  -21.0392 26025.8 -03499.4 -07.6580 26260.1
 20 10 2013  18 08  -21.0394 26025.6 -03499.3 -07.6579 26259.8
 20 10 2013  18 09  -21.0395 26025.6 -03499.3 -07.6578 26259.8
 20 10 2013  18 10  -21.0398 26025.7 -03499.3 -07.6578 26259.9
 20 10 2013  18 11  -21.0402 26025.8 -03499.3 -07.6577 26260.0
 20 10 2013  18 12  -21.0406 26025.6 -03499.2 -07.6575 26259.8
 20 10 2013  18 13  -21.0408 26025.6 -03499.0 -07.6572 26259.8
 20 10 2013  18 14  -21.0412 26025.5 -03498.9 -07.6570 26259.6
 20 10 2013  18 15  -21.0415 26025.2 -03498.7 -07.6566 26259.3
 20 10 2013  18 16  -21.0420 26025.0 -03498.5 -07.6562 26259.1
 20 10 2013  18 17  -21.0424 26024.8 -03498.3 -07.6560 26258.9
 20 10 2013  18 18  -21.0429 26024.8 -03498.3 -07.6558 26258.8
 20 10 2013  18 19  -21.0434 26024.7 -03498.1 -07.6556 26258.7
 20 10 2013  18 20  -21.0438 26024.5 -03498.0 -07.6553 26258.5
 20 10 2013  18 21  -21.0440 26024.2 -03497.8 -07.6549 26258.3
 20 10 2013  18 22  -21.0443 26024.0 -03497.6 -07.6545 26257.9
 20 10 2013  18 23  -21.0445 26023.9 -03497.4 -07.6542 26257.8
 20 10 2013  18 24  -21.0448 26023.8 -03497.3 -07.6540 26257.8
 20 10 2013  18 25  -21.0450 26023.8 -03497.2 -07.6537 26257.7
 20 10 2013  18 26  -21.0449 26023.7 -03497.0 -07.6533 26257.6
 20 10 2013  18 27  -21.0449 26023.7 -03496.9 -07.6531 26257.6
 20 10 2013  18 28  -21.0449 26023.7 -03496.7 -07.6527 26257.6
 20 10 2013  18 29  -21.0449 26023.6 -03496.5 -07.6523 26257.4
 20 10 2013  18 30  -21.0449 26023.7 -03496.4 -07.6521 26257.6
 20 10 2013  18 31  -21.0451 26023.9 -03496.3 -07.6519 26257.8
 20 10 2013  18 32  -21.0450 26024.1 -03496.2 -07.6515 26257.9
 20 10 2013  18 33  -21.0450 26024.1 -03496.0 -07.6511 26257.9
 20 10 2013  18 34  -21.0450 26024.3 -03495.9 -07.6508 26258.0
 20 10 2013  18 35  -21.0448 26024.4 -03495.8 -07.6506 26258.2
 20 10 2013  18 36  -21.0447 26024.6 -03495.6 -07.6502 26258.3
 20 10 2013  18 37  -21.0445 26024.7 -03495.5 -07.6498 26258.4
 20 10 2013  18 38  -21.0442 26024.7 -03495.3 -07.6494 26258.4
 20 10 2013  18 39  -21.0441 26024.7 -03495.1 -07.6490 26258.4
 20 10 2013  18 40  -21.0441 26024.7 -03494.9 -07.6486 26258.3
 20 10 2013  18 41  -21.0440 26024.8 -03494.8 -07.6483 26258.4
 20 10 2013  18 42  -21.0440 26024.9 -03494.7 -07.6480 26258.5
 20 10 2013  18 43  -21.0439 26025.0 -03494.6 -07.6478 26258.5
 20 10 2013  18 44  -21.0438 26024.9 -03494.4 -07.6474 26258.4
 20 10 2013  18 45  -21.0436 26024.9 -03494.2 -07.6471 26258.4
 20 10 2013  18 46  -21.0435 26024.9 -03494.0 -07.6467 26258.4
 20 10 2013  18 47  -21.0436 26025.0 -03494.0 -07.6465 26258.5
 20 10 2013  18 48  -21.0435 26025.0 -03493.8 -07.6462 26258.5
 20 10 2013  18 49  -21.0432 26025.0 -03493.7 -07.6459 26258.4
 20 10 2013  18 50  -21.0431 26024.9 -03493.5 -07.6456 26258.3
 20 10 2013  18 51  -21.0431 26024.8 -03493.4 -07.6453 26258.2
 20 10 2013  18 52  -21.0430 26024.8 -03493.2 -07.6450 26258.2
 20 10 2013  18 53  -21.0428 26024.8 -03493.1 -07.6447 26258.2
 20 10 2013  18 54  -21.0426 26024.9 -03493.0 -07.6444 26258.2
 20 10 2013  18 55  -21.0424 26024.8 -03492.9 -07.6442 26258.2
 20 10 2013  18 56  -21.0421 26024.6 -03492.7 -07.6438 26258.0
 20 10 2013  18 57  -21.0417 26024.6 -03492.5 -07.6435 26257.9
 20 10 2013  18 58  -21.0414 26024.5 -03492.4 -07.6432 26257.8
 20 10 2013  18 59  -21.0410 26024.5 -03492.2 -07.6429 26257.7
 20 10 2013  19 00  -21.0407 26024.5 -03492.1 -07.6427 26257.7
 20 10 2013  19 01  -21.0404 26024.5 -03492.0 -07.6424 26257.8
 20 10 2013  19 02  -21.0401 26024.6 -03491.9 -07.6422 26257.8
 20 10 2013  19 03  -21.0397 26024.7 -03491.8 -07.6419 26257.9
 20 10 2013  19 04  -21.0395 26024.8 -03491.8 -07.6417 26258.0
 20 10 2013  19 05  -21.0392 26024.8 -03491.6 -07.6414 26257.9
 20 10 2013  19 06  -21.0389 26024.8 -03491.5 -07.6412 26258.0
 20 10 2013  19 07  -21.0385 26024.9 -03491.4 -07.6410 26258.1
 20 10 2013  19 08  -21.0381 26025.0 -03491.4 -07.6408 26258.2
 20 10 2013  19 09  -21.0378 26025.0 -03491.3 -07.6407 26258.2
 20 10 2013  19 10  -21.0376 26025.0 -03491.3 -07.6406 26258.2
 20 10 2013  19 11  -21.0374 26025.0 -03491.2 -07.6404 26258.2
 20 10 2013  19 12  -21.0372 26025.1 -03491.1 -07.6403 26258.2
 20 10 2013  19 13  -21.0369 26025.1 -03491.1 -07.6403 26258.2
 20 10 2013  19 14  -21.0368 26025.1 -03491.1 -07.6402 26258.2
 20 10 2013  19 15  -21.0366 26025.1 -03491.1 -07.6401 26258.2
 20 10 2013  19 16  -21.0365 26025.2 -03491.1 -07.6401 26258.3
 20 10 2013  19 17  -21.0364 26025.2 -03491.0 -07.6400 26258.3
 20 10 2013  19 18  -21.0363 26025.1 -03490.9 -07.6399 26258.2
 20 10 2013  19 19  -21.0363 26024.9 -03490.8 -07.6397 26258.0
 20 10 2013  19 20  -21.0363 26024.9 -03490.8 -07.6397 26258.0
 20 10 2013  19 21  -21.0363 26024.9 -03490.8 -07.6397 26258.0
 20 10 2013  19 22  -21.0363 26025.1 -03490.9 -07.6397 26258.2
 20 10 2013  19 23  -21.0362 26025.1 -03490.8 -07.6396 26258.2
 20 10 2013  19 24  -21.0363 26025.2 -03490.8 -07.6396 26258.3
 20 10 2013  19 25  -21.0363 26025.3 -03490.9 -07.6397 26258.4
 20 10 2013  19 26  -21.0361 26025.5 -03491.0 -07.6398 26258.6
 20 10 2013  19 27  -21.0360 26025.7 -03491.1 -07.6401 26258.8
 20 10 2013  19 28  -21.0359 26025.8 -03491.2 -07.6402 26258.9
 20 10 2013  19 29  -21.0358 26025.7 -03491.1 -07.6400 26258.8
 20 10 2013  19 30  -21.0357 26025.7 -03491.1 -07.6399 26258.8
 20 10 2013  19 31  -21.0354 26025.8 -03491.1 -07.6399 26258.9
 20 10 2013  19 32  -21.0350 26025.8 -03491.0 -07.6399 26258.9
 20 10 2013  19 33  -21.0348 26025.9 -03491.2 -07.6401 26259.1
 20 10 2013  19 34  -21.0346 26026.2 -03491.3 -07.6404 26259.3
 20 10 2013  19 35  -21.0343 26026.4 -03491.5 -07.6407 26259.5
 20 10 2013  19 36  -21.0340 26026.5 -03491.6 -07.6409 26259.7
 20 10 2013  19 37  -21.0339 26026.7 -03491.7 -07.6411 26259.9
 20 10 2013  19 38  -21.0337 26026.9 -03491.8 -07.6412 26260.0
 20 10 2013  19 39  -21.0334 26027.0 -03491.9 -07.6414 26260.2
 20 10 2013  19 40  -21.0331 26027.1 -03491.9 -07.6414 26260.3
 20 10 2013  19 41  -21.0328 26027.3 -03492.0 -07.6416 26260.5
 20 10 2013  19 42  -21.0324 26027.5 -03492.2 -07.6418 26260.8
 20 10 2013  19 43  -21.0320 26027.7 -03492.3 -07.6420 26260.9
 20 10 2013  19 44  -21.0316 26027.6 -03492.2 -07.6419 26260.9
 20 10 2013  19 45  -21.0313 26027.6 -03492.2 -07.6419 26260.9
 20 10 2013  19 46  -21.0310 26027.7 -03492.2 -07.6419 26260.9
 20 10 2013  19 47  -21.0309 26027.9 -03492.3 -07.6421 26261.1
 20 10 2013  19 48  -21.0306 26028.0 -03492.4 -07.6421 26261.3
 20 10 2013  19 49  -21.0303 26028.1 -03492.4 -07.6422 26261.4
 20 10 2013  19 50  -21.0300 26028.3 -03492.5 -07.6424 26261.6
 20 10 2013  19 51  -21.0298 26028.5 -03492.6 -07.6425 26261.7
 20 10 2013  19 52  -21.0296 26028.6 -03492.6 -07.6425 26261.9
 20 10 2013  19 53  -21.0292 26028.6 -03492.6 -07.6425 26261.9
 20 10 2013  19 54  -21.0290 26028.6 -03492.6 -07.6425 26261.9
 20 10 2013  19 55  -21.0288 26028.7 -03492.7 -07.6426 26262.0
 20 10 2013  19 56  -21.0285 26028.8 -03492.7 -07.6426 26262.1
 20 10 2013  19 57  -21.0283 26028.9 -03492.8 -07.6427 26262.2
 20 10 2013  19 58  -21.0280 26029.0 -03492.8 -07.6428 26262.3
 20 10 2013  19 59  -21.0279 26029.0 -03492.8 -07.6428 26262.3
 20 10 2013  20 00  -21.0277 26029.1 -03492.9 -07.6429 26262.4
 20 10 2013  20 01  -21.0276 26029.2 -03492.9 -07.6429 26262.5
 20 10 2013  20 02  -21.0274 26029.2 -03492.9 -07.6429 26262.5
 20 10 2013  20 03  -21.0274 26029.1 -03492.9 -07.6430 26262.4
 20 10 2013  20 04  -21.0273 26029.1 -03492.9 -07.6430 26262.4
 20 10 2013  20 05  -21.0272 26029.1 -03492.9 -07.6430 26262.4
 20 10 2013  20 06  -21.0269 26029.0 -03492.9 -07.6430 26262.3
 20 10 2013  20 07  -21.0267 26028.9 -03492.9 -07.6430 26262.3
 20 10 2013  20 08  -21.0265 26028.9 -03492.9 -07.6430 26262.2
 20 10 2013  20 09  -21.0264 26028.8 -03492.9 -07.6430 26262.1
 20 10 2013  20 10  -21.0262 26028.8 -03492.9 -07.6431 26262.1
 20 10 2013  20 11  -21.0259 26028.9 -03493.0 -07.6433 26262.2
 20 10 2013  20 12  -21.0256 26029.0 -03493.1 -07.6435 26262.3
 20 10 2013  20 13  -21.0253 26028.9 -03493.2 -07.6436 26262.3
 20 10 2013  20 14  -21.0249 26028.9 -03493.2 -07.6436 26262.2
 20 10 2013  20 15  -21.0247 26028.9 -03493.2 -07.6438 26262.2
 20 10 2013  20 16  -21.0244 26028.9 -03493.3 -07.6439 26262.2
 20 10 2013  20 17  -21.0242 26028.8 -03493.3 -07.6439 26262.2
 20 10 2013  20 18  -21.0240 26028.8 -03493.3 -07.6439 26262.2
 20 10 2013  20 19  -21.0237 26028.8 -03493.4 -07.6441 26262.2
 20 10 2013  20 20  -21.0235 26028.7 -03493.3 -07.6440 26262.0
 20 10 2013  20 21  -21.0232 26028.6 -03493.3 -07.6439 26262.0
 20 10 2013  20 22  -21.0229 26028.6 -03493.3 -07.6441 26262.0
 20 10 2013  20 23  -21.0226 26028.6 -03493.4 -07.6442 26261.9
 20 10 2013  20 24  -21.0222 26028.5 -03493.4 -07.6442 26261.9
 20 10 2013  20 25  -21.0220 26028.5 -03493.5 -07.6444 26261.9
 20 10 2013  20 26  -21.0217 26028.5 -03493.5 -07.6445 26261.9
 20 10 2013  20 27  -21.0213 26028.5 -03493.6 -07.6446 26261.9
 20 10 2013  20 28  -21.0208 26028.6 -03493.7 -07.6448 26262.0
 20 10 2013  20 29  -21.0205 26028.6 -03493.7 -07.6449 26262.1
 20 10 2013  20 30  -21.0202 26028.6 -03493.7 -07.6449 26262.0
 20 10 2013  20 31  -21.0199 26028.5 -03493.7 -07.6450 26262.0
 20 10 2013  20 32  -21.0196 26028.5 -03493.8 -07.6450 26261.9
 20 10 2013  20 33  -21.0193 26028.5 -03493.9 -07.6452 26262.0
 20 10 2013  20 34  -21.0189 26028.5 -03493.9 -07.6454 26262.0
 20 10 2013  20 35  -21.0185 26028.5 -03494.0 -07.6455 26262.0
 20 10 2013  20 36  -21.0182 26028.4 -03494.0 -07.6455 26261.9
 20 10 2013  20 37  -21.0179 26028.3 -03493.9 -07.6454 26261.8
 20 10 2013  20 38  -21.0176 26028.2 -03493.9 -07.6454 26261.7
 20 10 2013  20 39  -21.0175 26028.1 -03493.9 -07.6455 26261.6
 20 10 2013  20 40  -21.0174 26028.1 -03494.0 -07.6456 26261.5
 20 10 2013  20 41  -21.0171 26028.0 -03494.0 -07.6457 26261.5
 20 10 2013  20 42  -21.0168 26027.9 -03494.0 -07.6457 26261.4
 20 10 2013  20 43  -21.0166 26027.7 -03493.9 -07.6456 26261.2
 20 10 2013  20 44  -21.0163 26027.5 -03493.9 -07.6456 26261.0
 20 10 2013  20 45  -21.0160 26027.4 -03493.9 -07.6455 26260.8
 20 10 2013  20 46  -21.0158 26027.3 -03493.9 -07.6456 26260.7
 20 10 2013  20 47  -21.0154 26027.2 -03493.9 -07.6457 26260.7
 20 10 2013  20 48  -21.0152 26027.0 -03493.9 -07.6458 26260.5
 20 10 2013  20 49  -21.0149 26026.9 -03494.0 -07.6459 26260.4
 20 10 2013  20 50  -21.0146 26026.8 -03494.0 -07.6460 26260.2
 20 10 2013  20 51  -21.0143 26026.6 -03494.0 -07.6461 26260.0
 20 10 2013  20 52  -21.0141 26026.4 -03494.0 -07.6462 26259.9
 20 10 2013  20 53  -21.0139 26026.2 -03494.1 -07.6463 26259.7
 20 10 2013  20 54  -21.0137 26026.1 -03494.1 -07.6465 26259.6
 20 10 2013  20 55  -21.0135 26025.9 -03494.2 -07.6467 26259.4
 20 10 2013  20 56  -21.0134 26025.7 -03494.2 -07.6468 26259.2
 20 10 2013  20 57  -21.0133 26025.5 -03494.3 -07.6470 26259.0
 20 10 2013  20 58  -21.0134 26025.3 -03494.4 -07.6473 26258.9
 20 10 2013  20 59  -21.0134 26025.1 -03494.5 -07.6475 26258.7
 20 10 2013  21 00  -21.0134 26025.0 -03494.5 -07.6477 26258.6
 20 10 2013  21 01  -21.0135 26024.9 -03494.6 -07.6479 26258.5
 20 10 2013  21 02  -21.0135 26024.7 -03494.7 -07.6481 26258.3
 20 10 2013  21 03  -21.0136 26024.5 -03494.7 -07.6482 26258.1
 20 10 2013  21 04  -21.0135 26024.3 -03494.7 -07.6483 26257.9
 20 10 2013  21 05  -21.0136 26024.1 -03494.7 -07.6484 26257.7
 20 10 2013  21 06  -21.0137 26023.9 -03494.8 -07.6485 26257.5
 20 10 2013  21 07  -21.0138 26023.8 -03494.8 -07.6485 26257.4
 20 10 2013  21 08  -21.0139 26023.7 -03494.8 -07.6487 26257.3
 20 10 2013  21 09  -21.0140 26023.6 -03494.9 -07.6488 26257.2
 20 10 2013  21 10  -21.0140 26023.4 -03494.9 -07.6489 26257.1
 20 10 2013  21 11  -21.0140 26023.3 -03494.9 -07.6490 26257.0
 20 10 2013  21 12  -21.0140 26023.2 -03495.0 -07.6491 26256.9
 20 10 2013  21 13  -21.0139 26023.2 -03495.0 -07.6493 26256.8
 20 10 2013  21 14  -21.0138 26023.1 -03495.1 -07.6494 26256.7
 20 10 2013  21 15  -21.0137 26023.0 -03495.1 -07.6496 26256.6
 20 10 2013  21 16  -21.0134 26023.0 -03495.2 -07.6497 26256.7
 20 10 2013  21 17  -21.0133 26023.0 -03495.3 -07.6499 26256.7
 20 10 2013  21 18  -21.0131 26023.0 -03495.4 -07.6502 26256.7
 20 10 2013  21 19  -21.0129 26023.0 -03495.5 -07.6504 26256.7
 20 10 2013  21 20  -21.0128 26023.0 -03495.6 -07.6505 26256.7
 20 10 2013  21 21  -21.0125 26023.0 -03495.7 -07.6508 26256.7
 20 10 2013  21 22  -21.0123 26023.0 -03495.8 -07.6510 26256.7
 20 10 2013  21 23  -21.0121 26022.9 -03495.8 -07.6511 26256.7
 20 10 2013  21 24  -21.0119 26022.9 -03495.9 -07.6513 26256.7
 20 10 2013  21 25  -21.0117 26022.9 -03496.0 -07.6515 26256.7
 20 10 2013  21 26  -21.0114 26023.0 -03496.1 -07.6518 26256.8
 20 10 2013  21 27  -21.0110 26023.2 -03496.3 -07.6521 26257.0
 20 10 2013  21 28  -21.0108 26023.4 -03496.5 -07.6524 26257.2
 20 10 2013  21 29  -21.0105 26023.5 -03496.6 -07.6527 26257.3
 20 10 2013  21 30  -21.0102 26023.5 -03496.7 -07.6528 26257.3
 20 10 2013  21 31  -21.0100 26023.5 -03496.8 -07.6530 26257.3
 20 10 2013  21 32  -21.0099 26023.5 -03496.9 -07.6532 26257.4
 20 10 2013  21 33  -21.0099 26023.6 -03497.0 -07.6534 26257.5
 20 10 2013  21 34  -21.0096 26023.7 -03497.1 -07.6536 26257.6
 20 10 2013  21 35  -21.0094 26023.6 -03497.1 -07.6537 26257.5
 20 10 2013  21 36  -21.0093 26023.5 -03497.1 -07.6537 26257.4
 20 10 2013  21 37  -21.0093 26023.3 -03497.1 -07.6537 26257.3
 20 10 2013  21 38  -21.0093 26023.2 -03497.1 -07.6537 26257.1
 20 10 2013  21 39  -21.0093 26023.1 -03497.1 -07.6537 26257.0
 20 10 2013  21 40  -21.0092 26022.9 -03497.1 -07.6539 26256.9
 20 10 2013  21 41  -21.0093 26022.8 -03497.2 -07.6540 26256.8
 20 10 2013  21 42  -21.0094 26022.8 -03497.2 -07.6541 26256.8
 20 10 2013  21 43  -21.0095 26022.8 -03497.3 -07.6542 26256.8
 20 10 2013  21 44  -21.0096 26022.7 -03497.3 -07.6543 26256.7
 20 10 2013  21 45  -21.0098 26022.6 -03497.2 -07.6542 26256.6
 20 10 2013  21 46  -21.0099 26022.7 -03497.3 -07.6544 26256.6
 20 10 2013  21 47  -21.0099 26022.7 -03497.4 -07.6545 26256.6
 20 10 2013  21 48  -21.0099 26022.6 -03497.4 -07.6545 26256.6
 20 10 2013  21 49  -21.0098 26022.7 -03497.4 -07.6546 26256.6
 20 10 2013  21 50  -21.0096 26022.8 -03497.5 -07.6547 26256.7
 20 10 2013  21 51  -21.0095 26022.8 -03497.5 -07.6548 26256.8
 20 10 2013  21 52  -21.0094 26022.8 -03497.5 -07.6548 26256.7
 20 10 2013  21 53  -21.0093 26022.6 -03497.5 -07.6548 26256.6
 20 10 2013  21 54  -21.0092 26022.6 -03497.5 -07.6548 26256.6
 20 10 2013  21 55  -21.0092 26022.5 -03497.5 -07.6549 26256.5
 20 10 2013  21 56  -21.0090 26022.5 -03497.5 -07.6549 26256.5
 20 10 2013  21 57  -21.0088 26022.6 -03497.6 -07.6550 26256.6
 20 10 2013  21 58  -21.0086 26022.6 -03497.6 -07.6550 26256.6
 20 10 2013  21 59  -21.0085 26022.5 -03497.6 -07.6550 26256.5
 20 10 2013  22 00  -21.0084 26022.4 -03497.5 -07.6549 26256.4
 20 10 2013  22 01  -21.0084 26022.3 -03497.5 -07.6549 26256.3
 20 10 2013  22 02  -21.0084 26022.3 -03497.5 -07.6549 26256.3
 20 10 2013  22 03  -21.0083 26022.2 -03497.5 -07.6549 26256.2
 20 10 2013  22 04  -21.0082 26022.2 -03497.5 -07.6549 26256.2
 20 10 2013  22 05  -21.0079 26022.1 -03497.5 -07.6549 26256.1
 20 10 2013  22 06  -21.0077 26022.1 -03497.4 -07.6548 26256.1
 20 10 2013  22 07  -21.0076 26022.1 -03497.5 -07.6548 26256.1
 20 10 2013  22 08  -21.0074 26022.2 -03497.5 -07.6549 26256.2
 20 10 2013  22 09  -21.0072 26022.2 -03497.5 -07.6549 26256.2
 20 10 2013  22 10  -21.0071 26022.3 -03497.6 -07.6550 26256.3
 20 10 2013  22 11  -21.0070 26022.4 -03497.6 -07.6550 26256.3
 20 10 2013  22 12  -21.0070 26022.4 -03497.6 -07.6551 26256.4
 20 10 2013  22 13  -21.0068 26022.4 -03497.6 -07.6551 26256.4
 20 10 2013  22 14  -21.0068 26022.4 -03497.6 -07.6551 26256.4
 20 10 2013  22 15  -21.0068 26022.3 -03497.6 -07.6551 26256.3
 20 10 2013  22 16  -21.0069 26022.2 -03497.5 -07.6550 26256.2
 20 10 2013  22 17  -21.0070 26022.1 -03497.5 -07.6549 26256.1
 20 10 2013  22 18  -21.0071 26022.0 -03497.4 -07.6548 26256.0
 20 10 2013  22 19  -21.0073 26021.9 -03497.4 -07.6547 26255.9
 20 10 2013  22 20  -21.0073 26021.9 -03497.4 -07.6547 26255.9
 20 10 2013  22 21  -21.0073 26021.9 -03497.3 -07.6547 26255.9
 20 10 2013  22 22  -21.0073 26021.8 -03497.3 -07.6546 26255.7
 20 10 2013  22 23  -21.0075 26021.6 -03497.2 -07.6545 26255.6
 20 10 2013  22 24  -21.0074 26021.6 -03497.2 -07.6545 26255.5
 20 10 2013  22 25  -21.0075 26021.5 -03497.2 -07.6545 26255.5
 20 10 2013  22 26  -21.0073 26021.4 -03497.2 -07.6544 26255.4
 20 10 2013  22 27  -21.0073 26021.3 -03497.1 -07.6543 26255.3
 20 10 2013  22 28  -21.0073 26021.3 -03497.1 -07.6544 26255.3
 20 10 2013  22 29  -21.0072 26021.3 -03497.1 -07.6544 26255.3
 20 10 2013  22 30  -21.0071 26021.5 -03497.3 -07.6546 26255.4
 20 10 2013  22 31  -21.0069 26021.5 -03497.3 -07.6546 26255.5
 20 10 2013  22 32  -21.0068 26021.5 -03497.3 -07.6546 26255.4
 20 10 2013  22 33  -21.0069 26021.4 -03497.3 -07.6546 26255.4
 20 10 2013  22 34  -21.0069 26021.4 -03497.2 -07.6546 26255.3
 20 10 2013  22 35  -21.0069 26021.4 -03497.3 -07.6546 26255.3
 20 10 2013  22 36  -21.0069 26021.3 -03497.3 -07.6547 26255.3
 20 10 2013  22 37  -21.0071 26021.3 -03497.3 -07.6547 26255.3
 20 10 2013  22 38  -21.0071 26021.3 -03497.3 -07.6547 26255.2
 20 10 2013  22 39  -21.0071 26021.2 -03497.2 -07.6547 26255.2
 20 10 2013  22 40  -21.0071 26021.1 -03497.2 -07.6546 26255.1
 20 10 2013  22 41  -21.0072 26021.0 -03497.2 -07.6546 26255.0
 20 10 2013  22 42  -21.0072 26020.9 -03497.1 -07.6544 26254.8
 20 10 2013  22 43  -21.0072 26020.7 -03497.0 -07.6543 26254.7
 20 10 2013  22 44  -21.0073 26020.5 -03497.0 -07.6543 26254.5
 20 10 2013  22 45  -21.0074 26020.4 -03496.9 -07.6542 26254.3
 20 10 2013  22 46  -21.0074 26020.3 -03496.9 -07.6541 26254.2
 20 10 2013  22 47  -21.0073 26020.3 -03496.9 -07.6541 26254.2
 20 10 2013  22 48  -21.0073 26020.1 -03496.8 -07.6540 26254.0
 20 10 2013  22 49  -21.0073 26020.0 -03496.8 -07.6541 26253.9
 20 10 2013  22 50  -21.0072 26020.0 -03496.8 -07.6540 26253.9
 20 10 2013  22 51  -21.0070 26020.2 -03496.9 -07.6542 26254.1
 20 10 2013  22 52  -21.0067 26020.4 -03497.1 -07.6545 26254.4
 20 10 2013  22 53  -21.0064 26020.8 -03497.3 -07.6549 26254.8
 20 10 2013  22 54  -21.0057 26021.2 -03497.5 -07.6552 26255.2
 20 10 2013  22 55  -21.0052 26021.5 -03497.7 -07.6554 26255.6
 20 10 2013  22 56  -21.0047 26021.9 -03497.8 -07.6557 26255.9
 20 10 2013  22 57  -21.0040 26022.3 -03498.0 -07.6560 26256.3
 20 10 2013  22 58  -21.0034 26022.7 -03498.2 -07.6563 26256.8
 20 10 2013  22 59  -21.0028 26023.1 -03498.4 -07.6566 26257.2
 20 10 2013  23 00  -21.0024 26023.4 -03498.5 -07.6568 26257.5
 20 10 2013  23 01  -21.0020 26023.5 -03498.6 -07.6569 26257.7
 20 10 2013  23 02  -21.0017 26023.6 -03498.6 -07.6569 26257.8
 20 10 2013  23 03  -21.0013 26023.8 -03498.6 -07.6569 26257.9
 20 10 2013  23 04  -21.0010 26024.0 -03498.7 -07.6569 26258.1
 20 10 2013  23 05  -21.0010 26023.9 -03498.6 -07.6569 26258.0
 20 10 2013  23 06  -21.0010 26023.7 -03498.5 -07.6567 26257.8
 20 10 2013  23 07  -21.0010 26023.5 -03498.4 -07.6564 26257.6
 20 10 2013  23 08  -21.0013 26023.3 -03498.2 -07.6562 26257.4
 20 10 2013  23 09  -21.0016 26023.1 -03498.1 -07.6559 26257.1
 20 10 2013  23 10  -21.0019 26022.8 -03497.9 -07.6557 26256.9
 20 10 2013  23 11  -21.0021 26022.6 -03497.8 -07.6554 26256.7
 20 10 2013  23 12  -21.0024 26022.4 -03497.6 -07.6552 26256.4
 20 10 2013  23 13  -21.0027 26022.1 -03497.5 -07.6549 26256.1
 20 10 2013  23 14  -21.0030 26021.9 -03497.4 -07.6547 26255.9
 20 10 2013  23 15  -21.0031 26021.8 -03497.3 -07.6546 26255.8
 20 10 2013  23 16  -21.0032 26021.7 -03497.2 -07.6545 26255.7
 20 10 2013  23 17  -21.0034 26021.7 -03497.2 -07.6545 26255.7
 20 10 2013  23 18  -21.0034 26021.8 -03497.3 -07.6545 26255.8
 20 10 2013  23 19  -21.0033 26021.8 -03497.3 -07.6545 26255.7
 20 10 2013  23 20  -21.0032 26021.8 -03497.3 -07.6545 26255.8
 20 10 2013  23 21  -21.0032 26021.9 -03497.3 -07.6545 26255.8
 20 10 2013  23 22  -21.0032 26021.9 -03497.3 -07.6545 26255.9
 20 10 2013  23 23  -21.0031 26021.9 -03497.3 -07.6545 26255.9
 20 10 2013  23 24  -21.0032 26022.0 -03497.3 -07.6546 26256.0
 20 10 2013  23 25  -21.0031 26022.1 -03497.3 -07.6545 26256.0
 20 10 2013  23 26  -21.0030 26022.0 -03497.3 -07.6545 26256.0
 20 10 2013  23 27  -21.0031 26022.0 -03497.3 -07.6544 26255.9
 20 10 2013  23 28  -21.0032 26022.0 -03497.2 -07.6544 26255.9
 20 10 2013  23 29  -21.0033 26022.0 -03497.2 -07.6544 26256.0
 20 10 2013  23 30  -21.0033 26022.1 -03497.3 -07.6545 26256.1
 20 10 2013  23 31  -21.0032 26022.1 -03497.3 -07.6544 26256.1
 20 10 2013  23 32  -21.0032 26022.1 -03497.3 -07.6544 26256.1
 20 10 2013  23 33  -21.0033 26022.1 -03497.2 -07.6544 26256.0
 20 10 2013  23 34  -21.0034 26022.1 -03497.2 -07.6544 26256.1
 20 10 2013  23 35  -21.0033 26022.1 -03497.2 -07.6543 26256.1
 20 10 2013  23 36  -21.0033 26022.1 -03497.2 -07.6543 26256.1
 20 10 2013  23 37  -21.0035 26022.1 -03497.2 -07.6543 26256.0
 20 10 2013  23 38  -21.0036 26022.0 -03497.2 -07.6542 26256.0
 20 10 2013  23 39  -21.0034 26022.0 -03497.1 -07.6542 26256.0
 20 10 2013  23 40  -21.0034 26021.9 -03497.1 -07.6541 26255.9
 20 10 2013  23 41  -21.0035 26021.8 -03497.0 -07.6540 26255.8
 20 10 2013  23 42  -21.0036 26021.8 -03497.0 -07.6540 26255.7
 20 10 2013  23 43  -21.0037 26021.7 -03497.0 -07.6539 26255.6
 20 10 2013  23 44  -21.0039 26021.7 -03497.0 -07.6540 26255.6
 20 10 2013  23 45  -21.0040 26021.6 -03497.0 -07.6539 26255.5
 20 10 2013  23 46  -21.0042 26021.5 -03496.9 -07.6538 26255.4
 20 10 2013  23 47  -21.0042 26021.5 -03496.9 -07.6539 26255.4
 20 10 2013  23 48  -21.0042 26021.5 -03496.9 -07.6539 26255.4
 20 10 2013  23 49  -21.0042 26021.4 -03496.9 -07.6538 26255.3
 20 10 2013  23 50  -21.0042 26021.5 -03496.9 -07.6538 26255.4
 20 10 2013  23 51  -21.0042 26021.6 -03497.0 -07.6539 26255.5
 20 10 2013  23 52  -21.0043 26021.7 -03497.1 -07.6541 26255.6
 20 10 2013  23 53  -21.0042 26021.8 -03497.1 -07.6542 26255.7
 20 10 2013  23 54  -21.0040 26021.8 -03497.1 -07.6542 26255.7
 20 10 2013  23 55  -21.0039 26021.8 -03497.1 -07.6542 26255.8
 20 10 2013  23 56  -21.0038 26021.9 -03497.2 -07.6543 26255.8
 20 10 2013  23 57  -21.0037 26021.9 -03497.2 -07.6543 26255.9
