SAO LUIS EMBRACE-03 <088> 1 Min. Reported data

 DD MM YYYY  HH MM   D(Deg)  H(nT)   Z(nT)   I(Deg)   F(nT)

 29 03 2013  00 00  -21.0533 26032.0 -03420.3 -07.4852 26255.8
 29 03 2013  00 01  -21.0534 26031.6 -03420.1 -07.4847 26255.3
 29 03 2013  00 02  -21.0535 26031.1 -03419.9 -07.4845 26254.8
 29 03 2013  00 03  -21.0537 26030.7 -03419.7 -07.4843 26254.4
 29 03 2013  00 04  -21.0537 26030.7 -03419.7 -07.4843 26254.3
 29 03 2013  00 05  -21.0538 26030.8 -03419.8 -07.4844 26254.4
 29 03 2013  00 06  -21.0535 26031.3 -03420.2 -07.4850 26255.0
 29 03 2013  00 07  -21.0533 26031.8 -03420.4 -07.4855 26255.5
 29 03 2013  00 08  -21.0529 26032.2 -03420.7 -07.4859 26256.0
 29 03 2013  00 09  -21.0530 26032.2 -03420.8 -07.4860 26255.9
 29 03 2013  00 10  -21.0535 26031.7 -03420.5 -07.4857 26255.5
 29 03 2013  00 11  -21.0542 26031.0 -03420.2 -07.4852 26254.8
 29 03 2013  00 12  -21.0548 26030.3 -03419.8 -07.4845 26254.0
 29 03 2013  00 13  -21.0552 26029.7 -03419.5 -07.4840 26253.3
 29 03 2013  00 14  -21.0554 26029.5 -03419.4 -07.4839 26253.1
 29 03 2013  00 15  -21.0556 26029.3 -03419.3 -07.4838 26253.0
 29 03 2013  00 16  -21.0557 26029.2 -03419.3 -07.4837 26252.8
 29 03 2013  00 17  -21.0555 26029.3 -03419.4 -07.4840 26253.0
 29 03 2013  00 18  -21.0554 26029.1 -03419.4 -07.4839 26252.8
 29 03 2013  00 19  -21.0551 26029.1 -03419.4 -07.4839 26252.7
 29 03 2013  00 20  -21.0547 26029.2 -03419.4 -07.4840 26252.8
 29 03 2013  00 21  -21.0544 26029.1 -03419.5 -07.4841 26252.7
 29 03 2013  00 22  -21.0544 26028.9 -03419.4 -07.4841 26252.5
 29 03 2013  00 23  -21.0545 26028.2 -03419.1 -07.4837 26251.8
 29 03 2013  00 24  -21.0539 26027.9 -03419.0 -07.4835 26251.5
 29 03 2013  00 25  -21.0538 26027.3 -03418.8 -07.4831 26250.9
 29 03 2013  00 26  -21.0536 26027.1 -03418.7 -07.4831 26250.7
 29 03 2013  00 27  -21.0537 26026.8 -03418.7 -07.4831 26250.4
 29 03 2013  00 28  -21.0536 26026.4 -03418.6 -07.4830 26250.0
 29 03 2013  00 29  -21.0534 26026.1 -03418.5 -07.4829 26249.6
 29 03 2013  00 30  -21.0530 26025.8 -03418.5 -07.4829 26249.3
 29 03 2013  00 31  -21.0528 26025.4 -03418.4 -07.4828 26248.9
 29 03 2013  00 32  -21.0527 26025.0 -03418.3 -07.4828 26248.6
 29 03 2013  00 33  -21.0524 26024.8 -03418.3 -07.4828 26248.3
 29 03 2013  00 34  -21.0522 26024.7 -03418.4 -07.4830 26248.3
 29 03 2013  00 35  -21.0521 26024.9 -03418.5 -07.4833 26248.4
 29 03 2013  00 36  -21.0521 26024.8 -03418.7 -07.4836 26248.4
 29 03 2013  00 37  -21.0522 26024.8 -03418.8 -07.4839 26248.4
 29 03 2013  00 38  -21.0522 26024.8 -03418.9 -07.4841 26248.4
 29 03 2013  00 39  -21.0523 26024.7 -03418.9 -07.4842 26248.4
 29 03 2013  00 40  -21.0521 26025.1 -03419.1 -07.4845 26248.7
 29 03 2013  00 41  -21.0515 26025.9 -03419.6 -07.4853 26249.6
 29 03 2013  00 42  -21.0511 26026.6 -03420.0 -07.4860 26250.3
 29 03 2013  00 43  -21.0510 26027.3 -03420.4 -07.4867 26251.1
 29 03 2013  00 44  -21.0514 26027.6 -03420.6 -07.4871 26251.4
 29 03 2013  00 45  -21.0519 26027.3 -03420.6 -07.4871 26251.1
 29 03 2013  00 46  -21.0524 26026.5 -03420.2 -07.4864 26250.3
 29 03 2013  00 47  -21.0528 26025.6 -03419.7 -07.4856 26249.3
 29 03 2013  00 48  -21.0531 26025.0 -03419.3 -07.4850 26248.6
 29 03 2013  00 49  -21.0533 26024.5 -03419.1 -07.4848 26248.1
 29 03 2013  00 50  -21.0539 26023.4 -03418.7 -07.4841 26247.0
 29 03 2013  00 51  -21.0546 26021.9 -03418.1 -07.4831 26245.5
 29 03 2013  00 52  -21.0549 26020.6 -03417.5 -07.4822 26244.1
 29 03 2013  00 53  -21.0551 26019.3 -03416.9 -07.4814 26242.7
 29 03 2013  00 54  -21.0551 26018.4 -03416.5 -07.4808 26241.7
 29 03 2013  00 55  -21.0548 26017.9 -03416.4 -07.4807 26241.3
 29 03 2013  00 56  -21.0545 26017.8 -03416.6 -07.4810 26241.2
 29 03 2013  00 57  -21.0541 26018.0 -03416.9 -07.4817 26241.4
 29 03 2013  00 58  -21.0537 26018.4 -03417.3 -07.4824 26241.9
 29 03 2013  00 59  -21.0533 26018.8 -03417.7 -07.4832 26242.3
 29 03 2013  01 00  -21.0530 26019.0 -03418.0 -07.4838 26242.6
 29 03 2013  01 01  -21.0527 26019.1 -03418.2 -07.4842 26242.7
 29 03 2013  01 02  -21.0526 26019.2 -03418.3 -07.4845 26242.8
 29 03 2013  01 03  -21.0524 26019.2 -03418.5 -07.4848 26242.8
 29 03 2013  01 04  -21.0523 26019.1 -03418.5 -07.4850 26242.7
 29 03 2013  01 05  -21.0524 26019.1 -03418.6 -07.4852 26242.7
 29 03 2013  01 06  -21.0527 26018.8 -03418.6 -07.4853 26242.4
 29 03 2013  01 07  -21.0531 26018.7 -03418.7 -07.4854 26242.3
 29 03 2013  01 08  -21.0533 26018.9 -03418.8 -07.4857 26242.5
 29 03 2013  01 09  -21.0531 26019.2 -03419.0 -07.4860 26242.8
 29 03 2013  01 10  -21.0530 26019.4 -03419.3 -07.4865 26243.1
 29 03 2013  01 11  -21.0531 26019.5 -03419.4 -07.4867 26243.2
 29 03 2013  01 12  -21.0536 26019.2 -03419.3 -07.4866 26242.9
 29 03 2013  01 13  -21.0540 26019.1 -03419.3 -07.4865 26242.8
 29 03 2013  01 14  -21.0543 26018.9 -03419.2 -07.4865 26242.6
 29 03 2013  01 15  -21.0547 26018.8 -03419.2 -07.4865 26242.5
 29 03 2013  01 16  -21.0551 26019.3 -03419.5 -07.4869 26243.0
 29 03 2013  01 17  -21.0555 26019.4 -03419.6 -07.4872 26243.2
 29 03 2013  01 18  -21.0555 26019.7 -03419.7 -07.4874 26243.5
 29 03 2013  01 19  -21.0550 26020.4 -03420.1 -07.4879 26244.2
 29 03 2013  01 20  -21.0548 26020.9 -03420.3 -07.4883 26244.8
 29 03 2013  01 21  -21.0549 26021.1 -03420.5 -07.4886 26245.0
 29 03 2013  01 22  -21.0549 26021.2 -03420.5 -07.4887 26245.1
 29 03 2013  01 23  -21.0549 26020.8 -03420.3 -07.4884 26244.6
 29 03 2013  01 24  -21.0545 26020.2 -03420.0 -07.4878 26244.0
 29 03 2013  01 25  -21.0538 26020.0 -03419.8 -07.4874 26243.7
 29 03 2013  01 26  -21.0533 26020.1 -03419.8 -07.4875 26243.9
 29 03 2013  01 27  -21.0530 26020.2 -03420.0 -07.4877 26244.0
 29 03 2013  01 28  -21.0527 26020.1 -03420.0 -07.4879 26243.9
 29 03 2013  01 29  -21.0524 26020.0 -03420.0 -07.4878 26243.8
 29 03 2013  01 30  -21.0521 26020.1 -03420.1 -07.4880 26243.9
 29 03 2013  01 31  -21.0516 26020.4 -03420.3 -07.4884 26244.2
 29 03 2013  01 32  -21.0512 26020.4 -03420.3 -07.4885 26244.2
 29 03 2013  01 33  -21.0512 26020.0 -03420.2 -07.4884 26243.9
 29 03 2013  01 34  -21.0516 26019.7 -03420.1 -07.4883 26243.5
 29 03 2013  01 35  -21.0519 26019.5 -03420.1 -07.4883 26243.4
 29 03 2013  01 36  -21.0520 26019.5 -03420.2 -07.4883 26243.4
 29 03 2013  01 37  -21.0520 26019.7 -03420.3 -07.4885 26243.5
 29 03 2013  01 38  -21.0521 26019.9 -03420.4 -07.4888 26243.7
 29 03 2013  01 39  -21.0520 26020.0 -03420.5 -07.4889 26243.8
 29 03 2013  01 40  -21.0520 26020.0 -03420.5 -07.4890 26243.9
 29 03 2013  01 41  -21.0518 26020.3 -03420.6 -07.4891 26244.2
 29 03 2013  01 42  -21.0514 26020.8 -03420.9 -07.4896 26244.7
 29 03 2013  01 43  -21.0512 26021.3 -03421.2 -07.4901 26245.3
 29 03 2013  01 44  -21.0511 26021.7 -03421.5 -07.4906 26245.7
 29 03 2013  01 45  -21.0510 26022.0 -03421.6 -07.4908 26246.0
 29 03 2013  01 46  -21.0507 26022.3 -03421.7 -07.4910 26246.3
 29 03 2013  01 47  -21.0507 26022.4 -03421.8 -07.4911 26246.4
 29 03 2013  01 48  -21.0507 26022.2 -03421.7 -07.4910 26246.2
 29 03 2013  01 49  -21.0509 26022.0 -03421.6 -07.4908 26246.0
 29 03 2013  01 50  -21.0511 26021.7 -03421.5 -07.4905 26245.7
 29 03 2013  01 51  -21.0513 26021.4 -03421.3 -07.4903 26245.4
 29 03 2013  01 52  -21.0514 26021.5 -03421.3 -07.4903 26245.5
 29 03 2013  01 53  -21.0516 26021.6 -03421.4 -07.4905 26245.5
 29 03 2013  01 54  -21.0518 26021.5 -03421.4 -07.4905 26245.5
 29 03 2013  01 55  -21.0519 26021.4 -03421.4 -07.4904 26245.3
 29 03 2013  01 56  -21.0520 26021.3 -03421.3 -07.4902 26245.2
 29 03 2013  01 57  -21.0519 26020.9 -03421.1 -07.4900 26244.8
 29 03 2013  01 58  -21.0517 26020.5 -03420.9 -07.4896 26244.4
 29 03 2013  01 59  -21.0515 26020.4 -03420.8 -07.4895 26244.3
 29 03 2013  02 00  -21.0513 26020.2 -03420.8 -07.4895 26244.1
 29 03 2013  02 01  -21.0512 26020.0 -03420.7 -07.4894 26243.9
 29 03 2013  02 02  -21.0513 26019.6 -03420.6 -07.4892 26243.5
 29 03 2013  02 03  -21.0514 26019.4 -03420.5 -07.4891 26243.3
 29 03 2013  02 04  -21.0516 26019.1 -03420.4 -07.4890 26242.9
 29 03 2013  02 05  -21.0516 26018.9 -03420.4 -07.4890 26242.7
 29 03 2013  02 06  -21.0517 26018.8 -03420.4 -07.4891 26242.6
 29 03 2013  02 07  -21.0519 26018.7 -03420.4 -07.4892 26242.5
 29 03 2013  02 08  -21.0522 26018.5 -03420.5 -07.4893 26242.4
 29 03 2013  02 09  -21.0528 26018.2 -03420.4 -07.4892 26242.1
 29 03 2013  02 10  -21.0533 26018.1 -03420.3 -07.4892 26241.9
 29 03 2013  02 11  -21.0532 26018.5 -03420.6 -07.4895 26242.4
 29 03 2013  02 12  -21.0528 26019.3 -03421.0 -07.4902 26243.2
 29 03 2013  02 13  -21.0526 26019.7 -03421.2 -07.4906 26243.6
 29 03 2013  02 14  -21.0528 26019.4 -03421.2 -07.4906 26243.4
 29 03 2013  02 15  -21.0528 26019.6 -03421.2 -07.4906 26243.5
 29 03 2013  02 16  -21.0522 26020.1 -03421.4 -07.4909 26244.1
 29 03 2013  02 17  -21.0518 26020.7 -03421.7 -07.4914 26244.7
 29 03 2013  02 18  -21.0522 26020.6 -03421.8 -07.4915 26244.7
 29 03 2013  02 19  -21.0529 26020.5 -03421.8 -07.4915 26244.5
 29 03 2013  02 20  -21.0533 26020.4 -03421.7 -07.4913 26244.4
 29 03 2013  02 21  -21.0537 26020.3 -03421.6 -07.4912 26244.3
 29 03 2013  02 22  -21.0539 26020.3 -03421.6 -07.4912 26244.3
 29 03 2013  02 23  -21.0540 26020.3 -03421.5 -07.4911 26244.3
 29 03 2013  02 24  -21.0541 26020.3 -03421.5 -07.4911 26244.3
 29 03 2013  02 25  -21.0541 26020.6 -03421.7 -07.4913 26244.6
 29 03 2013  02 26  -21.0542 26021.0 -03421.9 -07.4917 26245.0
 29 03 2013  02 27  -21.0545 26021.2 -03422.0 -07.4918 26245.2
 29 03 2013  02 28  -21.0547 26021.2 -03422.0 -07.4918 26245.2
 29 03 2013  02 29  -21.0549 26021.3 -03422.0 -07.4919 26245.3
 29 03 2013  02 30  -21.0551 26021.2 -03422.0 -07.4918 26245.2
 29 03 2013  02 31  -21.0554 26021.2 -03421.9 -07.4917 26245.2
 29 03 2013  02 32  -21.0552 26021.5 -03422.0 -07.4918 26245.5
 29 03 2013  02 33  -21.0548 26021.9 -03422.2 -07.4921 26245.9
 29 03 2013  02 34  -21.0544 26022.5 -03422.5 -07.4926 26246.6
 29 03 2013  02 35  -21.0543 26023.1 -03422.8 -07.4931 26247.2
 29 03 2013  02 36  -21.0540 26023.6 -03423.1 -07.4935 26247.8
 29 03 2013  02 37  -21.0537 26024.2 -03423.4 -07.4940 26248.4
 29 03 2013  02 38  -21.0537 26024.6 -03423.6 -07.4943 26248.8
 29 03 2013  02 39  -21.0538 26024.8 -03423.7 -07.4944 26249.1
 29 03 2013  02 40  -21.0538 26025.2 -03423.8 -07.4945 26249.4
 29 03 2013  02 41  -21.0534 26025.5 -03423.8 -07.4945 26249.8
 29 03 2013  02 42  -21.0530 26026.2 -03424.1 -07.4949 26250.5
 29 03 2013  02 43  -21.0526 26026.5 -03424.1 -07.4949 26250.8
 29 03 2013  02 44  -21.0520 26027.2 -03424.3 -07.4952 26251.5
 29 03 2013  02 45  -21.0515 26027.8 -03424.6 -07.4955 26252.2
 29 03 2013  02 46  -21.0508 26029.1 -03425.1 -07.4964 26253.5
 29 03 2013  02 47  -21.0505 26030.3 -03425.6 -07.4971 26254.7
 29 03 2013  02 48  -21.0504 26031.4 -03426.1 -07.4979 26255.9
 29 03 2013  02 49  -21.0501 26032.3 -03426.5 -07.4984 26256.9
 29 03 2013  02 50  -21.0498 26033.3 -03426.8 -07.4988 26257.8
 29 03 2013  02 51  -21.0496 26033.9 -03426.9 -07.4989 26258.4
 29 03 2013  02 52  -21.0497 26034.1 -03426.9 -07.4988 26258.7
 29 03 2013  02 53  -21.0498 26034.6 -03427.0 -07.4988 26259.2
 29 03 2013  02 54  -21.0500 26034.7 -03426.8 -07.4985 26259.2
 29 03 2013  02 55  -21.0500 26034.9 -03426.8 -07.4983 26259.5
 29 03 2013  02 56  -21.0502 26035.1 -03426.7 -07.4981 26259.7
 29 03 2013  02 57  -21.0505 26035.0 -03426.5 -07.4977 26259.5
 29 03 2013  02 58  -21.0507 26034.9 -03426.3 -07.4973 26259.4
 29 03 2013  02 59  -21.0505 26034.9 -03426.1 -07.4968 26259.4
 29 03 2013  03 00  -21.0502 26035.2 -03426.1 -07.4968 26259.6
 29 03 2013  03 01  -21.0502 26034.8 -03425.9 -07.4964 26259.3
 29 03 2013  03 02  -21.0503 26035.3 -03426.0 -07.4964 26259.7
 29 03 2013  03 03  -21.0502 26035.8 -03426.1 -07.4967 26260.2
 29 03 2013  03 04  -21.0498 26036.3 -03426.3 -07.4969 26260.8
 29 03 2013  03 05  -21.0495 26036.4 -03426.3 -07.4969 26260.9
 29 03 2013  03 06  -21.0489 26036.9 -03426.5 -07.4971 26261.4
 29 03 2013  03 07  -21.0484 26036.8 -03426.4 -07.4969 26261.3
 29 03 2013  03 08  -21.0480 26036.9 -03426.3 -07.4967 26261.3
 29 03 2013  03 09  -21.0480 26036.8 -03426.2 -07.4966 26261.2
 29 03 2013  03 10  -21.0479 26036.8 -03426.2 -07.4965 26261.2
 29 03 2013  03 11  -21.0479 26036.6 -03426.1 -07.4963 26261.1
 29 03 2013  03 12  -21.0480 26036.6 -03426.0 -07.4962 26261.0
 29 03 2013  03 13  -21.0482 26036.4 -03425.9 -07.4960 26260.9
 29 03 2013  03 14  -21.0487 26036.1 -03425.8 -07.4958 26260.6
 29 03 2013  03 15  -21.0489 26036.0 -03425.7 -07.4957 26260.4
 29 03 2013  03 16  -21.0491 26036.0 -03425.7 -07.4956 26260.4
 29 03 2013  03 17  -21.0492 26035.8 -03425.5 -07.4953 26260.2
 29 03 2013  03 18  -21.0494 26035.9 -03425.6 -07.4954 26260.3
 29 03 2013  03 19  -21.0497 26035.7 -03425.5 -07.4953 26260.1
 29 03 2013  03 20  -21.0501 26035.9 -03425.6 -07.4954 26260.3
 29 03 2013  03 21  -21.0506 26036.2 -03425.7 -07.4956 26260.6
 29 03 2013  03 22  -21.0512 26036.4 -03425.8 -07.4958 26260.8
 29 03 2013  03 23  -21.0518 26036.6 -03425.9 -07.4959 26261.0
 29 03 2013  03 24  -21.0524 26036.6 -03425.9 -07.4958 26261.1
 29 03 2013  03 25  -21.0527 26036.5 -03425.7 -07.4956 26260.9
 29 03 2013  03 26  -21.0533 26035.9 -03425.4 -07.4951 26260.3
 29 03 2013  03 27  -21.0544 26034.5 -03424.8 -07.4940 26258.8
 29 03 2013  03 28  -21.0557 26033.0 -03424.0 -07.4927 26257.2
 29 03 2013  03 29  -21.0568 26031.4 -03423.2 -07.4915 26255.5
 29 03 2013  03 30  -21.0573 26029.8 -03422.4 -07.4902 26253.8
 29 03 2013  03 31  -21.0576 26028.6 -03421.8 -07.4893 26252.6
 29 03 2013  03 32  -21.0577 26028.0 -03421.5 -07.4889 26251.9
 29 03 2013  03 33  -21.0581 26027.5 -03421.4 -07.4888 26251.4
 29 03 2013  03 34  -21.0587 26027.2 -03421.4 -07.4889 26251.1
 29 03 2013  03 35  -21.0593 26026.9 -03421.4 -07.4890 26250.8
 29 03 2013  03 36  -21.0599 26026.8 -03421.5 -07.4892 26250.7
 29 03 2013  03 37  -21.0600 26026.8 -03421.5 -07.4893 26250.7
 29 03 2013  03 38  -21.0597 26026.9 -03421.6 -07.4894 26250.8
 29 03 2013  03 39  -21.0590 26027.0 -03421.7 -07.4896 26250.9
 29 03 2013  03 40  -21.0584 26027.2 -03421.8 -07.4897 26251.1
 29 03 2013  03 41  -21.0576 26027.5 -03422.0 -07.4900 26251.4
 29 03 2013  03 42  -21.0571 26027.6 -03422.1 -07.4902 26251.6
 29 03 2013  03 43  -21.0567 26027.7 -03422.2 -07.4904 26251.7
 29 03 2013  03 44  -21.0564 26027.8 -03422.3 -07.4905 26251.8
 29 03 2013  03 45  -21.0561 26028.0 -03422.4 -07.4907 26252.0
 29 03 2013  03 46  -21.0560 26027.9 -03422.4 -07.4908 26252.0
 29 03 2013  03 47  -21.0558 26027.8 -03422.4 -07.4908 26251.9
 29 03 2013  03 48  -21.0557 26027.7 -03422.4 -07.4908 26251.8
 29 03 2013  03 49  -21.0556 26027.7 -03422.3 -07.4907 26251.7
 29 03 2013  03 50  -21.0555 26027.7 -03422.3 -07.4907 26251.7
 29 03 2013  03 51  -21.0555 26027.6 -03422.3 -07.4907 26251.6
 29 03 2013  03 52  -21.0554 26027.7 -03422.4 -07.4908 26251.7
 29 03 2013  03 53  -21.0552 26027.9 -03422.5 -07.4909 26251.9
 29 03 2013  03 54  -21.0551 26028.0 -03422.5 -07.4911 26252.0
 29 03 2013  03 55  -21.0549 26028.2 -03422.6 -07.4912 26252.2
 29 03 2013  03 56  -21.0547 26028.3 -03422.7 -07.4913 26252.4
 29 03 2013  03 57  -21.0546 26028.5 -03422.8 -07.4915 26252.6
 29 03 2013  03 58  -21.0542 26028.8 -03422.9 -07.4916 26252.9
 29 03 2013  03 59  -21.0541 26029.0 -03423.0 -07.4917 26253.1
 29 03 2013  04 00  -21.0541 26029.3 -03423.1 -07.4919 26253.4
 29 03 2013  04 01  -21.0541 26029.5 -03423.2 -07.4920 26253.6
 29 03 2013  04 02  -21.0542 26029.4 -03423.2 -07.4920 26253.5
 29 03 2013  04 03  -21.0544 26029.2 -03423.0 -07.4918 26253.3
 29 03 2013  04 04  -21.0545 26029.0 -03422.9 -07.4916 26253.1
 29 03 2013  04 05  -21.0547 26028.7 -03422.8 -07.4914 26252.8
 29 03 2013  04 06  -21.0549 26028.4 -03422.6 -07.4911 26252.5
 29 03 2013  04 07  -21.0551 26028.1 -03422.4 -07.4908 26252.1
 29 03 2013  04 08  -21.0552 26027.8 -03422.3 -07.4906 26251.8
 29 03 2013  04 09  -21.0553 26027.4 -03422.1 -07.4904 26251.4
 29 03 2013  04 10  -21.0555 26027.1 -03422.0 -07.4902 26251.1
 29 03 2013  04 11  -21.0557 26026.8 -03421.9 -07.4900 26250.8
 29 03 2013  04 12  -21.0561 26026.5 -03421.8 -07.4899 26250.5
 29 03 2013  04 13  -21.0565 26026.2 -03421.7 -07.4898 26250.1
 29 03 2013  04 14  -21.0568 26025.8 -03421.5 -07.4895 26249.8
 29 03 2013  04 15  -21.0573 26025.5 -03421.4 -07.4894 26249.4
 29 03 2013  04 16  -21.0579 26025.2 -03421.3 -07.4893 26249.1
 29 03 2013  04 17  -21.0587 26024.9 -03421.2 -07.4892 26248.8
 29 03 2013  04 18  -21.0594 26024.7 -03421.2 -07.4891 26248.6
 29 03 2013  04 19  -21.0601 26024.6 -03421.2 -07.4891 26248.5
 29 03 2013  04 20  -21.0606 26024.4 -03421.1 -07.4891 26248.3
 29 03 2013  04 21  -21.0611 26024.3 -03421.1 -07.4889 26248.2
 29 03 2013  04 22  -21.0615 26024.2 -03421.0 -07.4889 26248.1
 29 03 2013  04 23  -21.0618 26024.1 -03421.0 -07.4888 26248.0
 29 03 2013  04 24  -21.0619 26024.0 -03420.9 -07.4886 26247.8
 29 03 2013  04 25  -21.0618 26023.9 -03420.8 -07.4885 26247.7
 29 03 2013  04 26  -21.0617 26023.8 -03420.8 -07.4884 26247.6
 29 03 2013  04 27  -21.0615 26023.6 -03420.7 -07.4884 26247.5
 29 03 2013  04 28  -21.0614 26023.4 -03420.6 -07.4883 26247.2
 29 03 2013  04 29  -21.0613 26023.2 -03420.6 -07.4882 26247.1
 29 03 2013  04 30  -21.0611 26023.1 -03420.5 -07.4882 26246.9
 29 03 2013  04 31  -21.0610 26022.9 -03420.5 -07.4881 26246.7
 29 03 2013  04 32  -21.0610 26022.8 -03420.5 -07.4881 26246.6
 29 03 2013  04 33  -21.0609 26022.6 -03420.4 -07.4880 26246.4
 29 03 2013  04 34  -21.0611 26022.4 -03420.4 -07.4880 26246.2
 29 03 2013  04 35  -21.0613 26022.2 -03420.3 -07.4880 26246.0
 29 03 2013  04 36  -21.0614 26022.0 -03420.3 -07.4879 26245.8
 29 03 2013  04 37  -21.0617 26021.8 -03420.2 -07.4879 26245.6
 29 03 2013  04 38  -21.0616 26021.6 -03420.2 -07.4878 26245.4
 29 03 2013  04 39  -21.0616 26021.4 -03420.1 -07.4877 26245.2
 29 03 2013  04 40  -21.0615 26021.3 -03420.1 -07.4877 26245.1
 29 03 2013  04 41  -21.0618 26021.2 -03420.1 -07.4878 26245.0
 29 03 2013  04 42  -21.0621 26021.2 -03420.2 -07.4879 26245.0
 29 03 2013  04 43  -21.0624 26021.2 -03420.2 -07.4880 26245.0
 29 03 2013  04 44  -21.0626 26021.1 -03420.2 -07.4880 26244.9
 29 03 2013  04 45  -21.0626 26021.0 -03420.2 -07.4880 26244.8
 29 03 2013  04 46  -21.0628 26020.9 -03420.2 -07.4880 26244.8
 29 03 2013  04 47  -21.0631 26020.8 -03420.2 -07.4880 26244.6
 29 03 2013  04 48  -21.0637 26020.7 -03420.2 -07.4881 26244.5
 29 03 2013  04 49  -21.0643 26020.7 -03420.2 -07.4881 26244.5
 29 03 2013  04 50  -21.0647 26020.6 -03420.2 -07.4881 26244.4
 29 03 2013  04 51  -21.0649 26020.5 -03420.1 -07.4880 26244.3
 29 03 2013  04 52  -21.0651 26020.4 -03420.0 -07.4878 26244.2
 29 03 2013  04 53  -21.0649 26020.4 -03420.0 -07.4877 26244.2
 29 03 2013  04 54  -21.0645 26020.4 -03420.0 -07.4877 26244.2
 29 03 2013  04 55  -21.0641 26020.4 -03420.0 -07.4877 26244.2
 29 03 2013  04 56  -21.0639 26020.5 -03420.0 -07.4878 26244.3
 29 03 2013  04 57  -21.0638 26020.5 -03420.1 -07.4879 26244.3
 29 03 2013  04 58  -21.0637 26020.6 -03420.2 -07.4881 26244.5
 29 03 2013  04 59  -21.0633 26020.6 -03420.2 -07.4881 26244.5
 29 03 2013  05 00  -21.0628 26020.7 -03420.2 -07.4882 26244.5
 29 03 2013  05 01  -21.0623 26020.7 -03420.3 -07.4882 26244.5
 29 03 2013  05 02  -21.0619 26020.8 -03420.3 -07.4883 26244.6
 29 03 2013  05 03  -21.0622 26020.7 -03420.4 -07.4885 26244.6
 29 03 2013  05 04  -21.0628 26020.6 -03420.4 -07.4886 26244.5
 29 03 2013  05 05  -21.0636 26020.7 -03420.5 -07.4888 26244.5
 29 03 2013  05 06  -21.0640 26021.0 -03420.7 -07.4891 26244.9
 29 03 2013  05 07  -21.0646 26021.0 -03420.7 -07.4892 26244.9
 29 03 2013  05 08  -21.0659 26021.0 -03420.8 -07.4892 26244.9
 29 03 2013  05 09  -21.0672 26021.2 -03420.9 -07.4894 26245.1
 29 03 2013  05 10  -21.0683 26021.4 -03421.0 -07.4896 26245.3
 29 03 2013  05 11  -21.0688 26021.4 -03420.9 -07.4895 26245.3
 29 03 2013  05 12  -21.0690 26021.2 -03420.7 -07.4891 26245.1
 29 03 2013  05 13  -21.0692 26021.1 -03420.6 -07.4889 26245.0
 29 03 2013  05 14  -21.0694 26021.2 -03420.7 -07.4889 26245.1
 29 03 2013  05 15  -21.0698 26021.3 -03420.7 -07.4890 26245.2
 29 03 2013  05 16  -21.0700 26021.5 -03420.8 -07.4891 26245.4
 29 03 2013  05 17  -21.0706 26021.7 -03420.8 -07.4892 26245.6
 29 03 2013  05 18  -21.0714 26021.7 -03420.8 -07.4892 26245.6
 29 03 2013  05 19  -21.0721 26021.7 -03420.8 -07.4891 26245.6
 29 03 2013  05 20  -21.0730 26021.8 -03420.8 -07.4891 26245.7
 29 03 2013  05 21  -21.0741 26021.8 -03420.8 -07.4891 26245.6
 29 03 2013  05 22  -21.0748 26021.7 -03420.7 -07.4889 26245.5
 29 03 2013  05 23  -21.0748 26021.5 -03420.5 -07.4885 26245.3
 29 03 2013  05 24  -21.0744 26021.4 -03420.4 -07.4882 26245.2
 29 03 2013  05 25  -21.0743 26021.3 -03420.3 -07.4881 26245.2
 29 03 2013  05 26  -21.0740 26021.4 -03420.3 -07.4881 26245.2
 29 03 2013  05 27  -21.0733 26021.5 -03420.3 -07.4882 26245.3
 29 03 2013  05 28  -21.0725 26021.7 -03420.4 -07.4882 26245.5
 29 03 2013  05 29  -21.0716 26021.7 -03420.4 -07.4883 26245.5
 29 03 2013  05 30  -21.0705 26021.7 -03420.4 -07.4882 26245.6
 29 03 2013  05 31  -21.0695 26021.9 -03420.5 -07.4885 26245.8
 29 03 2013  05 32  -21.0686 26022.2 -03420.7 -07.4888 26246.1
 29 03 2013  05 33  -21.0676 26022.4 -03420.9 -07.4891 26246.3
 29 03 2013  05 34  -21.0664 26022.5 -03421.0 -07.4892 26246.4
 29 03 2013  05 35  -21.0654 26022.7 -03421.1 -07.4895 26246.6
 29 03 2013  05 36  -21.0646 26022.7 -03421.2 -07.4897 26246.6
 29 03 2013  05 37  -21.0637 26022.7 -03421.2 -07.4898 26246.6
 29 03 2013  05 38  -21.0629 26022.4 -03421.2 -07.4898 26246.4
 29 03 2013  05 39  -21.0622 26022.3 -03421.2 -07.4898 26246.2
 29 03 2013  05 40  -21.0617 26022.2 -03421.2 -07.4899 26246.1
 29 03 2013  05 41  -21.0613 26022.1 -03421.3 -07.4901 26246.1
 29 03 2013  05 42  -21.0607 26022.1 -03421.4 -07.4902 26246.1
 29 03 2013  05 43  -21.0600 26022.1 -03421.5 -07.4904 26246.0
 29 03 2013  05 44  -21.0587 26022.0 -03421.5 -07.4905 26246.0
 29 03 2013  05 45  -21.0572 26022.0 -03421.5 -07.4906 26246.0
 29 03 2013  05 46  -21.0549 26022.0 -03421.5 -07.4906 26246.0
 29 03 2013  05 47  -21.0527 26022.0 -03421.6 -07.4908 26246.0
 29 03 2013  05 48  -21.0511 26022.1 -03421.8 -07.4911 26246.1
 29 03 2013  05 49  -21.0498 26022.2 -03422.0 -07.4915 26246.2
 29 03 2013  05 50  -21.0489 26022.3 -03422.2 -07.4920 26246.4
 29 03 2013  05 51  -21.0485 26022.5 -03422.5 -07.4926 26246.6
 29 03 2013  05 52  -21.0481 26022.6 -03422.8 -07.4931 26246.8
 29 03 2013  05 53  -21.0478 26022.9 -03423.0 -07.4936 26247.1
 29 03 2013  05 54  -21.0479 26023.1 -03423.2 -07.4940 26247.3
 29 03 2013  05 55  -21.0479 26023.3 -03423.4 -07.4943 26247.5
 29 03 2013  05 56  -21.0481 26023.5 -03423.6 -07.4946 26247.7
 29 03 2013  05 57  -21.0490 26023.6 -03423.7 -07.4948 26247.8
 29 03 2013  05 58  -21.0503 26023.5 -03423.7 -07.4949 26247.8
 29 03 2013  05 59  -21.0520 26023.6 -03423.8 -07.4951 26247.9
 29 03 2013  06 00  -21.0536 26023.8 -03423.9 -07.4952 26248.1
 29 03 2013  06 01  -21.0549 26023.9 -03423.9 -07.4952 26248.2
 29 03 2013  06 02  -21.0562 26023.9 -03423.8 -07.4950 26248.2
 29 03 2013  06 03  -21.0570 26024.0 -03423.7 -07.4948 26248.3
 29 03 2013  06 04  -21.0576 26024.0 -03423.6 -07.4946 26248.2
 29 03 2013  06 05  -21.0580 26023.9 -03423.5 -07.4943 26248.1
 29 03 2013  06 06  -21.0585 26023.7 -03423.3 -07.4939 26247.9
 29 03 2013  06 07  -21.0592 26023.5 -03423.2 -07.4937 26247.7
 29 03 2013  06 08  -21.0601 26023.4 -03423.0 -07.4935 26247.6
 29 03 2013  06 09  -21.0609 26023.5 -03423.0 -07.4933 26247.6
 29 03 2013  06 10  -21.0619 26023.5 -03422.9 -07.4932 26247.6
 29 03 2013  06 11  -21.0631 26023.4 -03422.9 -07.4931 26247.6
 29 03 2013  06 12  -21.0637 26023.2 -03422.7 -07.4928 26247.3
 29 03 2013  06 13  -21.0638 26022.9 -03422.4 -07.4923 26247.0
 29 03 2013  06 14  -21.0637 26022.8 -03422.3 -07.4920 26246.9
 29 03 2013  06 15  -21.0635 26022.6 -03422.1 -07.4917 26246.7
 29 03 2013  06 16  -21.0628 26022.3 -03421.9 -07.4913 26246.3
 29 03 2013  06 17  -21.0618 26021.8 -03421.5 -07.4906 26245.8
 29 03 2013  06 18  -21.0609 26021.4 -03421.3 -07.4903 26245.4
 29 03 2013  06 19  -21.0602 26021.0 -03421.2 -07.4901 26244.9
 29 03 2013  06 20  -21.0592 26020.6 -03421.0 -07.4899 26244.5
 29 03 2013  06 21  -21.0583 26020.3 -03420.9 -07.4898 26244.2
 29 03 2013  06 22  -21.0574 26020.0 -03420.9 -07.4897 26244.0
 29 03 2013  06 23  -21.0569 26019.9 -03420.9 -07.4899 26243.8
 29 03 2013  06 24  -21.0563 26019.7 -03421.0 -07.4900 26243.7
 29 03 2013  06 25  -21.0558 26019.6 -03421.0 -07.4902 26243.5
 29 03 2013  06 26  -21.0552 26019.6 -03421.1 -07.4904 26243.5
 29 03 2013  06 27  -21.0549 26019.5 -03421.2 -07.4906 26243.4
 29 03 2013  06 28  -21.0546 26019.4 -03421.2 -07.4907 26243.3
 29 03 2013  06 29  -21.0543 26019.1 -03421.2 -07.4908 26243.1
 29 03 2013  06 30  -21.0539 26018.9 -03421.2 -07.4908 26242.9
 29 03 2013  06 31  -21.0536 26018.9 -03421.3 -07.4909 26242.8
 29 03 2013  06 32  -21.0536 26018.8 -03421.4 -07.4911 26242.8
 29 03 2013  06 33  -21.0538 26018.9 -03421.5 -07.4914 26242.9
 29 03 2013  06 34  -21.0539 26019.0 -03421.6 -07.4917 26243.0
 29 03 2013  06 35  -21.0545 26019.1 -03421.8 -07.4920 26243.1
 29 03 2013  06 36  -21.0553 26019.2 -03422.0 -07.4923 26243.2
 29 03 2013  06 37  -21.0561 26019.1 -03421.9 -07.4923 26243.2
 29 03 2013  06 38  -21.0568 26019.1 -03422.0 -07.4923 26243.2
 29 03 2013  06 39  -21.0574 26019.1 -03422.0 -07.4924 26243.1
 29 03 2013  06 40  -21.0579 26019.0 -03421.9 -07.4924 26243.1
 29 03 2013  06 41  -21.0584 26018.9 -03421.9 -07.4923 26243.0
 29 03 2013  06 42  -21.0587 26018.9 -03421.8 -07.4922 26242.9
 29 03 2013  06 43  -21.0595 26018.9 -03421.9 -07.4923 26242.9
 29 03 2013  06 44  -21.0604 26019.0 -03421.9 -07.4924 26243.1
 29 03 2013  06 45  -21.0614 26019.1 -03421.9 -07.4923 26243.1
 29 03 2013  06 46  -21.0623 26019.3 -03422.0 -07.4925 26243.3
 29 03 2013  06 47  -21.0631 26019.5 -03422.1 -07.4925 26243.5
 29 03 2013  06 48  -21.0636 26019.6 -03422.1 -07.4924 26243.7
 29 03 2013  06 49  -21.0640 26019.7 -03422.0 -07.4924 26243.8
 29 03 2013  06 50  -21.0641 26020.1 -03422.1 -07.4923 26244.2
 29 03 2013  06 51  -21.0640 26020.7 -03422.3 -07.4926 26244.8
 29 03 2013  06 52  -21.0633 26021.5 -03422.6 -07.4930 26245.6
 29 03 2013  06 53  -21.0625 26021.9 -03422.7 -07.4932 26246.1
 29 03 2013  06 54  -21.0616 26022.2 -03422.7 -07.4932 26246.3
 29 03 2013  06 55  -21.0609 26022.4 -03422.8 -07.4932 26246.6
 29 03 2013  06 56  -21.0606 26022.2 -03422.7 -07.4931 26246.4
 29 03 2013  06 57  -21.0602 26021.8 -03422.4 -07.4926 26245.9
 29 03 2013  06 58  -21.0601 26021.6 -03422.3 -07.4923 26245.7
 29 03 2013  06 59  -21.0603 26021.7 -03422.3 -07.4924 26245.7
 29 03 2013  07 00  -21.0605 26021.9 -03422.5 -07.4926 26246.0
 29 03 2013  07 01  -21.0607 26022.2 -03422.6 -07.4929 26246.3
 29 03 2013  07 02  -21.0607 26022.3 -03422.7 -07.4930 26246.4
 29 03 2013  07 03  -21.0603 26022.4 -03422.7 -07.4930 26246.5
 29 03 2013  07 04  -21.0600 26022.4 -03422.7 -07.4929 26246.6
 29 03 2013  07 05  -21.0602 26022.4 -03422.6 -07.4929 26246.5
 29 03 2013  07 06  -21.0603 26022.4 -03422.6 -07.4929 26246.5
 29 03 2013  07 07  -21.0601 26022.6 -03422.7 -07.4929 26246.7
 29 03 2013  07 08  -21.0603 26022.8 -03422.8 -07.4931 26247.0
 29 03 2013  07 09  -21.0605 26023.0 -03422.9 -07.4934 26247.2
 29 03 2013  07 10  -21.0605 26023.1 -03423.0 -07.4935 26247.3
 29 03 2013  07 11  -21.0603 26023.2 -03423.0 -07.4935 26247.3
 29 03 2013  07 12  -21.0601 26023.1 -03422.9 -07.4934 26247.2
 29 03 2013  07 13  -21.0594 26022.9 -03422.8 -07.4931 26247.0
 29 03 2013  07 14  -21.0584 26022.4 -03422.6 -07.4927 26246.6
 29 03 2013  07 15  -21.0571 26022.0 -03422.3 -07.4922 26246.1
 29 03 2013  07 16  -21.0560 26021.8 -03422.2 -07.4920 26245.9
 29 03 2013  07 17  -21.0554 26021.8 -03422.2 -07.4922 26245.8
 29 03 2013  07 18  -21.0551 26021.7 -03422.3 -07.4924 26245.8
 29 03 2013  07 19  -21.0547 26021.4 -03422.3 -07.4924 26245.5
 29 03 2013  07 20  -21.0548 26021.4 -03422.3 -07.4924 26245.4
 29 03 2013  07 21  -21.0553 26021.5 -03422.5 -07.4928 26245.7
 29 03 2013  07 22  -21.0560 26021.7 -03422.7 -07.4932 26245.9
 29 03 2013  07 23  -21.0567 26022.1 -03422.9 -07.4936 26246.2
 29 03 2013  07 24  -21.0571 26022.7 -03423.2 -07.4940 26246.9
 29 03 2013  07 25  -21.0576 26023.1 -03423.4 -07.4943 26247.3
 29 03 2013  07 26  -21.0576 26023.4 -03423.4 -07.4943 26247.6
 29 03 2013  07 27  -21.0572 26023.4 -03423.3 -07.4940 26247.5
 29 03 2013  07 28  -21.0561 26023.7 -03423.2 -07.4938 26247.9
 29 03 2013  07 29  -21.0552 26023.8 -03423.2 -07.4938 26248.0
 29 03 2013  07 30  -21.0546 26023.9 -03423.1 -07.4936 26248.1
 29 03 2013  07 31  -21.0541 26024.0 -03423.1 -07.4935 26248.1
 29 03 2013  07 32  -21.0538 26024.1 -03423.1 -07.4935 26248.3
 29 03 2013  07 33  -21.0534 26024.2 -03423.2 -07.4936 26248.4
 29 03 2013  07 34  -21.0524 26024.1 -03423.0 -07.4933 26248.2
 29 03 2013  07 35  -21.0515 26023.9 -03422.9 -07.4930 26248.0
 29 03 2013  07 36  -21.0505 26023.7 -03422.8 -07.4928 26247.8
 29 03 2013  07 37  -21.0491 26023.2 -03422.6 -07.4925 26247.3
 29 03 2013  07 38  -21.0476 26022.7 -03422.3 -07.4921 26246.8
 29 03 2013  07 39  -21.0463 26022.3 -03422.2 -07.4920 26246.4
 29 03 2013  07 40  -21.0453 26022.1 -03422.2 -07.4920 26246.2
 29 03 2013  07 41  -21.0446 26021.8 -03422.2 -07.4921 26245.8
 29 03 2013  07 42  -21.0439 26021.6 -03422.2 -07.4923 26245.6
 29 03 2013  07 43  -21.0433 26021.6 -03422.4 -07.4925 26245.7
 29 03 2013  07 44  -21.0434 26021.5 -03422.5 -07.4929 26245.6
 29 03 2013  07 45  -21.0433 26021.4 -03422.6 -07.4931 26245.5
 29 03 2013  07 46  -21.0432 26021.3 -03422.7 -07.4934 26245.5
 29 03 2013  07 47  -21.0440 26021.7 -03423.0 -07.4938 26245.8
 29 03 2013  07 48  -21.0453 26021.6 -03423.2 -07.4942 26245.8
 29 03 2013  07 49  -21.0469 26021.9 -03423.4 -07.4947 26246.1
 29 03 2013  07 50  -21.0480 26022.0 -03423.5 -07.4949 26246.3
 29 03 2013  07 51  -21.0489 26022.2 -03423.6 -07.4950 26246.4
 29 03 2013  07 52  -21.0493 26022.2 -03423.5 -07.4948 26246.4
 29 03 2013  07 53  -21.0503 26022.6 -03423.6 -07.4950 26246.8
 29 03 2013  07 54  -21.0521 26023.3 -03424.0 -07.4955 26247.6
 29 03 2013  07 55  -21.0534 26024.1 -03424.3 -07.4961 26248.5
 29 03 2013  07 56  -21.0540 26024.2 -03424.3 -07.4959 26248.5
 29 03 2013  07 57  -21.0544 26024.7 -03424.3 -07.4959 26249.1
 29 03 2013  07 58  -21.0545 26024.9 -03424.2 -07.4957 26249.2
 29 03 2013  07 59  -21.0541 26024.9 -03424.1 -07.4952 26249.2
 29 03 2013  08 00  -21.0535 26024.8 -03423.8 -07.4948 26249.1
 29 03 2013  08 01  -21.0527 26024.5 -03423.5 -07.4941 26248.7
 29 03 2013  08 02  -21.0521 26024.2 -03423.2 -07.4937 26248.3
 29 03 2013  08 03  -21.0509 26023.7 -03422.9 -07.4931 26247.9
 29 03 2013  08 04  -21.0495 26023.0 -03422.5 -07.4923 26247.1
 29 03 2013  08 05  -21.0481 26022.5 -03422.2 -07.4919 26246.6
 29 03 2013  08 06  -21.0467 26022.1 -03422.0 -07.4916 26246.2
 29 03 2013  08 07  -21.0452 26022.1 -03422.1 -07.4917 26246.1
 29 03 2013  08 08  -21.0435 26022.3 -03422.3 -07.4921 26246.4
 29 03 2013  08 09  -21.0423 26022.3 -03422.5 -07.4925 26246.4
 29 03 2013  08 10  -21.0411 26022.3 -03422.6 -07.4929 26246.4
 29 03 2013  08 11  -21.0409 26021.8 -03422.6 -07.4930 26245.9
 29 03 2013  08 12  -21.0415 26021.3 -03422.7 -07.4933 26245.4
 29 03 2013  08 13  -21.0409 26021.0 -03422.7 -07.4934 26245.1
 29 03 2013  08 14  -21.0403 26020.4 -03422.5 -07.4932 26244.5
 29 03 2013  08 15  -21.0398 26020.2 -03422.6 -07.4935 26244.3
 29 03 2013  08 16  -21.0394 26019.4 -03422.4 -07.4933 26243.6
 29 03 2013  08 17  -21.0405 26018.7 -03422.3 -07.4932 26242.8
 29 03 2013  08 18  -21.0409 26018.4 -03422.4 -07.4935 26242.5
 29 03 2013  08 19  -21.0413 26018.3 -03422.5 -07.4938 26242.5
 29 03 2013  08 20  -21.0420 26018.3 -03422.7 -07.4942 26242.4
 29 03 2013  08 21  -21.0420 26018.0 -03422.8 -07.4944 26242.2
 29 03 2013  08 22  -21.0409 26017.8 -03422.7 -07.4944 26241.9
 29 03 2013  08 23  -21.0399 26017.6 -03422.7 -07.4944 26241.7
 29 03 2013  08 24  -21.0387 26017.5 -03422.8 -07.4947 26241.7
 29 03 2013  08 25  -21.0384 26017.3 -03422.9 -07.4949 26241.5
 29 03 2013  08 26  -21.0386 26017.2 -03423.1 -07.4953 26241.5
 29 03 2013  08 27  -21.0383 26017.5 -03423.4 -07.4959 26241.8
 29 03 2013  08 28  -21.0380 26017.9 -03423.7 -07.4964 26242.2
 29 03 2013  08 29  -21.0380 26018.8 -03424.2 -07.4974 26243.2
 29 03 2013  08 30  -21.0383 26019.4 -03424.7 -07.4982 26243.8
 29 03 2013  08 31  -21.0386 26019.7 -03424.9 -07.4985 26244.1
 29 03 2013  08 32  -21.0390 26019.9 -03425.0 -07.4988 26244.4
 29 03 2013  08 33  -21.0392 26020.2 -03425.2 -07.4990 26244.6
 29 03 2013  08 34  -21.0393 26020.0 -03425.1 -07.4989 26244.5
 29 03 2013  08 35  -21.0402 26020.1 -03425.1 -07.4989 26244.5
 29 03 2013  08 36  -21.0408 26019.9 -03425.0 -07.4988 26244.4
 29 03 2013  08 37  -21.0413 26019.8 -03425.0 -07.4987 26244.3
 29 03 2013  08 38  -21.0417 26019.5 -03424.8 -07.4983 26244.0
 29 03 2013  08 39  -21.0417 26019.6 -03424.7 -07.4981 26244.0
 29 03 2013  08 40  -21.0417 26019.8 -03424.9 -07.4984 26244.2
 29 03 2013  08 41  -21.0412 26020.0 -03425.0 -07.4986 26244.5
 29 03 2013  08 42  -21.0405 26020.4 -03425.1 -07.4989 26244.8
 29 03 2013  08 43  -21.0401 26021.0 -03425.5 -07.4995 26245.5
 29 03 2013  08 44  -21.0395 26021.8 -03425.9 -07.5001 26246.3
 29 03 2013  08 45  -21.0391 26022.5 -03426.3 -07.5008 26247.0
 29 03 2013  08 46  -21.0383 26023.1 -03426.7 -07.5014 26247.7
 29 03 2013  08 47  -21.0379 26023.4 -03426.8 -07.5017 26248.0
 29 03 2013  08 48  -21.0379 26023.4 -03426.9 -07.5017 26248.0
 29 03 2013  08 49  -21.0382 26023.2 -03426.8 -07.5018 26247.9
 29 03 2013  08 50  -21.0388 26023.0 -03426.8 -07.5017 26247.6
 29 03 2013  08 51  -21.0387 26022.8 -03426.7 -07.5016 26247.4
 29 03 2013  08 52  -21.0380 26022.8 -03426.7 -07.5016 26247.4
 29 03 2013  08 53  -21.0374 26022.9 -03426.8 -07.5018 26247.5
 29 03 2013  08 54  -21.0370 26023.0 -03427.0 -07.5022 26247.7
 29 03 2013  08 55  -21.0359 26023.2 -03427.2 -07.5026 26247.9
 29 03 2013  08 56  -21.0348 26023.5 -03427.5 -07.5032 26248.3
 29 03 2013  08 57  -21.0338 26023.7 -03427.8 -07.5037 26248.5
 29 03 2013  08 58  -21.0334 26024.0 -03428.2 -07.5045 26248.8
 29 03 2013  08 59  -21.0332 26024.2 -03428.6 -07.5053 26249.1
 29 03 2013  09 00  -21.0333 26024.5 -03429.0 -07.5061 26249.5
 29 03 2013  09 01  -21.0335 26024.7 -03429.3 -07.5067 26249.7
 29 03 2013  09 02  -21.0339 26024.8 -03429.6 -07.5072 26249.8
 29 03 2013  09 03  -21.0337 26024.6 -03429.6 -07.5073 26249.6
 29 03 2013  09 04  -21.0337 26024.5 -03429.7 -07.5075 26249.5
 29 03 2013  09 05  -21.0337 26024.5 -03429.8 -07.5079 26249.6
 29 03 2013  09 06  -21.0338 26024.3 -03429.9 -07.5081 26249.3
 29 03 2013  09 07  -21.0343 26024.0 -03430.0 -07.5083 26249.0
 29 03 2013  09 08  -21.0336 26024.0 -03430.0 -07.5085 26249.0
 29 03 2013  09 09  -21.0336 26024.0 -03430.2 -07.5088 26249.0
 29 03 2013  09 10  -21.0344 26023.6 -03430.2 -07.5089 26248.7
 29 03 2013  09 11  -21.0352 26023.3 -03430.2 -07.5091 26248.4
 29 03 2013  09 12  -21.0357 26023.4 -03430.4 -07.5093 26248.6
 29 03 2013  09 13  -21.0360 26023.6 -03430.6 -07.5097 26248.8
 29 03 2013  09 14  -21.0359 26023.6 -03430.6 -07.5098 26248.8
 29 03 2013  09 15  -21.0358 26023.8 -03430.7 -07.5099 26248.9
 29 03 2013  09 16  -21.0357 26024.0 -03430.9 -07.5102 26249.2
 29 03 2013  09 17  -21.0353 26024.0 -03430.9 -07.5103 26249.2
 29 03 2013  09 18  -21.0347 26024.0 -03430.9 -07.5102 26249.2
 29 03 2013  09 19  -21.0347 26024.0 -03430.9 -07.5103 26249.1
 29 03 2013  09 20  -21.0347 26023.9 -03430.9 -07.5104 26249.1
 29 03 2013  09 21  -21.0348 26024.2 -03431.1 -07.5108 26249.4
 29 03 2013  09 22  -21.0352 26024.3 -03431.3 -07.5110 26249.5
 29 03 2013  09 23  -21.0358 26024.2 -03431.3 -07.5111 26249.5
 29 03 2013  09 24  -21.0363 26023.9 -03431.2 -07.5111 26249.2
 29 03 2013  09 25  -21.0379 26023.6 -03431.2 -07.5110 26248.8
 29 03 2013  09 26  -21.0394 26023.0 -03430.9 -07.5106 26248.2
 29 03 2013  09 27  -21.0403 26022.6 -03430.7 -07.5104 26247.8
 29 03 2013  09 28  -21.0402 26022.3 -03430.6 -07.5101 26247.4
 29 03 2013  09 29  -21.0398 26021.9 -03430.4 -07.5098 26247.0
 29 03 2013  09 30  -21.0395 26021.4 -03430.3 -07.5097 26246.6
 29 03 2013  09 31  -21.0394 26021.2 -03430.2 -07.5096 26246.3
 29 03 2013  09 32  -21.0383 26020.9 -03430.1 -07.5095 26246.0
 29 03 2013  09 33  -21.0379 26020.7 -03430.1 -07.5096 26245.9
 29 03 2013  09 34  -21.0370 26020.3 -03430.0 -07.5095 26245.4
 29 03 2013  09 35  -21.0367 26020.2 -03430.0 -07.5095 26245.3
 29 03 2013  09 36  -21.0360 26019.9 -03430.0 -07.5095 26245.0
 29 03 2013  09 37  -21.0372 26019.9 -03430.2 -07.5099 26245.1
 29 03 2013  09 38  -21.0374 26019.9 -03430.3 -07.5102 26245.0
 29 03 2013  09 39  -21.0383 26020.1 -03430.5 -07.5106 26245.2
 29 03 2013  09 40  -21.0385 26020.5 -03430.8 -07.5111 26245.7
 29 03 2013  09 41  -21.0390 26020.6 -03430.9 -07.5112 26245.8
 29 03 2013  09 42  -21.0397 26020.9 -03431.2 -07.5118 26246.1
 29 03 2013  09 43  -21.0404 26020.8 -03431.1 -07.5117 26246.0
 29 03 2013  09 44  -21.0416 26020.9 -03431.3 -07.5120 26246.2
 29 03 2013  09 45  -21.0420 26020.7 -03431.2 -07.5118 26246.0
 29 03 2013  09 46  -21.0435 26020.7 -03431.2 -07.5119 26245.9
 29 03 2013  09 47  -21.0444 26020.6 -03431.1 -07.5117 26245.8
 29 03 2013  09 48  -21.0440 26020.4 -03431.0 -07.5115 26245.6
 29 03 2013  09 49  -21.0447 26020.4 -03431.0 -07.5116 26245.6
 29 03 2013  09 50  -21.0453 26020.3 -03431.0 -07.5117 26245.5
 29 03 2013  09 51  -21.0456 26019.8 -03430.9 -07.5116 26245.0
 29 03 2013  09 52  -21.0454 26019.3 -03430.7 -07.5112 26244.5
 29 03 2013  09 53  -21.0453 26019.0 -03430.6 -07.5110 26244.2
 29 03 2013  09 54  -21.0467 26019.0 -03430.6 -07.5110 26244.2
 29 03 2013  09 55  -21.0480 26018.9 -03430.6 -07.5110 26244.1
 29 03 2013  09 56  -21.0475 26018.9 -03430.5 -07.5108 26244.0
 29 03 2013  09 57  -21.0472 26018.3 -03430.2 -07.5104 26243.5
 29 03 2013  09 58  -21.0478 26018.1 -03430.0 -07.5101 26243.2
 29 03 2013  09 59  -21.0482 26018.2 -03430.1 -07.5102 26243.4
 29 03 2013  10 00  -21.0494 26018.3 -03430.1 -07.5103 26243.5
 29 03 2013  10 01  -21.0495 26018.1 -03429.9 -07.5099 26243.2
 29 03 2013  10 02  -21.0502 26018.1 -03429.9 -07.5098 26243.2
 29 03 2013  10 03  -21.0513 26018.2 -03429.9 -07.5099 26243.3
 29 03 2013  10 04  -21.0529 26018.5 -03430.1 -07.5102 26243.6
 29 03 2013  10 05  -21.0543 26018.6 -03430.2 -07.5103 26243.7
 29 03 2013  10 06  -21.0551 26018.8 -03430.1 -07.5102 26244.0
 29 03 2013  10 07  -21.0553 26018.7 -03429.9 -07.5098 26243.8
 29 03 2013  10 08  -21.0546 26018.2 -03429.5 -07.5090 26243.2
 29 03 2013  10 09  -21.0553 26017.8 -03429.3 -07.5086 26242.8
 29 03 2013  10 10  -21.0553 26017.8 -03429.3 -07.5086 26242.8
 29 03 2013  10 11  -21.0553 26017.5 -03429.1 -07.5083 26242.5
 29 03 2013  10 12  -21.0557 26017.2 -03429.0 -07.5082 26242.2
 29 03 2013  10 13  -21.0560 26017.1 -03428.9 -07.5080 26242.1
 29 03 2013  10 14  -21.0568 26017.2 -03429.0 -07.5081 26242.2
 29 03 2013  10 15  -21.0567 26017.2 -03428.9 -07.5080 26242.2
 29 03 2013  10 16  -21.0559 26016.9 -03428.7 -07.5076 26241.9
 29 03 2013  10 17  -21.0554 26016.8 -03428.7 -07.5075 26241.8
 29 03 2013  10 18  -21.0553 26017.1 -03428.8 -07.5077 26242.0
 29 03 2013  10 19  -21.0541 26017.0 -03428.8 -07.5077 26242.0
 29 03 2013  10 20  -21.0538 26017.1 -03428.8 -07.5078 26242.1
 29 03 2013  10 21  -21.0543 26017.6 -03429.1 -07.5081 26242.6
 29 03 2013  10 22  -21.0553 26018.1 -03429.2 -07.5083 26243.2
 29 03 2013  10 23  -21.0554 26018.7 -03429.3 -07.5084 26243.7
 29 03 2013  10 24  -21.0567 26018.8 -03429.3 -07.5083 26243.8
 29 03 2013  10 25  -21.0571 26019.1 -03429.3 -07.5082 26244.1
 29 03 2013  10 26  -21.0584 26019.5 -03429.4 -07.5083 26244.5
 29 03 2013  10 27  -21.0595 26019.5 -03429.2 -07.5079 26244.5
 29 03 2013  10 28  -21.0610 26019.3 -03429.0 -07.5074 26244.3
 29 03 2013  10 29  -21.0614 26019.1 -03428.7 -07.5069 26244.0
 29 03 2013  10 30  -21.0623 26018.9 -03428.5 -07.5065 26243.8
 29 03 2013  10 31  -21.0621 26018.6 -03428.2 -07.5061 26243.4
 29 03 2013  10 32  -21.0615 26018.3 -03428.0 -07.5056 26243.1
 29 03 2013  10 33  -21.0627 26018.9 -03428.2 -07.5060 26243.8
 29 03 2013  10 34  -21.0626 26019.3 -03428.2 -07.5059 26244.1
 29 03 2013  10 35  -21.0638 26019.6 -03428.3 -07.5059 26244.5
 29 03 2013  10 36  -21.0651 26020.1 -03428.3 -07.5059 26244.9
 29 03 2013  10 37  -21.0666 26020.0 -03428.1 -07.5054 26244.9
 29 03 2013  10 38  -21.0676 26019.9 -03427.7 -07.5046 26244.7
 29 03 2013  10 39  -21.0671 26019.6 -03427.3 -07.5038 26244.3
 29 03 2013  10 40  -21.0667 26019.4 -03427.0 -07.5031 26244.1
 29 03 2013  10 41  -21.0672 26019.7 -03427.0 -07.5030 26244.4
 29 03 2013  10 42  -21.0669 26020.1 -03426.9 -07.5028 26244.8
 29 03 2013  10 43  -21.0675 26020.6 -03427.0 -07.5028 26245.3
 29 03 2013  10 44  -21.0677 26021.1 -03427.0 -07.5028 26245.8
 29 03 2013  10 45  -21.0669 26021.6 -03426.9 -07.5024 26246.3
 29 03 2013  10 46  -21.0673 26022.5 -03426.9 -07.5021 26247.2
 29 03 2013  10 47  -21.0684 26022.7 -03426.5 -07.5013 26247.4
 29 03 2013  10 48  -21.0682 26022.3 -03425.9 -07.5001 26246.9
 29 03 2013  10 49  -21.0673 26021.6 -03425.2 -07.4987 26246.1
 29 03 2013  10 50  -21.0658 26021.9 -03425.0 -07.4982 26246.4
 29 03 2013  10 51  -21.0656 26021.9 -03424.9 -07.4978 26246.3
 29 03 2013  10 52  -21.0652 26022.2 -03424.7 -07.4975 26246.6
 29 03 2013  10 53  -21.0649 26023.4 -03425.0 -07.4977 26247.9
 29 03 2013  10 54  -21.0626 26024.7 -03425.2 -07.4977 26249.1
 29 03 2013  10 55  -21.0608 26025.1 -03425.1 -07.4973 26249.5
 29 03 2013  10 56  -21.0610 26025.8 -03425.1 -07.4973 26250.2
 29 03 2013  10 57  -21.0658 26028.1 -03425.9 -07.4982 26252.6
 29 03 2013  10 58  -21.0681 26029.0 -03425.5 -07.4971 26253.4
 29 03 2013  10 59  -21.0686 26028.8 -03424.6 -07.4954 26253.2
 29 03 2013  11 00  -21.0686 26029.1 -03424.3 -07.4947 26253.4
 29 03 2013  11 01  -21.0691 26029.8 -03424.4 -07.4947 26254.1
 29 03 2013  11 02  -21.0689 26030.7 -03424.6 -07.4947 26255.0
 29 03 2013  11 03  -21.0699 26031.4 -03424.5 -07.4945 26255.6
 29 03 2013  11 04  -21.0707 26031.2 -03424.2 -07.4937 26255.5
 29 03 2013  11 05  -21.0704 26031.2 -03423.9 -07.4930 26255.4
 29 03 2013  11 06  -21.0722 26031.3 -03423.8 -07.4929 26255.5
 29 03 2013  11 07  -21.0727 26031.9 -03424.0 -07.4931 26256.1
 29 03 2013  11 08  -21.0715 26032.8 -03424.2 -07.4933 26257.0
 29 03 2013  11 09  -21.0702 26033.4 -03424.2 -07.4931 26257.6
 29 03 2013  11 10  -21.0695 26033.9 -03424.1 -07.4927 26258.1
 29 03 2013  11 11  -21.0694 26034.0 -03423.9 -07.4923 26258.2
 29 03 2013  11 12  -21.0699 26034.6 -03424.0 -07.4924 26258.8
 29 03 2013  11 13  -21.0702 26034.7 -03423.9 -07.4922 26258.8
 29 03 2013  11 14  -21.0698 26034.6 -03423.7 -07.4918 26258.7
 29 03 2013  11 15  -21.0704 26034.7 -03423.8 -07.4918 26258.8
 29 03 2013  11 16  -21.0711 26035.0 -03424.0 -07.4922 26259.1
 29 03 2013  11 17  -21.0713 26035.7 -03424.2 -07.4926 26259.9
 29 03 2013  11 18  -21.0716 26036.2 -03424.4 -07.4927 26260.4
 29 03 2013  11 19  -21.0715 26036.8 -03424.4 -07.4926 26261.0
 29 03 2013  11 20  -21.0709 26037.2 -03424.4 -07.4926 26261.5
 29 03 2013  11 21  -21.0706 26038.1 -03424.7 -07.4929 26262.3
 29 03 2013  11 22  -21.0701 26038.9 -03424.9 -07.4931 26263.2
 29 03 2013  11 23  -21.0687 26039.5 -03425.0 -07.4931 26263.8
 29 03 2013  11 24  -21.0679 26039.6 -03424.8 -07.4928 26263.8
 29 03 2013  11 25  -21.0685 26039.6 -03424.8 -07.4927 26263.9
 29 03 2013  11 26  -21.0686 26039.8 -03424.8 -07.4926 26264.0
 29 03 2013  11 27  -21.0687 26039.6 -03424.6 -07.4923 26263.8
 29 03 2013  11 28  -21.0694 26039.5 -03424.6 -07.4922 26263.7
 29 03 2013  11 29  -21.0693 26039.8 -03424.7 -07.4923 26264.1
 29 03 2013  11 30  -21.0688 26040.6 -03424.8 -07.4924 26264.8
 29 03 2013  11 31  -21.0687 26041.3 -03425.0 -07.4926 26265.5
 29 03 2013  11 32  -21.0689 26041.6 -03424.9 -07.4924 26265.9
 29 03 2013  11 33  -21.0692 26041.7 -03424.8 -07.4921 26265.9
 29 03 2013  11 34  -21.0698 26042.0 -03424.9 -07.4922 26266.3
 29 03 2013  11 35  -21.0713 26042.7 -03425.1 -07.4925 26266.9
 29 03 2013  11 36  -21.0734 26043.5 -03425.4 -07.4928 26267.8
 29 03 2013  11 37  -21.0743 26044.0 -03425.5 -07.4928 26268.3
 29 03 2013  11 38  -21.0733 26044.4 -03425.3 -07.4925 26268.7
 29 03 2013  11 39  -21.0735 26043.9 -03424.8 -07.4915 26268.1
 29 03 2013  11 40  -21.0748 26042.6 -03424.1 -07.4904 26266.8
 29 03 2013  11 41  -21.0762 26042.3 -03424.1 -07.4903 26266.4
 29 03 2013  11 42  -21.0767 26041.9 -03424.1 -07.4905 26266.1
 29 03 2013  11 43  -21.0764 26041.0 -03423.9 -07.4904 26265.1
 29 03 2013  11 44  -21.0766 26040.4 -03424.1 -07.4909 26264.5
 29 03 2013  11 45  -21.0769 26040.3 -03424.4 -07.4917 26264.5
 29 03 2013  11 46  -21.0772 26040.6 -03425.0 -07.4928 26264.8
 29 03 2013  11 47  -21.0770 26040.4 -03425.2 -07.4933 26264.7
 29 03 2013  11 48  -21.0768 26039.5 -03425.0 -07.4932 26263.8
 29 03 2013  11 49  -21.0765 26038.5 -03424.8 -07.4930 26262.8
 29 03 2013  11 50  -21.0771 26037.9 -03424.9 -07.4933 26262.2
 29 03 2013  11 51  -21.0777 26037.3 -03425.0 -07.4937 26261.6
 29 03 2013  11 52  -21.0776 26036.9 -03425.0 -07.4939 26261.2
 29 03 2013  11 53  -21.0773 26036.7 -03425.1 -07.4942 26261.0
 29 03 2013  11 54  -21.0773 26036.5 -03425.3 -07.4946 26260.8
 29 03 2013  11 55  -21.0775 26036.2 -03425.4 -07.4949 26260.6
 29 03 2013  11 56  -21.0784 26035.9 -03425.4 -07.4950 26260.2
 29 03 2013  11 57  -21.0788 26035.4 -03425.4 -07.4951 26259.8
 29 03 2013  11 58  -21.0794 26035.3 -03425.5 -07.4954 26259.7
 29 03 2013  11 59  -21.0804 26035.4 -03425.6 -07.4957 26259.8
 29 03 2013  12 00  -21.0826 26035.6 -03425.8 -07.4959 26260.0
 29 03 2013  12 01  -21.0845 26036.0 -03425.9 -07.4960 26260.4
 29 03 2013  12 02  -21.0849 26036.0 -03425.7 -07.4956 26260.4
 29 03 2013  12 03  -21.0852 26036.0 -03425.5 -07.4952 26260.4
 29 03 2013  12 04  -21.0860 26036.2 -03425.4 -07.4949 26260.6
 29 03 2013  12 05  -21.0868 26036.4 -03425.2 -07.4944 26260.7
 29 03 2013  12 06  -21.0875 26036.7 -03425.1 -07.4941 26261.0
 29 03 2013  12 07  -21.0880 26036.2 -03424.5 -07.4930 26260.5
 29 03 2013  12 08  -21.0879 26036.5 -03424.4 -07.4926 26260.7
 29 03 2013  12 09  -21.0879 26037.2 -03424.4 -07.4924 26261.5
 29 03 2013  12 10  -21.0878 26037.3 -03424.0 -07.4917 26261.5
 29 03 2013  12 11  -21.0876 26037.6 -03423.6 -07.4907 26261.7
 29 03 2013  12 12  -21.0879 26038.0 -03423.3 -07.4900 26262.1
 29 03 2013  12 13  -21.0876 26038.3 -03422.9 -07.4890 26262.4
 29 03 2013  12 14  -21.0876 26039.1 -03422.8 -07.4886 26263.1
 29 03 2013  12 15  -21.0878 26039.5 -03422.6 -07.4879 26263.5
 29 03 2013  12 16  -21.0871 26040.4 -03422.5 -07.4875 26264.3
 29 03 2013  12 17  -21.0880 26041.0 -03422.4 -07.4871 26265.0
 29 03 2013  12 18  -21.0885 26041.9 -03422.3 -07.4866 26265.8
 29 03 2013  12 19  -21.0892 26044.0 -03422.5 -07.4865 26267.9
 29 03 2013  12 20  -21.0907 26045.5 -03422.5 -07.4860 26269.4
 29 03 2013  12 21  -21.0911 26046.2 -03421.9 -07.4845 26270.0
 29 03 2013  12 22  -21.0902 26046.8 -03421.2 -07.4829 26270.6
 29 03 2013  12 23  -21.0883 26048.1 -03420.7 -07.4813 26271.7
 29 03 2013  12 24  -21.0881 26048.9 -03420.2 -07.4801 26272.5
 29 03 2013  12 25  -21.0884 26050.2 -03420.1 -07.4794 26273.8
 29 03 2013  12 26  -21.0902 26051.6 -03420.1 -07.4791 26275.2
 29 03 2013  12 27  -21.0908 26052.1 -03419.6 -07.4779 26275.6
 29 03 2013  12 28  -21.0900 26053.4 -03419.4 -07.4770 26276.8
 29 03 2013  12 29  -21.0898 26054.4 -03418.8 -07.4756 26277.7
 29 03 2013  12 30  -21.0899 26056.1 -03418.7 -07.4747 26279.4
 29 03 2013  12 31  -21.0911 26057.1 -03418.2 -07.4735 26280.3
 29 03 2013  12 32  -21.0902 26057.2 -03417.4 -07.4716 26280.3
 29 03 2013  12 33  -21.0893 26056.5 -03416.4 -07.4698 26279.5
 29 03 2013  12 34  -21.0889 26055.4 -03415.7 -07.4684 26278.3
 29 03 2013  12 35  -21.0883 26054.3 -03415.0 -07.4673 26277.1
 29 03 2013  12 36  -21.0884 26054.2 -03414.9 -07.4672 26277.0
 29 03 2013  12 37  -21.0881 26054.2 -03414.9 -07.4672 26277.0
 29 03 2013  12 38  -21.0880 26053.7 -03414.8 -07.4669 26276.5
 29 03 2013  12 39  -21.0883 26053.6 -03414.7 -07.4668 26276.4
 29 03 2013  12 40  -21.0892 26054.1 -03414.8 -07.4670 26276.9
 29 03 2013  12 41  -21.0902 26054.0 -03414.7 -07.4667 26276.8
 29 03 2013  12 42  -21.0914 26053.8 -03414.4 -07.4662 26276.5
 29 03 2013  12 43  -21.0919 26053.8 -03414.3 -07.4659 26276.6
 29 03 2013  12 44  -21.0913 26054.5 -03414.4 -07.4660 26277.3
 29 03 2013  12 45  -21.0913 26055.6 -03414.7 -07.4663 26278.4
 29 03 2013  12 46  -21.0914 26056.3 -03414.7 -07.4661 26279.1
 29 03 2013  12 47  -21.0917 26056.6 -03414.4 -07.4654 26279.3
 29 03 2013  12 48  -21.0923 26056.0 -03413.8 -07.4642 26278.6
 29 03 2013  12 49  -21.0928 26055.6 -03413.5 -07.4636 26278.3
 29 03 2013  12 50  -21.0928 26055.7 -03413.4 -07.4634 26278.4
 29 03 2013  12 51  -21.0928 26056.0 -03413.3 -07.4631 26278.6
 29 03 2013  12 52  -21.0929 26056.3 -03413.1 -07.4627 26278.9
 29 03 2013  12 53  -21.0927 26056.5 -03412.9 -07.4622 26279.1
 29 03 2013  12 54  -21.0922 26056.4 -03412.5 -07.4614 26278.9
 29 03 2013  12 55  -21.0922 26056.8 -03412.5 -07.4611 26279.3
 29 03 2013  12 56  -21.0924 26057.7 -03412.6 -07.4611 26280.2
 29 03 2013  12 57  -21.0927 26057.9 -03412.4 -07.4607 26280.4
 29 03 2013  12 58  -21.0924 26057.6 -03412.3 -07.4605 26280.1
 29 03 2013  12 59  -21.0921 26057.6 -03412.2 -07.4602 26280.1
 29 03 2013  13 00  -21.0914 26057.9 -03412.1 -07.4600 26280.4
 29 03 2013  13 01  -21.0911 26057.8 -03411.9 -07.4596 26280.2
 29 03 2013  13 02  -21.0909 26057.7 -03411.8 -07.4593 26280.1
 29 03 2013  13 03  -21.0905 26057.1 -03411.4 -07.4586 26279.4
 29 03 2013  13 04  -21.0896 26057.0 -03411.2 -07.4584 26279.3
 29 03 2013  13 05  -21.0893 26057.9 -03411.5 -07.4588 26280.3
 29 03 2013  13 06  -21.0891 26060.6 -03412.3 -07.4597 26283.0
 29 03 2013  13 07  -21.0890 26062.9 -03412.6 -07.4597 26285.4
 29 03 2013  13 08  -21.0879 26065.0 -03412.6 -07.4591 26287.4
 29 03 2013  13 09  -21.0867 26066.5 -03412.3 -07.4581 26288.9
 29 03 2013  13 10  -21.0854 26068.4 -03412.3 -07.4575 26290.8
 29 03 2013  13 11  -21.0843 26070.1 -03412.2 -07.4567 26292.5
 29 03 2013  13 12  -21.0827 26071.3 -03411.7 -07.4554 26293.6
 29 03 2013  13 13  -21.0823 26072.6 -03411.5 -07.4546 26294.8
 29 03 2013  13 14  -21.0820 26073.0 -03411.0 -07.4534 26295.1
 29 03 2013  13 15  -21.0817 26072.8 -03410.4 -07.4520 26294.9
 29 03 2013  13 16  -21.0816 26072.7 -03409.9 -07.4510 26294.8
 29 03 2013  13 17  -21.0819 26073.3 -03409.8 -07.4508 26295.3
 29 03 2013  13 18  -21.0820 26073.4 -03409.5 -07.4501 26295.3
 29 03 2013  13 19  -21.0827 26073.1 -03409.1 -07.4493 26295.1
 29 03 2013  13 20  -21.0836 26072.4 -03408.8 -07.4488 26294.3
 29 03 2013  13 21  -21.0848 26070.8 -03408.1 -07.4478 26292.6
 29 03 2013  13 22  -21.0861 26069.1 -03407.6 -07.4472 26290.9
 29 03 2013  13 23  -21.0871 26067.7 -03407.3 -07.4470 26289.4
 29 03 2013  13 24  -21.0874 26066.2 -03407.0 -07.4468 26287.9
 29 03 2013  13 25  -21.0883 26065.1 -03407.0 -07.4469 26286.8
 29 03 2013  13 26  -21.0879 26065.1 -03407.1 -07.4471 26286.9
 29 03 2013  13 27  -21.0870 26067.2 -03407.9 -07.4484 26289.1
 29 03 2013  13 28  -21.0868 26068.4 -03408.2 -07.4486 26290.2
 29 03 2013  13 29  -21.0866 26069.5 -03408.1 -07.4480 26291.3
 29 03 2013  13 30  -21.0873 26069.4 -03407.8 -07.4475 26291.2
 29 03 2013  13 31  -21.0870 26067.2 -03406.8 -07.4460 26288.9
 29 03 2013  13 32  -21.0865 26065.3 -03406.2 -07.4451 26287.0
 29 03 2013  13 33  -21.0873 26065.1 -03406.6 -07.4460 26286.8
 29 03 2013  13 34  -21.0883 26064.7 -03406.7 -07.4465 26286.4
 29 03 2013  13 35  -21.0892 26065.3 -03406.9 -07.4468 26287.0
 29 03 2013  13 36  -21.0894 26066.2 -03407.1 -07.4468 26287.9
 29 03 2013  13 37  -21.0885 26067.7 -03407.3 -07.4469 26289.4
 29 03 2013  13 38  -21.0887 26071.1 -03408.4 -07.4482 26292.9
 29 03 2013  13 39  -21.0891 26074.0 -03408.9 -07.4487 26295.9
 29 03 2013  13 40  -21.0893 26075.2 -03408.4 -07.4471 26297.0
 29 03 2013  13 41  -21.0898 26076.7 -03408.0 -07.4458 26298.5
 29 03 2013  13 42  -21.0896 26076.4 -03406.7 -07.4432 26298.0
 29 03 2013  13 43  -21.0887 26074.4 -03405.2 -07.4404 26295.9
 29 03 2013  13 44  -21.0873 26072.2 -03403.8 -07.4380 26293.5
 29 03 2013  13 45  -21.0871 26071.4 -03403.3 -07.4373 26292.6
 29 03 2013  13 46  -21.0871 26071.5 -03403.2 -07.4370 26292.7
 29 03 2013  13 47  -21.0873 26071.9 -03403.2 -07.4368 26293.1
 29 03 2013  13 48  -21.0870 26071.6 -03402.9 -07.4363 26292.8
 29 03 2013  13 49  -21.0863 26071.3 -03402.6 -07.4357 26292.4
 29 03 2013  13 50  -21.0861 26071.1 -03402.3 -07.4352 26292.1
 29 03 2013  13 51  -21.0863 26071.9 -03402.5 -07.4353 26292.9
 29 03 2013  13 52  -21.0871 26073.3 -03402.7 -07.4353 26294.4
 29 03 2013  13 53  -21.0875 26073.8 -03402.4 -07.4346 26294.8
 29 03 2013  13 54  -21.0874 26072.9 -03401.5 -07.4329 26293.9
 29 03 2013  13 55  -21.0877 26072.9 -03401.1 -07.4320 26293.8
 29 03 2013  13 56  -21.0887 26073.4 -03401.1 -07.4319 26294.3
 29 03 2013  13 57  -21.0894 26073.2 -03400.8 -07.4313 26294.0
 29 03 2013  13 58  -21.0896 26073.0 -03400.5 -07.4307 26293.9
 29 03 2013  13 59  -21.0907 26073.5 -03400.6 -07.4307 26294.4
 29 03 2013  14 00  -21.0914 26074.1 -03400.6 -07.4306 26295.0
 29 03 2013  14 01  -21.0919 26073.9 -03400.2 -07.4299 26294.7
 29 03 2013  14 02  -21.0920 26072.7 -03399.5 -07.4285 26293.4
 29 03 2013  14 03  -21.0928 26072.6 -03399.4 -07.4284 26293.3
 29 03 2013  14 04  -21.0931 26071.4 -03398.9 -07.4277 26292.1
 29 03 2013  14 05  -21.0924 26069.8 -03398.2 -07.4266 26290.4
 29 03 2013  14 06  -21.0922 26068.5 -03397.9 -07.4263 26289.0
 29 03 2013  14 07  -21.0924 26067.4 -03397.9 -07.4266 26288.0
 29 03 2013  14 08  -21.0929 26067.2 -03398.2 -07.4274 26287.8
 29 03 2013  14 09  -21.0934 26066.8 -03398.5 -07.4280 26287.4
 29 03 2013  14 10  -21.0929 26065.9 -03398.4 -07.4281 26286.5
 29 03 2013  14 11  -21.0923 26065.3 -03398.5 -07.4285 26285.9
 29 03 2013  14 12  -21.0917 26065.7 -03399.1 -07.4297 26286.4
 29 03 2013  14 13  -21.0920 26066.0 -03399.6 -07.4307 26286.8
 29 03 2013  14 14  -21.0935 26065.9 -03399.9 -07.4314 26286.7
 29 03 2013  14 15  -21.0936 26065.3 -03399.9 -07.4315 26286.1
 29 03 2013  14 16  -21.0927 26065.1 -03400.1 -07.4320 26285.9
 29 03 2013  14 17  -21.0912 26064.5 -03400.2 -07.4324 26285.3
 29 03 2013  14 18  -21.0900 26064.2 -03400.5 -07.4331 26285.1
 29 03 2013  14 19  -21.0896 26063.4 -03400.6 -07.4336 26284.4
 29 03 2013  14 20  -21.0887 26062.7 -03400.7 -07.4339 26283.6
 29 03 2013  14 21  -21.0875 26062.2 -03400.9 -07.4346 26283.2
 29 03 2013  14 22  -21.0872 26061.8 -03401.2 -07.4354 26282.8
 29 03 2013  14 23  -21.0872 26061.5 -03401.6 -07.4362 26282.6
 29 03 2013  14 24  -21.0874 26060.9 -03401.7 -07.4368 26281.9
 29 03 2013  14 25  -21.0875 26059.8 -03401.8 -07.4372 26280.9
 29 03 2013  14 26  -21.0874 26059.0 -03402.0 -07.4378 26280.1
 29 03 2013  14 27  -21.0874 26058.7 -03402.3 -07.4387 26279.9
 29 03 2013  14 28  -21.0876 26058.4 -03402.7 -07.4395 26279.6
 29 03 2013  14 29  -21.0875 26057.8 -03402.8 -07.4399 26279.0
 29 03 2013  14 30  -21.0873 26057.3 -03403.1 -07.4407 26278.6
 29 03 2013  14 31  -21.0869 26057.6 -03403.7 -07.4419 26278.9
 29 03 2013  14 32  -21.0880 26059.4 -03405.0 -07.4441 26280.9
 29 03 2013  14 33  -21.0889 26059.8 -03405.3 -07.4448 26281.3
 29 03 2013  14 34  -21.0891 26058.7 -03404.9 -07.4443 26280.2
 29 03 2013  14 35  -21.0884 26057.6 -03404.6 -07.4440 26279.1
 29 03 2013  14 36  -21.0869 26055.8 -03404.3 -07.4438 26277.3
 29 03 2013  14 37  -21.0849 26053.5 -03403.8 -07.4433 26274.9
 29 03 2013  14 38  -21.0845 26051.1 -03403.4 -07.4432 26272.5
 29 03 2013  14 39  -21.0835 26048.9 -03403.1 -07.4432 26270.2
 29 03 2013  14 40  -21.0828 26048.4 -03403.7 -07.4445 26269.8
 29 03 2013  14 41  -21.0827 26048.8 -03404.6 -07.4463 26270.3
 29 03 2013  14 42  -21.0825 26049.1 -03405.4 -07.4480 26270.8
 29 03 2013  14 43  -21.0823 26048.7 -03405.5 -07.4485 26270.4
 29 03 2013  14 44  -21.0819 26048.7 -03405.9 -07.4492 26270.4
 29 03 2013  14 45  -21.0819 26049.1 -03406.3 -07.4500 26270.9
 29 03 2013  14 46  -21.0810 26048.7 -03406.4 -07.4502 26270.5
 29 03 2013  14 47  -21.0802 26049.1 -03406.7 -07.4509 26270.9
 29 03 2013  14 48  -21.0799 26049.4 -03407.0 -07.4514 26271.3
 29 03 2013  14 49  -21.0789 26049.5 -03407.1 -07.4516 26271.4
 29 03 2013  14 50  -21.0783 26049.8 -03407.3 -07.4518 26271.7
 29 03 2013  14 51  -21.0776 26050.6 -03407.7 -07.4525 26272.5
 29 03 2013  14 52  -21.0775 26052.7 -03408.7 -07.4541 26274.7
 29 03 2013  14 53  -21.0782 26053.7 -03409.0 -07.4545 26275.7
 29 03 2013  14 54  -21.0766 26054.1 -03408.8 -07.4540 26276.2
 29 03 2013  14 55  -21.0763 26055.8 -03409.5 -07.4550 26277.9
 29 03 2013  14 56  -21.0765 26056.3 -03409.5 -07.4550 26278.4
 29 03 2013  14 57  -21.0763 26057.0 -03409.5 -07.4547 26279.1
 29 03 2013  14 58  -21.0762 26057.4 -03409.4 -07.4544 26279.5
 29 03 2013  14 59  -21.0762 26058.1 -03409.5 -07.4543 26280.2
 29 03 2013  15 00  -21.0771 26058.3 -03409.3 -07.4538 26280.4
 29 03 2013  15 01  -21.0778 26058.7 -03409.0 -07.4531 26280.7
 29 03 2013  15 02  -21.0777 26058.9 -03408.8 -07.4526 26280.9
 29 03 2013  15 03  -21.0771 26058.4 -03408.4 -07.4518 26280.4
 29 03 2013  15 04  -21.0764 26057.5 -03407.8 -07.4508 26279.4
 29 03 2013  15 05  -21.0741 26056.3 -03407.2 -07.4499 26278.1
 29 03 2013  15 06  -21.0742 26057.5 -03408.0 -07.4513 26279.4
 29 03 2013  15 07  -21.0756 26058.5 -03408.6 -07.4522 26280.5
 29 03 2013  15 08  -21.0772 26059.8 -03408.9 -07.4525 26281.8
 29 03 2013  15 09  -21.0786 26061.6 -03409.3 -07.4530 26283.7
 29 03 2013  15 10  -21.0785 26062.4 -03409.1 -07.4523 26284.4
 29 03 2013  15 11  -21.0786 26063.1 -03408.8 -07.4515 26285.1
 29 03 2013  15 12  -21.0777 26063.8 -03408.5 -07.4505 26285.7
 29 03 2013  15 13  -21.0776 26065.8 -03408.9 -07.4509 26287.8
 29 03 2013  15 14  -21.0787 26067.4 -03409.0 -07.4505 26289.4
 29 03 2013  15 15  -21.0782 26068.0 -03408.4 -07.4491 26289.9
 29 03 2013  15 16  -21.0772 26068.6 -03407.8 -07.4477 26290.4
 29 03 2013  15 17  -21.0758 26068.3 -03406.9 -07.4459 26290.0
 29 03 2013  15 18  -21.0747 26068.0 -03406.2 -07.4445 26289.6
 29 03 2013  15 19  -21.0733 26067.2 -03405.5 -07.4432 26288.7
 29 03 2013  15 20  -21.0708 26066.4 -03405.0 -07.4422 26287.9
 29 03 2013  15 21  -21.0695 26065.4 -03404.4 -07.4414 26286.8
 29 03 2013  15 22  -21.0689 26064.0 -03403.9 -07.4405 26285.4
 29 03 2013  15 23  -21.0678 26062.4 -03403.3 -07.4398 26283.7
 29 03 2013  15 24  -21.0681 26061.8 -03403.5 -07.4403 26283.1
 29 03 2013  15 25  -21.0685 26062.1 -03403.9 -07.4411 26283.4
 29 03 2013  15 26  -21.0695 26062.7 -03404.3 -07.4417 26284.1
 29 03 2013  15 27  -21.0702 26062.5 -03404.2 -07.4416 26283.9
 29 03 2013  15 28  -21.0697 26061.2 -03403.5 -07.4404 26282.5
 29 03 2013  15 29  -21.0706 26061.7 -03403.7 -07.4408 26283.0
 29 03 2013  15 30  -21.0721 26063.5 -03404.5 -07.4421 26285.0
 29 03 2013  15 31  -21.0738 26066.0 -03405.5 -07.4434 26287.5
 29 03 2013  15 32  -21.0752 26067.0 -03405.4 -07.4428 26288.5
 29 03 2013  15 33  -21.0774 26068.7 -03405.5 -07.4427 26290.2
 29 03 2013  15 34  -21.0786 26071.0 -03405.8 -07.4428 26292.5
 29 03 2013  15 35  -21.0803 26072.7 -03405.9 -07.4424 26294.2
 29 03 2013  15 36  -21.0808 26073.0 -03405.2 -07.4409 26294.4
 29 03 2013  15 37  -21.0808 26071.5 -03403.9 -07.4385 26292.8
 29 03 2013  15 38  -21.0812 26068.7 -03402.5 -07.4362 26289.8
 29 03 2013  15 39  -21.0826 26066.4 -03401.6 -07.4348 26287.4
 29 03 2013  15 40  -21.0852 26065.4 -03401.6 -07.4351 26286.4
 29 03 2013  15 41  -21.0862 26063.1 -03401.0 -07.4346 26284.1
 29 03 2013  15 42  -21.0864 26061.6 -03400.7 -07.4344 26282.5
 29 03 2013  15 43  -21.0897 26062.7 -03401.8 -07.4364 26283.8
 29 03 2013  15 44  -21.0924 26063.4 -03402.4 -07.4375 26284.5
 29 03 2013  15 45  -21.0947 26064.0 -03402.7 -07.4379 26285.2
 29 03 2013  15 46  -21.0956 26065.3 -03403.0 -07.4382 26286.5
 29 03 2013  15 47  -21.0972 26065.5 -03402.8 -07.4378 26286.7
 29 03 2013  15 48  -21.0984 26066.1 -03402.8 -07.4376 26287.3
 29 03 2013  15 49  -21.0990 26065.8 -03402.3 -07.4367 26287.0
 29 03 2013  15 50  -21.0998 26064.5 -03401.5 -07.4352 26285.5
 29 03 2013  15 51  -21.1018 26062.6 -03400.7 -07.4340 26283.5
 29 03 2013  15 52  -21.1016 26061.2 -03400.1 -07.4332 26282.1
 29 03 2013  15 53  -21.1031 26061.2 -03400.4 -07.4338 26282.1
 29 03 2013  15 54  -21.1034 26061.6 -03400.8 -07.4345 26282.5
 29 03 2013  15 55  -21.1035 26061.0 -03400.7 -07.4345 26281.9
 29 03 2013  15 56  -21.1040 26059.4 -03400.2 -07.4340 26280.3
 29 03 2013  15 57  -21.1030 26058.3 -03400.0 -07.4337 26279.2
 29 03 2013  15 58  -21.1031 26057.6 -03400.0 -07.4341 26278.4
 29 03 2013  15 59  -21.1037 26057.3 -03400.4 -07.4350 26278.2
 29 03 2013  16 00  -21.1038 26056.9 -03400.7 -07.4357 26277.9
 29 03 2013  16 01  -21.1043 26057.7 -03401.5 -07.4371 26278.8
 29 03 2013  16 02  -21.1060 26059.3 -03402.6 -07.4391 26280.6
 29 03 2013  16 03  -21.1080 26060.8 -03403.4 -07.4404 26282.1
 29 03 2013  16 04  -21.1076 26061.6 -03403.5 -07.4404 26282.9
 29 03 2013  16 05  -21.1073 26062.0 -03403.5 -07.4403 26283.3
 29 03 2013  16 06  -21.1063 26062.0 -03403.4 -07.4400 26283.2
 29 03 2013  16 07  -21.1051 26061.7 -03403.2 -07.4397 26282.9
 29 03 2013  16 08  -21.1038 26061.5 -03403.1 -07.4396 26282.7
 29 03 2013  16 09  -21.1036 26061.5 -03403.3 -07.4399 26282.7
 29 03 2013  16 10  -21.1031 26061.2 -03403.3 -07.4400 26282.5
 29 03 2013  16 11  -21.1029 26061.2 -03403.3 -07.4402 26282.5
 29 03 2013  16 12  -21.1025 26060.2 -03403.0 -07.4397 26281.5
 29 03 2013  16 13  -21.1011 26058.1 -03402.3 -07.4388 26279.3
 29 03 2013  16 14  -21.0994 26056.8 -03402.0 -07.4386 26277.9
 29 03 2013  16 15  -21.0973 26055.8 -03402.0 -07.4388 26276.9
 29 03 2013  16 16  -21.0969 26054.1 -03402.0 -07.4392 26275.2
 29 03 2013  16 17  -21.0949 26051.6 -03401.6 -07.4392 26272.8
 29 03 2013  16 18  -21.0938 26049.9 -03401.8 -07.4400 26271.1
 29 03 2013  16 19  -21.0926 26047.3 -03401.6 -07.4404 26268.5
 29 03 2013  16 20  -21.0912 26044.1 -03401.3 -07.4406 26265.3
 29 03 2013  16 21  -21.0905 26041.0 -03401.3 -07.4415 26262.2
 29 03 2013  16 22  -21.0911 26037.2 -03401.3 -07.4425 26258.5
 29 03 2013  16 23  -21.0915 26034.3 -03401.6 -07.4440 26255.6
 29 03 2013  16 24  -21.0932 26032.1 -03402.2 -07.4460 26253.5
 29 03 2013  16 25  -21.0955 26030.0 -03402.9 -07.4480 26251.5
 29 03 2013  16 26  -21.0978 26028.6 -03403.7 -07.4501 26250.2
 29 03 2013  16 27  -21.0996 26027.8 -03404.5 -07.4522 26249.5
 29 03 2013  16 28  -21.0994 26027.2 -03405.1 -07.4536 26249.0
 29 03 2013  16 29  -21.1000 26026.4 -03405.6 -07.4549 26248.3
 29 03 2013  16 30  -21.1006 26026.6 -03406.4 -07.4565 26248.6
 29 03 2013  16 31  -21.1018 26027.2 -03407.2 -07.4582 26249.3
 29 03 2013  16 32  -21.1021 26026.8 -03407.5 -07.4589 26248.9
 29 03 2013  16 33  -21.1026 26026.6 -03407.9 -07.4597 26248.8
 29 03 2013  16 34  -21.1039 26026.1 -03408.1 -07.4604 26248.3
 29 03 2013  16 35  -21.1042 26024.4 -03407.9 -07.4603 26246.5
 29 03 2013  16 36  -21.1044 26023.1 -03407.9 -07.4607 26245.3
 29 03 2013  16 37  -21.1044 26021.7 -03408.0 -07.4613 26243.9
 29 03 2013  16 38  -21.1042 26020.8 -03408.2 -07.4622 26243.0
 29 03 2013  16 39  -21.1044 26019.8 -03408.6 -07.4632 26242.1
 29 03 2013  16 40  -21.1043 26018.6 -03408.7 -07.4639 26240.9
 29 03 2013  16 41  -21.1045 26017.4 -03409.0 -07.4647 26239.8
 29 03 2013  16 42  -21.1043 26016.3 -03409.2 -07.4656 26238.7
 29 03 2013  16 43  -21.1036 26015.0 -03409.5 -07.4666 26237.5
 29 03 2013  16 44  -21.1030 26014.1 -03410.0 -07.4679 26236.6
 29 03 2013  16 45  -21.1032 26012.7 -03410.3 -07.4689 26235.3
 29 03 2013  16 46  -21.1027 26011.1 -03410.5 -07.4698 26233.7
 29 03 2013  16 47  -21.1031 26010.5 -03411.1 -07.4714 26233.3
 29 03 2013  16 48  -21.1031 26010.2 -03411.8 -07.4730 26233.0
 29 03 2013  16 49  -21.1030 26010.4 -03412.6 -07.4747 26233.3
 29 03 2013  16 50  -21.1040 26011.0 -03413.5 -07.4764 26234.0
 29 03 2013  16 51  -21.1044 26011.2 -03414.0 -07.4774 26234.3
 29 03 2013  16 52  -21.1050 26011.4 -03414.4 -07.4783 26234.6
 29 03 2013  16 53  -21.1056 26011.4 -03414.8 -07.4789 26234.6
 29 03 2013  16 54  -21.1062 26011.1 -03414.9 -07.4793 26234.3
 29 03 2013  16 55  -21.1061 26010.8 -03415.0 -07.4796 26234.0
 29 03 2013  16 56  -21.1062 26010.5 -03415.2 -07.4801 26233.8
 29 03 2013  16 57  -21.1076 26010.6 -03415.6 -07.4810 26233.9
 29 03 2013  16 58  -21.1091 26010.7 -03415.9 -07.4817 26234.1
 29 03 2013  16 59  -21.1106 26011.0 -03416.2 -07.4821 26234.3
 29 03 2013  17 00  -21.1117 26011.1 -03416.3 -07.4823 26234.5
 29 03 2013  17 01  -21.1124 26011.7 -03416.5 -07.4826 26235.1
 29 03 2013  17 02  -21.1131 26011.9 -03416.5 -07.4826 26235.3
 29 03 2013  17 03  -21.1142 26012.6 -03416.7 -07.4828 26236.0
 29 03 2013  17 04  -21.1151 26013.9 -03417.0 -07.4831 26237.3
 29 03 2013  17 05  -21.1161 26015.3 -03417.1 -07.4829 26238.7
 29 03 2013  17 06  -21.1177 26016.5 -03417.2 -07.4828 26240.0
 29 03 2013  17 07  -21.1183 26016.7 -03416.8 -07.4819 26240.1
 29 03 2013  17 08  -21.1188 26016.6 -03416.3 -07.4808 26239.9
 29 03 2013  17 09  -21.1210 26017.6 -03416.3 -07.4806 26241.0
 29 03 2013  17 10  -21.1231 26019.5 -03416.6 -07.4807 26242.8
 29 03 2013  17 11  -21.1237 26019.3 -03415.7 -07.4788 26242.5
 29 03 2013  17 12  -21.1249 26019.4 -03415.1 -07.4774 26242.6
 29 03 2013  17 13  -21.1256 26020.0 -03414.7 -07.4763 26243.1
 29 03 2013  17 14  -21.1266 26021.3 -03414.6 -07.4757 26244.4
 29 03 2013  17 15  -21.1261 26021.7 -03413.9 -07.4741 26244.7
 29 03 2013  17 16  -21.1255 26021.4 -03413.0 -07.4723 26244.3
 29 03 2013  17 17  -21.1238 26020.6 -03412.0 -07.4703 26243.4
 29 03 2013  17 18  -21.1230 26019.9 -03411.4 -07.4692 26242.6
 29 03 2013  17 19  -21.1222 26019.7 -03411.0 -07.4685 26242.3
 29 03 2013  17 20  -21.1223 26019.7 -03410.8 -07.4681 26242.3
 29 03 2013  17 21  -21.1225 26020.1 -03410.8 -07.4680 26242.7
 29 03 2013  17 22  -21.1225 26020.7 -03410.9 -07.4679 26243.3
 29 03 2013  17 23  -21.1221 26020.5 -03410.5 -07.4672 26243.0
 29 03 2013  17 24  -21.1218 26020.5 -03410.3 -07.4668 26243.1
 29 03 2013  17 25  -21.1226 26021.4 -03410.7 -07.4672 26244.0
 29 03 2013  17 26  -21.1227 26021.4 -03410.5 -07.4670 26244.0
 29 03 2013  17 27  -21.1220 26020.5 -03410.0 -07.4660 26243.0
 29 03 2013  17 28  -21.1217 26019.7 -03409.6 -07.4655 26242.1
 29 03 2013  17 29  -21.1221 26018.7 -03409.4 -07.4652 26241.2
 29 03 2013  17 30  -21.1222 26017.4 -03409.0 -07.4647 26239.8
 29 03 2013  17 31  -21.1222 26016.6 -03408.8 -07.4647 26239.0
 29 03 2013  17 32  -21.1221 26016.8 -03409.1 -07.4651 26239.2
 29 03 2013  17 33  -21.1217 26016.6 -03409.1 -07.4652 26239.0
 29 03 2013  17 34  -21.1217 26016.7 -03409.2 -07.4653 26239.1
 29 03 2013  17 35  -21.1216 26016.8 -03409.2 -07.4654 26239.3
 29 03 2013  17 36  -21.1215 26017.0 -03409.2 -07.4653 26239.4
 29 03 2013  17 37  -21.1212 26017.3 -03409.2 -07.4652 26239.7
 29 03 2013  17 38  -21.1211 26017.5 -03409.1 -07.4650 26239.9
 29 03 2013  17 39  -21.1211 26018.0 -03409.1 -07.4649 26240.4
 29 03 2013  17 40  -21.1208 26017.4 -03408.6 -07.4640 26239.7
 29 03 2013  17 41  -21.1207 26016.7 -03408.2 -07.4633 26239.0
 29 03 2013  17 42  -21.1201 26015.8 -03407.8 -07.4627 26238.1
 29 03 2013  17 43  -21.1184 26015.1 -03407.4 -07.4620 26237.3
 29 03 2013  17 44  -21.1179 26014.6 -03407.3 -07.4619 26236.8
 29 03 2013  17 45  -21.1177 26014.7 -03407.5 -07.4622 26236.9
 29 03 2013  17 46  -21.1172 26014.6 -03407.5 -07.4623 26236.9
 29 03 2013  17 47  -21.1170 26014.1 -03407.3 -07.4620 26236.3
 29 03 2013  17 48  -21.1166 26013.1 -03406.9 -07.4614 26235.2
 29 03 2013  17 49  -21.1159 26012.2 -03406.6 -07.4611 26234.3
 29 03 2013  17 50  -21.1153 26011.8 -03406.8 -07.4615 26233.9
 29 03 2013  17 51  -21.1146 26010.2 -03406.5 -07.4615 26232.3
 29 03 2013  17 52  -21.1138 26009.6 -03406.6 -07.4618 26231.8
 29 03 2013  17 53  -21.1136 26009.6 -03406.9 -07.4625 26231.8
 29 03 2013  17 54  -21.1131 26009.7 -03407.2 -07.4630 26231.9
 29 03 2013  17 55  -21.1133 26009.4 -03407.2 -07.4633 26231.6
 29 03 2013  17 56  -21.1129 26009.1 -03407.2 -07.4631 26231.3
 29 03 2013  17 57  -21.1121 26008.7 -03407.1 -07.4631 26230.9
 29 03 2013  17 58  -21.1104 26007.5 -03406.7 -07.4626 26229.7
 29 03 2013  17 59  -21.1089 26006.6 -03406.6 -07.4626 26228.8
 29 03 2013  18 00  -21.1083 26005.5 -03406.4 -07.4626 26227.6
 29 03 2013  18 01  -21.1086 26005.1 -03406.7 -07.4634 26227.3
 29 03 2013  18 02  -21.1089 26005.1 -03407.1 -07.4643 26227.3
 29 03 2013  18 03  -21.1100 26005.4 -03407.7 -07.4653 26227.7
 29 03 2013  18 04  -21.1110 26005.9 -03408.1 -07.4661 26228.2
 29 03 2013  18 05  -21.1122 26006.9 -03408.7 -07.4670 26229.3
 29 03 2013  18 06  -21.1134 26008.0 -03409.1 -07.4677 26230.5
 29 03 2013  18 07  -21.1144 26008.7 -03409.3 -07.4678 26231.2
 29 03 2013  18 08  -21.1147 26009.4 -03409.3 -07.4677 26231.8
 29 03 2013  18 09  -21.1146 26010.0 -03409.4 -07.4677 26232.5
 29 03 2013  18 10  -21.1140 26010.3 -03409.2 -07.4673 26232.8
 29 03 2013  18 11  -21.1139 26010.8 -03409.3 -07.4672 26233.3
 29 03 2013  18 12  -21.1136 26011.1 -03409.2 -07.4669 26233.6
 29 03 2013  18 13  -21.1129 26011.4 -03409.1 -07.4667 26233.8
 29 03 2013  18 14  -21.1116 26011.2 -03408.8 -07.4662 26233.6
 29 03 2013  18 15  -21.1113 26010.9 -03408.8 -07.4661 26233.4
 29 03 2013  18 16  -21.1105 26010.2 -03408.5 -07.4658 26232.6
 29 03 2013  18 17  -21.1098 26009.4 -03408.3 -07.4655 26231.8
 29 03 2013  18 18  -21.1086 26008.3 -03408.0 -07.4653 26230.7
 29 03 2013  18 19  -21.1081 26008.2 -03408.3 -07.4659 26230.6
 29 03 2013  18 20  -21.1084 26008.6 -03408.8 -07.4668 26231.1
 29 03 2013  18 21  -21.1085 26009.7 -03409.4 -07.4678 26232.2
 29 03 2013  18 22  -21.1090 26010.9 -03410.0 -07.4687 26233.5
 29 03 2013  18 23  -21.1084 26011.4 -03410.1 -07.4690 26234.0
 29 03 2013  18 24  -21.1077 26012.0 -03410.4 -07.4693 26234.6
 29 03 2013  18 25  -21.1072 26012.2 -03410.5 -07.4695 26234.8
 29 03 2013  18 26  -21.1063 26012.1 -03410.5 -07.4695 26234.7
 29 03 2013  18 27  -21.1055 26011.9 -03410.4 -07.4695 26234.5
 29 03 2013  18 28  -21.1051 26011.8 -03410.5 -07.4696 26234.4
 29 03 2013  18 29  -21.1047 26011.7 -03410.6 -07.4699 26234.3
 29 03 2013  18 30  -21.1044 26011.3 -03410.6 -07.4701 26233.9
 29 03 2013  18 31  -21.1038 26010.5 -03410.6 -07.4701 26233.1
 29 03 2013  18 32  -21.1031 26010.1 -03410.7 -07.4705 26232.8
 29 03 2013  18 33  -21.1026 26009.8 -03410.9 -07.4711 26232.5
 29 03 2013  18 34  -21.1021 26009.3 -03411.0 -07.4715 26232.0
 29 03 2013  18 35  -21.1023 26009.7 -03411.5 -07.4723 26232.4
 29 03 2013  18 36  -21.1022 26009.4 -03411.5 -07.4726 26232.2
 29 03 2013  18 37  -21.1017 26009.0 -03411.5 -07.4726 26231.8
 29 03 2013  18 38  -21.1010 26008.4 -03411.3 -07.4724 26231.2
 29 03 2013  18 39  -21.1005 26008.1 -03411.3 -07.4724 26230.9
 29 03 2013  18 40  -21.1003 26008.0 -03411.4 -07.4727 26230.8
 29 03 2013  18 41  -21.0994 26007.7 -03411.3 -07.4726 26230.4
 29 03 2013  18 42  -21.0984 26006.9 -03411.2 -07.4726 26229.6
 29 03 2013  18 43  -21.0980 26007.0 -03411.5 -07.4732 26229.8
 29 03 2013  18 44  -21.0976 26006.5 -03411.6 -07.4736 26229.3
 29 03 2013  18 45  -21.0965 26005.7 -03411.4 -07.4734 26228.5
 29 03 2013  18 46  -21.0959 26005.8 -03411.7 -07.4738 26228.6
 29 03 2013  18 47  -21.0951 26005.1 -03411.5 -07.4738 26227.9
 29 03 2013  18 48  -21.0952 26004.8 -03411.6 -07.4740 26227.6
 29 03 2013  18 49  -21.0948 26005.2 -03411.8 -07.4743 26228.1
 29 03 2013  18 50  -21.0944 26005.9 -03412.1 -07.4748 26228.8
 29 03 2013  18 51  -21.0948 26006.1 -03412.3 -07.4751 26229.1
 29 03 2013  18 52  -21.0951 26007.0 -03412.5 -07.4754 26229.9
 29 03 2013  18 53  -21.0949 26007.2 -03412.5 -07.4754 26230.1
 29 03 2013  18 54  -21.0945 26007.0 -03412.4 -07.4751 26229.9
 29 03 2013  18 55  -21.0936 26007.1 -03412.6 -07.4754 26230.1
 29 03 2013  18 56  -21.0936 26007.8 -03413.1 -07.4764 26230.8
 29 03 2013  18 57  -21.0955 26009.8 -03414.1 -07.4781 26232.9
 29 03 2013  18 58  -21.0967 26011.5 -03414.8 -07.4789 26234.7
 29 03 2013  18 59  -21.0979 26012.6 -03415.0 -07.4792 26235.8
 29 03 2013  19 00  -21.0977 26013.1 -03414.9 -07.4789 26236.3
 29 03 2013  19 01  -21.0985 26014.1 -03415.2 -07.4792 26237.3
 29 03 2013  19 02  -21.0994 26015.5 -03415.6 -07.4796 26238.7
 29 03 2013  19 03  -21.0998 26016.4 -03415.7 -07.4796 26239.7
 29 03 2013  19 04  -21.1002 26017.1 -03415.7 -07.4794 26240.4
 29 03 2013  19 05  -21.1007 26018.0 -03415.8 -07.4793 26241.2
 29 03 2013  19 06  -21.1008 26018.4 -03415.7 -07.4790 26241.6
 29 03 2013  19 07  -21.1010 26018.6 -03415.5 -07.4784 26241.8
 29 03 2013  19 08  -21.1009 26018.5 -03415.2 -07.4779 26241.7
 29 03 2013  19 09  -21.1008 26018.7 -03415.1 -07.4775 26241.8
 29 03 2013  19 10  -21.1008 26019.0 -03415.1 -07.4775 26242.2
 29 03 2013  19 11  -21.1008 26019.2 -03415.0 -07.4773 26242.4
 29 03 2013  19 12  -21.1008 26019.4 -03415.0 -07.4771 26242.6
 29 03 2013  19 13  -21.1007 26019.5 -03414.9 -07.4770 26242.6
 29 03 2013  19 14  -21.1004 26019.5 -03414.8 -07.4767 26242.6
 29 03 2013  19 15  -21.1005 26019.3 -03414.6 -07.4764 26242.4
 29 03 2013  19 16  -21.1003 26018.8 -03414.3 -07.4758 26241.9
 29 03 2013  19 17  -21.0999 26018.7 -03414.2 -07.4756 26241.7
 29 03 2013  19 18  -21.0998 26018.9 -03414.2 -07.4757 26242.0
 29 03 2013  19 19  -21.0998 26019.2 -03414.4 -07.4759 26242.3
 29 03 2013  19 20  -21.0995 26019.5 -03414.4 -07.4759 26242.5
 29 03 2013  19 21  -21.0992 26019.7 -03414.5 -07.4759 26242.8
 29 03 2013  19 22  -21.0987 26019.8 -03414.5 -07.4759 26242.9
 29 03 2013  19 23  -21.0977 26019.9 -03414.4 -07.4758 26243.0
 29 03 2013  19 24  -21.0973 26020.3 -03414.6 -07.4761 26243.4
 29 03 2013  19 25  -21.0968 26020.3 -03414.6 -07.4760 26243.4
 29 03 2013  19 26  -21.0962 26020.6 -03414.6 -07.4760 26243.7
 29 03 2013  19 27  -21.0956 26020.8 -03414.6 -07.4760 26243.8
 29 03 2013  19 28  -21.0949 26020.7 -03414.6 -07.4759 26243.8
 29 03 2013  19 29  -21.0941 26020.6 -03414.5 -07.4759 26243.7
 29 03 2013  19 30  -21.0933 26020.6 -03414.6 -07.4759 26243.7
 29 03 2013  19 31  -21.0926 26020.8 -03414.7 -07.4761 26243.9
 29 03 2013  19 32  -21.0921 26021.0 -03414.8 -07.4764 26244.1
 29 03 2013  19 33  -21.0917 26021.2 -03415.0 -07.4766 26244.3
 29 03 2013  19 34  -21.0915 26021.3 -03415.0 -07.4768 26244.5
 29 03 2013  19 35  -21.0916 26020.7 -03414.8 -07.4764 26243.8
 29 03 2013  19 36  -21.0908 26019.7 -03414.3 -07.4756 26242.8
 29 03 2013  19 37  -21.0900 26019.7 -03414.3 -07.4756 26242.8
 29 03 2013  19 38  -21.0902 26020.5 -03414.7 -07.4763 26243.6
 29 03 2013  19 39  -21.0905 26020.1 -03414.6 -07.4761 26243.2
 29 03 2013  19 40  -21.0892 26019.1 -03414.1 -07.4752 26242.2
 29 03 2013  19 41  -21.0891 26019.5 -03414.3 -07.4757 26242.6
 29 03 2013  19 42  -21.0888 26019.1 -03414.2 -07.4755 26242.1
 29 03 2013  19 43  -21.0881 26019.5 -03414.4 -07.4759 26242.5
 29 03 2013  19 44  -21.0878 26020.0 -03414.7 -07.4764 26243.1
 29 03 2013  19 45  -21.0876 26020.8 -03415.1 -07.4771 26243.9
 29 03 2013  19 46  -21.0876 26021.6 -03415.5 -07.4776 26244.8
 29 03 2013  19 47  -21.0877 26022.1 -03415.7 -07.4779 26245.3
 29 03 2013  19 48  -21.0877 26022.5 -03415.8 -07.4780 26245.7
 29 03 2013  19 49  -21.0878 26022.6 -03415.8 -07.4780 26245.8
 29 03 2013  19 50  -21.0875 26022.5 -03415.6 -07.4777 26245.7
 29 03 2013  19 51  -21.0873 26022.5 -03415.6 -07.4775 26245.7
 29 03 2013  19 52  -21.0872 26022.5 -03415.5 -07.4774 26245.7
 29 03 2013  19 53  -21.0872 26022.6 -03415.5 -07.4774 26245.8
 29 03 2013  19 54  -21.0873 26022.5 -03415.5 -07.4773 26245.7
 29 03 2013  19 55  -21.0874 26022.4 -03415.4 -07.4772 26245.6
 29 03 2013  19 56  -21.0875 26022.2 -03415.2 -07.4768 26245.3
 29 03 2013  19 57  -21.0870 26022.0 -03415.1 -07.4767 26245.2
 29 03 2013  19 58  -21.0867 26022.2 -03415.1 -07.4767 26245.3
 29 03 2013  19 59  -21.0864 26022.4 -03415.2 -07.4769 26245.5
 29 03 2013  20 00  -21.0863 26022.8 -03415.4 -07.4771 26245.9
 29 03 2013  20 01  -21.0862 26022.9 -03415.5 -07.4773 26246.1
 29 03 2013  20 02  -21.0860 26022.9 -03415.4 -07.4772 26246.1
 29 03 2013  20 03  -21.0859 26022.8 -03415.4 -07.4770 26245.9
 29 03 2013  20 04  -21.0852 26023.1 -03415.5 -07.4772 26246.2
 29 03 2013  20 05  -21.0852 26023.7 -03415.8 -07.4778 26246.9
 29 03 2013  20 06  -21.0850 26023.8 -03415.9 -07.4778 26247.0
 29 03 2013  20 07  -21.0848 26023.8 -03415.8 -07.4777 26247.0
 29 03 2013  20 08  -21.0845 26024.1 -03415.9 -07.4779 26247.4
 29 03 2013  20 09  -21.0843 26024.0 -03415.9 -07.4779 26247.2
 29 03 2013  20 10  -21.0835 26024.1 -03415.9 -07.4779 26247.3
 29 03 2013  20 11  -21.0833 26025.2 -03416.5 -07.4788 26248.5
 29 03 2013  20 12  -21.0834 26025.5 -03416.7 -07.4792 26248.8
 29 03 2013  20 13  -21.0832 26025.5 -03416.7 -07.4792 26248.8
 29 03 2013  20 14  -21.0832 26025.5 -03416.7 -07.4793 26248.8
 29 03 2013  20 15  -21.0835 26025.0 -03416.5 -07.4790 26248.3
 29 03 2013  20 16  -21.0835 26024.3 -03416.3 -07.4786 26247.6
 29 03 2013  20 17  -21.0834 26023.8 -03416.1 -07.4784 26247.0
 29 03 2013  20 18  -21.0832 26023.1 -03415.9 -07.4781 26246.3
 29 03 2013  20 19  -21.0832 26022.4 -03415.6 -07.4777 26245.6
 29 03 2013  20 20  -21.0831 26021.9 -03415.5 -07.4777 26245.1
 29 03 2013  20 21  -21.0830 26021.5 -03415.4 -07.4775 26244.7
 29 03 2013  20 22  -21.0826 26021.0 -03415.3 -07.4774 26244.2
 29 03 2013  20 23  -21.0821 26020.6 -03415.2 -07.4773 26243.8
 29 03 2013  20 24  -21.0815 26020.3 -03415.2 -07.4773 26243.5
 29 03 2013  20 25  -21.0810 26020.2 -03415.2 -07.4775 26243.3
 29 03 2013  20 26  -21.0806 26020.2 -03415.3 -07.4777 26243.4
 29 03 2013  20 27  -21.0803 26020.1 -03415.5 -07.4781 26243.3
 29 03 2013  20 28  -21.0801 26020.0 -03415.6 -07.4783 26243.2
 29 03 2013  20 29  -21.0801 26020.0 -03415.7 -07.4786 26243.2
 29 03 2013  20 30  -21.0801 26019.6 -03415.7 -07.4786 26242.8
 29 03 2013  20 31  -21.0801 26019.3 -03415.7 -07.4787 26242.6
 29 03 2013  20 32  -21.0800 26019.1 -03415.7 -07.4788 26242.4
 29 03 2013  20 33  -21.0798 26018.9 -03415.7 -07.4790 26242.1
 29 03 2013  20 34  -21.0794 26018.8 -03415.8 -07.4792 26242.1
 29 03 2013  20 35  -21.0791 26018.9 -03416.0 -07.4796 26242.1
 29 03 2013  20 36  -21.0790 26018.8 -03416.2 -07.4799 26242.1
 29 03 2013  20 37  -21.0791 26018.7 -03416.3 -07.4802 26242.1
 29 03 2013  20 38  -21.0792 26018.3 -03416.2 -07.4801 26241.6
 29 03 2013  20 39  -21.0790 26017.9 -03416.1 -07.4801 26241.2
 29 03 2013  20 40  -21.0787 26017.6 -03416.1 -07.4801 26240.9
 29 03 2013  20 41  -21.0787 26017.4 -03416.2 -07.4804 26240.7
 29 03 2013  20 42  -21.0781 26017.4 -03416.4 -07.4808 26240.7
 29 03 2013  20 43  -21.0776 26017.7 -03416.7 -07.4814 26241.1
 29 03 2013  20 44  -21.0775 26017.8 -03417.0 -07.4819 26241.2
 29 03 2013  20 45  -21.0782 26017.6 -03417.0 -07.4822 26241.0
 29 03 2013  20 46  -21.0786 26017.3 -03417.0 -07.4822 26240.7
 29 03 2013  20 47  -21.0781 26017.4 -03417.1 -07.4824 26240.8
 29 03 2013  20 48  -21.0774 26017.2 -03417.2 -07.4826 26240.7
 29 03 2013  20 49  -21.0766 26017.4 -03417.3 -07.4828 26240.9
 29 03 2013  20 50  -21.0761 26017.8 -03417.6 -07.4833 26241.3
 29 03 2013  20 51  -21.0758 26017.7 -03417.7 -07.4836 26241.2
 29 03 2013  20 52  -21.0753 26018.5 -03418.2 -07.4843 26242.1
 29 03 2013  20 53  -21.0752 26018.9 -03418.5 -07.4849 26242.5
 29 03 2013  20 54  -21.0750 26019.2 -03418.7 -07.4854 26242.8
 29 03 2013  20 55  -21.0750 26019.3 -03418.9 -07.4857 26243.0
 29 03 2013  20 56  -21.0750 26019.4 -03419.0 -07.4860 26243.0
 29 03 2013  20 57  -21.0751 26019.4 -03419.1 -07.4862 26243.1
 29 03 2013  20 58  -21.0753 26019.4 -03419.3 -07.4864 26243.2
 29 03 2013  20 59  -21.0754 26019.5 -03419.3 -07.4866 26243.2
 29 03 2013  21 00  -21.0757 26019.5 -03419.4 -07.4867 26243.3
 29 03 2013  21 01  -21.0761 26019.3 -03419.4 -07.4868 26243.1
 29 03 2013  21 02  -21.0765 26019.4 -03419.5 -07.4870 26243.1
 29 03 2013  21 03  -21.0768 26019.5 -03419.6 -07.4871 26243.2
 29 03 2013  21 04  -21.0771 26019.4 -03419.6 -07.4872 26243.2
 29 03 2013  21 05  -21.0770 26019.3 -03419.6 -07.4872 26243.1
 29 03 2013  21 06  -21.0768 26019.1 -03419.5 -07.4870 26242.9
 29 03 2013  21 07  -21.0767 26019.2 -03419.6 -07.4872 26242.9
 29 03 2013  21 08  -21.0768 26019.3 -03419.7 -07.4874 26243.0
 29 03 2013  21 09  -21.0767 26019.3 -03419.7 -07.4875 26243.0
 29 03 2013  21 10  -21.0764 26019.4 -03419.9 -07.4877 26243.2
 29 03 2013  21 11  -21.0761 26019.3 -03419.8 -07.4877 26243.1
 29 03 2013  21 12  -21.0760 26019.1 -03419.8 -07.4877 26242.9
 29 03 2013  21 13  -21.0758 26018.7 -03419.7 -07.4876 26242.5
 29 03 2013  21 14  -21.0758 26018.4 -03419.6 -07.4875 26242.2
 29 03 2013  21 15  -21.0757 26017.9 -03419.5 -07.4874 26241.7
 29 03 2013  21 16  -21.0756 26017.2 -03419.3 -07.4871 26241.0
 29 03 2013  21 17  -21.0754 26016.6 -03419.1 -07.4869 26240.3
 29 03 2013  21 18  -21.0751 26016.1 -03419.0 -07.4868 26239.8
 29 03 2013  21 19  -21.0748 26015.7 -03419.0 -07.4868 26239.4
 29 03 2013  21 20  -21.0745 26015.7 -03419.1 -07.4871 26239.4
 29 03 2013  21 21  -21.0742 26015.4 -03419.1 -07.4873 26239.2
 29 03 2013  21 22  -21.0739 26015.2 -03419.2 -07.4875 26238.9
 29 03 2013  21 23  -21.0738 26015.3 -03419.4 -07.4879 26239.0
 29 03 2013  21 24  -21.0736 26015.4 -03419.7 -07.4884 26239.2
 29 03 2013  21 25  -21.0735 26015.6 -03419.9 -07.4889 26239.4
 29 03 2013  21 26  -21.0736 26015.7 -03420.0 -07.4892 26239.5
 29 03 2013  21 27  -21.0739 26015.9 -03420.3 -07.4896 26239.7
 29 03 2013  21 28  -21.0740 26016.2 -03420.5 -07.4901 26240.1
 29 03 2013  21 29  -21.0741 26016.4 -03420.7 -07.4904 26240.3
 29 03 2013  21 30  -21.0745 26016.5 -03420.9 -07.4907 26240.5
 29 03 2013  21 31  -21.0747 26016.7 -03421.0 -07.4910 26240.6
 29 03 2013  21 32  -21.0749 26016.9 -03421.1 -07.4912 26240.9
 29 03 2013  21 33  -21.0749 26017.1 -03421.2 -07.4914 26241.1
 29 03 2013  21 34  -21.0749 26017.5 -03421.5 -07.4917 26241.5
 29 03 2013  21 35  -21.0751 26017.8 -03421.7 -07.4921 26241.8
 29 03 2013  21 36  -21.0752 26018.1 -03421.8 -07.4923 26242.2
 29 03 2013  21 37  -21.0753 26018.3 -03421.9 -07.4924 26242.3
 29 03 2013  21 38  -21.0757 26018.4 -03421.9 -07.4925 26242.5
 29 03 2013  21 39  -21.0760 26018.4 -03421.9 -07.4925 26242.5
 29 03 2013  21 40  -21.0764 26018.3 -03421.9 -07.4925 26242.4
 29 03 2013  21 41  -21.0768 26017.9 -03421.7 -07.4922 26241.9
 29 03 2013  21 42  -21.0770 26017.2 -03421.4 -07.4916 26241.2
 29 03 2013  21 43  -21.0773 26016.6 -03421.0 -07.4911 26240.5
 29 03 2013  21 44  -21.0774 26016.0 -03420.8 -07.4907 26239.9
 29 03 2013  21 45  -21.0773 26015.6 -03420.6 -07.4904 26239.5
 29 03 2013  21 46  -21.0770 26015.3 -03420.5 -07.4903 26239.2
 29 03 2013  21 47  -21.0769 26015.0 -03420.5 -07.4903 26238.9
 29 03 2013  21 48  -21.0766 26014.6 -03420.4 -07.4902 26238.5
 29 03 2013  21 49  -21.0762 26014.2 -03420.3 -07.4901 26238.1
 29 03 2013  21 50  -21.0757 26014.0 -03420.2 -07.4900 26237.9
 29 03 2013  21 51  -21.0751 26014.1 -03420.4 -07.4904 26238.0
 29 03 2013  21 52  -21.0746 26014.6 -03420.8 -07.4911 26238.6
 29 03 2013  21 53  -21.0741 26015.3 -03421.2 -07.4919 26239.3
 29 03 2013  21 54  -21.0737 26015.9 -03421.7 -07.4926 26240.0
 29 03 2013  21 55  -21.0734 26016.3 -03422.0 -07.4932 26240.4
 29 03 2013  21 56  -21.0731 26016.1 -03422.0 -07.4932 26240.1
 29 03 2013  21 57  -21.0731 26015.3 -03421.7 -07.4928 26239.4
 29 03 2013  21 58  -21.0730 26014.4 -03421.2 -07.4921 26238.4
 29 03 2013  21 59  -21.0729 26013.7 -03420.9 -07.4916 26237.6
 29 03 2013  22 00  -21.0725 26013.4 -03420.8 -07.4915 26237.3
 29 03 2013  22 01  -21.0720 26013.3 -03420.8 -07.4915 26237.3
 29 03 2013  22 02  -21.0716 26013.2 -03420.9 -07.4917 26237.1
 29 03 2013  22 03  -21.0715 26012.8 -03420.8 -07.4916 26236.8
 29 03 2013  22 04  -21.0717 26012.5 -03420.7 -07.4916 26236.4
 29 03 2013  22 05  -21.0716 26012.2 -03420.7 -07.4915 26236.1
 29 03 2013  22 06  -21.0715 26012.1 -03420.7 -07.4916 26236.0
 29 03 2013  22 07  -21.0716 26012.2 -03420.8 -07.4919 26236.2
 29 03 2013  22 08  -21.0720 26012.6 -03421.2 -07.4925 26236.6
 29 03 2013  22 09  -21.0722 26013.0 -03421.4 -07.4930 26237.0
 29 03 2013  22 10  -21.0720 26013.1 -03421.5 -07.4932 26237.1
 29 03 2013  22 11  -21.0718 26013.0 -03421.6 -07.4932 26237.1
 29 03 2013  22 12  -21.0720 26012.8 -03421.5 -07.4932 26236.9
 29 03 2013  22 13  -21.0720 26012.6 -03421.4 -07.4930 26236.6
 29 03 2013  22 14  -21.0722 26012.3 -03421.3 -07.4929 26236.3
 29 03 2013  22 15  -21.0725 26012.2 -03421.3 -07.4929 26236.2
 29 03 2013  22 16  -21.0725 26012.1 -03421.3 -07.4929 26236.1
 29 03 2013  22 17  -21.0724 26012.1 -03421.3 -07.4929 26236.1
 29 03 2013  22 18  -21.0723 26012.1 -03421.4 -07.4931 26236.2
 29 03 2013  22 19  -21.0724 26012.1 -03421.4 -07.4932 26236.2
 29 03 2013  22 20  -21.0727 26012.0 -03421.4 -07.4931 26236.1
 29 03 2013  22 21  -21.0729 26012.2 -03421.5 -07.4933 26236.3
 29 03 2013  22 22  -21.0730 26012.4 -03421.6 -07.4935 26236.5
 29 03 2013  22 23  -21.0733 26012.0 -03421.5 -07.4934 26236.1
 29 03 2013  22 24  -21.0733 26011.5 -03421.2 -07.4930 26235.5
 29 03 2013  22 25  -21.0730 26010.7 -03420.9 -07.4924 26234.7
 29 03 2013  22 26  -21.0729 26010.1 -03420.5 -07.4919 26234.1
 29 03 2013  22 27  -21.0727 26009.6 -03420.3 -07.4915 26233.6
 29 03 2013  22 28  -21.0722 26009.2 -03420.2 -07.4914 26233.1
 29 03 2013  22 29  -21.0718 26008.9 -03420.1 -07.4912 26232.8
 29 03 2013  22 30  -21.0716 26008.7 -03420.1 -07.4913 26232.6
 29 03 2013  22 31  -21.0713 26008.5 -03420.1 -07.4914 26232.4
 29 03 2013  22 32  -21.0711 26008.1 -03420.1 -07.4914 26232.0
 29 03 2013  22 33  -21.0711 26007.9 -03420.0 -07.4913 26231.8
 29 03 2013  22 34  -21.0713 26007.6 -03420.0 -07.4914 26231.5
 29 03 2013  22 35  -21.0714 26007.6 -03420.0 -07.4915 26231.5
 29 03 2013  22 36  -21.0716 26007.6 -03420.1 -07.4916 26231.5
 29 03 2013  22 37  -21.0721 26007.5 -03420.2 -07.4918 26231.4
 29 03 2013  22 38  -21.0723 26007.4 -03420.1 -07.4917 26231.3
 29 03 2013  22 39  -21.0726 26007.2 -03420.1 -07.4917 26231.1
 29 03 2013  22 40  -21.0731 26006.9 -03420.0 -07.4916 26230.8
 29 03 2013  22 41  -21.0735 26006.5 -03419.8 -07.4913 26230.4
 29 03 2013  22 42  -21.0739 26006.3 -03419.7 -07.4912 26230.2
 29 03 2013  22 43  -21.0743 26006.3 -03419.8 -07.4913 26230.2
 29 03 2013  22 44  -21.0748 26006.2 -03419.8 -07.4913 26230.1
 29 03 2013  22 45  -21.0755 26006.0 -03419.8 -07.4913 26229.9
 29 03 2013  22 46  -21.0764 26005.4 -03419.5 -07.4909 26229.3
 29 03 2013  22 47  -21.0770 26004.8 -03419.2 -07.4904 26228.6
 29 03 2013  22 48  -21.0771 26004.1 -03418.8 -07.4897 26227.8
 29 03 2013  22 49  -21.0772 26003.8 -03418.7 -07.4896 26227.5
 29 03 2013  22 50  -21.0775 26003.4 -03418.6 -07.4895 26227.2
 29 03 2013  22 51  -21.0776 26003.1 -03418.5 -07.4894 26226.9
 29 03 2013  22 52  -21.0776 26002.8 -03418.4 -07.4893 26226.5
 29 03 2013  22 53  -21.0778 26002.4 -03418.3 -07.4891 26226.1
 29 03 2013  22 54  -21.0779 26002.0 -03418.1 -07.4890 26225.7
 29 03 2013  22 55  -21.0777 26001.6 -03418.0 -07.4888 26225.3
 29 03 2013  22 56  -21.0778 26001.0 -03417.8 -07.4886 26224.7
 29 03 2013  22 57  -21.0779 26000.5 -03417.7 -07.4884 26224.2
 29 03 2013  22 58  -21.0779 26000.0 -03417.6 -07.4883 26223.7
 29 03 2013  22 59  -21.0778 25999.6 -03417.5 -07.4882 26223.3
 29 03 2013  23 00  -21.0778 25999.3 -03417.5 -07.4882 26223.0
 29 03 2013  23 01  -21.0778 25999.2 -03417.5 -07.4884 26222.8
 29 03 2013  23 02  -21.0777 25999.2 -03417.7 -07.4888 26222.9
 29 03 2013  23 03  -21.0777 25999.2 -03417.8 -07.4890 26222.9
 29 03 2013  23 04  -21.0774 25999.5 -03418.0 -07.4894 26223.2
 29 03 2013  23 05  -21.0768 26000.1 -03418.4 -07.4900 26223.9
 29 03 2013  23 06  -21.0762 26000.3 -03418.6 -07.4905 26224.0
 29 03 2013  23 07  -21.0761 26000.3 -03418.7 -07.4906 26224.1
 29 03 2013  23 08  -21.0760 26000.3 -03418.8 -07.4909 26224.1
 29 03 2013  23 09  -21.0760 26000.3 -03419.0 -07.4912 26224.2
 29 03 2013  23 10  -21.0761 26000.7 -03419.2 -07.4916 26224.6
 29 03 2013  23 11  -21.0764 26000.8 -03419.3 -07.4919 26224.7
 29 03 2013  23 12  -21.0769 26000.5 -03419.2 -07.4918 26224.4
 29 03 2013  23 13  -21.0769 26000.3 -03419.2 -07.4917 26224.2
 29 03 2013  23 14  -21.0771 26000.2 -03419.1 -07.4916 26224.1
 29 03 2013  23 15  -21.0772 26000.3 -03419.2 -07.4917 26224.2
 29 03 2013  23 16  -21.0774 26001.0 -03419.5 -07.4923 26224.8
 29 03 2013  23 17  -21.0777 26001.6 -03419.9 -07.4929 26225.5
 29 03 2013  23 18  -21.0775 26002.8 -03420.5 -07.4939 26226.9
 29 03 2013  23 19  -21.0773 26003.4 -03420.7 -07.4942 26227.4
 29 03 2013  23 20  -21.0777 26003.7 -03420.9 -07.4944 26227.8
 29 03 2013  23 21  -21.0777 26005.1 -03421.4 -07.4951 26229.2
 29 03 2013  23 22  -21.0773 26006.7 -03422.2 -07.4964 26230.9
 29 03 2013  23 23  -21.0773 26007.0 -03422.3 -07.4964 26231.2
 29 03 2013  23 24  -21.0776 26007.0 -03422.1 -07.4961 26231.2
 29 03 2013  23 25  -21.0777 26007.2 -03422.0 -07.4959 26231.3
 29 03 2013  23 26  -21.0780 26007.3 -03422.0 -07.4957 26231.4
 29 03 2013  23 27  -21.0783 26007.2 -03421.9 -07.4956 26231.3
 29 03 2013  23 28  -21.0776 26007.6 -03421.9 -07.4955 26231.8
 29 03 2013  23 29  -21.0766 26008.0 -03422.0 -07.4955 26232.2
 29 03 2013  23 30  -21.0760 26008.7 -03422.2 -07.4959 26232.8
 29 03 2013  23 31  -21.0761 26008.5 -03422.1 -07.4957 26232.7
 29 03 2013  23 32  -21.0762 26009.1 -03422.3 -07.4960 26233.3
 29 03 2013  23 33  -21.0761 26009.5 -03422.5 -07.4962 26233.7
 29 03 2013  23 34  -21.0758 26009.5 -03422.4 -07.4960 26233.7
 29 03 2013  23 35  -21.0751 26009.1 -03422.1 -07.4955 26233.2
 29 03 2013  23 36  -21.0747 26008.3 -03421.6 -07.4947 26232.4
 29 03 2013  23 37  -21.0741 26008.0 -03421.4 -07.4943 26232.1
 29 03 2013  23 38  -21.0735 26007.7 -03421.2 -07.4940 26231.7
 29 03 2013  23 39  -21.0728 26007.7 -03421.2 -07.4940 26231.8
 29 03 2013  23 40  -21.0723 26007.7 -03421.2 -07.4941 26231.7
 29 03 2013  23 41  -21.0719 26007.8 -03421.4 -07.4943 26231.9
 29 03 2013  23 42  -21.0716 26008.1 -03421.5 -07.4946 26232.2
 29 03 2013  23 43  -21.0712 26008.3 -03421.7 -07.4949 26232.4
 29 03 2013  23 44  -21.0705 26008.2 -03421.7 -07.4948 26232.3
 29 03 2013  23 45  -21.0701 26008.2 -03421.7 -07.4948 26232.3
 29 03 2013  23 46  -21.0699 26008.0 -03421.6 -07.4948 26232.1
 29 03 2013  23 47  -21.0694 26007.9 -03421.5 -07.4946 26232.0
 29 03 2013  23 48  -21.0690 26008.0 -03421.7 -07.4949 26232.1
 29 03 2013  23 49  -21.0687 26008.0 -03421.7 -07.4950 26232.1
 29 03 2013  23 50  -21.0685 26008.1 -03421.8 -07.4951 26232.2
 29 03 2013  23 51  -21.0687 26008.2 -03421.9 -07.4954 26232.3
 29 03 2013  23 52  -21.0689 26008.2 -03421.9 -07.4954 26232.3
 29 03 2013  23 53  -21.0687 26008.4 -03422.0 -07.4956 26232.5
 29 03 2013  23 54  -21.0688 26008.7 -03422.2 -07.4958 26232.9
 29 03 2013  23 55  -21.0693 26008.8 -03422.3 -07.4960 26233.0
 29 03 2013  23 56  -21.0695 26008.7 -03422.2 -07.4959 26232.9
 29 03 2013  23 57  -21.0695 26008.6 -03422.2 -07.4958 26232.8
