SAO LUIS EMBRACE-03 <179> 1 Min. Reported data

 DD MM YYYY  HH MM   D(Deg)  H(nT)   Z(nT)   I(Deg)   F(nT)

 28 06 2013  00 00  -21.0549 26019.3 -03451.6 -07.5565 26247.2
 28 06 2013  00 01  -21.0550 26018.3 -03451.0 -07.5555 26246.2
 28 06 2013  00 02  -21.0549 26017.8 -03450.9 -07.5553 26245.7
 28 06 2013  00 03  -21.0544 26016.9 -03450.5 -07.5548 26244.7
 28 06 2013  00 04  -21.0537 26017.6 -03450.7 -07.5551 26245.4
 28 06 2013  00 05  -21.0535 26019.3 -03451.7 -07.5567 26247.3
 28 06 2013  00 06  -21.0531 26021.3 -03452.9 -07.5586 26249.4
 28 06 2013  00 07  -21.0523 26023.5 -03454.0 -07.5604 26251.7
 28 06 2013  00 08  -21.0521 26025.2 -03454.9 -07.5619 26253.5
 28 06 2013  00 09  -21.0527 26025.3 -03455.0 -07.5622 26253.6
 28 06 2013  00 10  -21.0538 26024.8 -03454.7 -07.5615 26253.1
 28 06 2013  00 11  -21.0547 26024.0 -03454.1 -07.5606 26252.2
 28 06 2013  00 12  -21.0553 26023.0 -03453.4 -07.5594 26251.2
 28 06 2013  00 13  -21.0556 26022.7 -03453.1 -07.5587 26250.8
 28 06 2013  00 14  -21.0555 26022.2 -03452.8 -07.5582 26250.3
 28 06 2013  00 15  -21.0556 26021.1 -03452.2 -07.5572 26249.1
 28 06 2013  00 16  -21.0555 26020.7 -03451.9 -07.5567 26248.7
 28 06 2013  00 17  -21.0557 26020.6 -03451.9 -07.5567 26248.6
 28 06 2013  00 18  -21.0561 26019.3 -03451.4 -07.5560 26247.3
 28 06 2013  00 19  -21.0560 26017.8 -03450.6 -07.5547 26245.7
 28 06 2013  00 20  -21.0552 26018.4 -03450.8 -07.5549 26246.2
 28 06 2013  00 21  -21.0543 26020.4 -03451.8 -07.5565 26248.4
 28 06 2013  00 22  -21.0533 26022.1 -03452.8 -07.5583 26250.2
 28 06 2013  00 23  -21.0529 26023.9 -03453.8 -07.5599 26252.1
 28 06 2013  00 24  -21.0528 26025.2 -03454.5 -07.5610 26253.5
 28 06 2013  00 25  -21.0527 26025.5 -03454.6 -07.5612 26253.8
 28 06 2013  00 26  -21.0527 26025.5 -03454.5 -07.5610 26253.8
 28 06 2013  00 27  -21.0526 26025.4 -03454.3 -07.5605 26253.6
 28 06 2013  00 28  -21.0522 26025.6 -03454.3 -07.5604 26253.9
 28 06 2013  00 29  -21.0516 26025.7 -03454.2 -07.5602 26253.9
 28 06 2013  00 30  -21.0508 26026.0 -03454.2 -07.5601 26254.2
 28 06 2013  00 31  -21.0502 26026.5 -03454.4 -07.5604 26254.7
 28 06 2013  00 32  -21.0498 26027.3 -03454.7 -07.5609 26255.6
 28 06 2013  00 33  -21.0495 26027.5 -03454.8 -07.5611 26255.8
 28 06 2013  00 34  -21.0492 26027.4 -03454.7 -07.5609 26255.6
 28 06 2013  00 35  -21.0488 26027.0 -03454.5 -07.5605 26255.3
 28 06 2013  00 36  -21.0483 26027.2 -03454.5 -07.5604 26255.5
 28 06 2013  00 37  -21.0476 26028.2 -03454.9 -07.5609 26256.5
 28 06 2013  00 38  -21.0468 26029.2 -03455.3 -07.5617 26257.5
 28 06 2013  00 39  -21.0459 26031.2 -03456.3 -07.5633 26259.7
 28 06 2013  00 40  -21.0452 26032.0 -03456.7 -07.5639 26260.5
 28 06 2013  00 41  -21.0449 26032.0 -03456.7 -07.5638 26260.5
 28 06 2013  00 42  -21.0439 26032.4 -03456.7 -07.5637 26260.9
 28 06 2013  00 43  -21.0424 26033.3 -03456.9 -07.5640 26261.8
 28 06 2013  00 44  -21.0408 26034.9 -03457.6 -07.5650 26263.5
 28 06 2013  00 45  -21.0388 26036.7 -03458.4 -07.5661 26265.4
 28 06 2013  00 46  -21.0368 26038.3 -03459.1 -07.5672 26267.1
 28 06 2013  00 47  -21.0353 26039.5 -03459.6 -07.5679 26268.3
 28 06 2013  00 48  -21.0349 26040.1 -03459.8 -07.5683 26268.9
 28 06 2013  00 49  -21.0352 26039.5 -03459.5 -07.5678 26268.3
 28 06 2013  00 50  -21.0352 26037.8 -03458.5 -07.5661 26266.5
 28 06 2013  00 51  -21.0350 26035.6 -03457.2 -07.5639 26264.1
 28 06 2013  00 52  -21.0351 26034.0 -03456.2 -07.5623 26262.4
 28 06 2013  00 53  -21.0351 26033.9 -03456.1 -07.5620 26262.4
 28 06 2013  00 54  -21.0344 26034.8 -03456.5 -07.5626 26263.3
 28 06 2013  00 55  -21.0335 26035.3 -03456.8 -07.5631 26263.7
 28 06 2013  00 56  -21.0333 26035.4 -03456.9 -07.5633 26263.9
 28 06 2013  00 57  -21.0336 26036.0 -03457.2 -07.5637 26264.5
 28 06 2013  00 58  -21.0339 26036.7 -03457.5 -07.5643 26265.2
 28 06 2013  00 59  -21.0341 26037.1 -03457.7 -07.5646 26265.7
 28 06 2013  01 00  -21.0344 26037.4 -03457.8 -07.5646 26265.9
 28 06 2013  01 01  -21.0344 26037.6 -03457.8 -07.5645 26266.2
 28 06 2013  01 02  -21.0344 26037.3 -03457.5 -07.5641 26265.9
 28 06 2013  01 03  -21.0341 26037.0 -03457.2 -07.5635 26265.5
 28 06 2013  01 04  -21.0338 26036.5 -03456.9 -07.5629 26265.0
 28 06 2013  01 05  -21.0337 26036.4 -03456.7 -07.5627 26264.9
 28 06 2013  01 06  -21.0336 26036.4 -03456.7 -07.5625 26264.8
 28 06 2013  01 07  -21.0334 26036.2 -03456.6 -07.5624 26264.7
 28 06 2013  01 08  -21.0331 26035.7 -03456.3 -07.5618 26264.1
 28 06 2013  01 09  -21.0331 26035.5 -03456.1 -07.5615 26263.9
 28 06 2013  01 10  -21.0332 26035.6 -03456.2 -07.5616 26264.0
 28 06 2013  01 11  -21.0331 26035.6 -03456.2 -07.5617 26264.0
 28 06 2013  01 12  -21.0331 26035.4 -03456.1 -07.5615 26263.8
 28 06 2013  01 13  -21.0337 26034.7 -03455.8 -07.5611 26263.1
 28 06 2013  01 14  -21.0345 26034.0 -03455.5 -07.5606 26262.3
 28 06 2013  01 15  -21.0352 26032.9 -03455.0 -07.5599 26261.2
 28 06 2013  01 16  -21.0356 26031.8 -03454.4 -07.5589 26260.0
 28 06 2013  01 17  -21.0354 26031.1 -03454.0 -07.5583 26259.3
 28 06 2013  01 18  -21.0353 26030.9 -03453.9 -07.5581 26259.1
 28 06 2013  01 19  -21.0362 26031.1 -03454.1 -07.5585 26259.3
 28 06 2013  01 20  -21.0377 26031.0 -03454.3 -07.5589 26259.2
 28 06 2013  01 21  -21.0389 26030.7 -03454.2 -07.5588 26258.9
 28 06 2013  01 22  -21.0401 26030.3 -03454.0 -07.5585 26258.5
 28 06 2013  01 23  -21.0412 26029.3 -03453.6 -07.5579 26257.4
 28 06 2013  01 24  -21.0420 26028.2 -03453.0 -07.5569 26256.2
 28 06 2013  01 25  -21.0426 26027.8 -03452.8 -07.5565 26255.9
 28 06 2013  01 26  -21.0433 26027.8 -03452.8 -07.5567 26255.8
 28 06 2013  01 27  -21.0443 26027.5 -03452.7 -07.5566 26255.5
 28 06 2013  01 28  -21.0455 26026.5 -03452.4 -07.5560 26254.5
 28 06 2013  01 29  -21.0462 26025.2 -03451.7 -07.5550 26253.1
 28 06 2013  01 30  -21.0464 26023.8 -03451.1 -07.5540 26251.7
 28 06 2013  01 31  -21.0471 26023.1 -03450.7 -07.5535 26250.9
 28 06 2013  01 32  -21.0478 26022.2 -03450.4 -07.5531 26249.9
 28 06 2013  01 33  -21.0482 26021.6 -03450.2 -07.5529 26249.4
 28 06 2013  01 34  -21.0490 26021.8 -03450.5 -07.5533 26249.6
 28 06 2013  01 35  -21.0506 26021.7 -03450.7 -07.5538 26249.5
 28 06 2013  01 36  -21.0513 26021.2 -03450.6 -07.5537 26249.0
 28 06 2013  01 37  -21.0520 26021.2 -03450.6 -07.5538 26249.0
 28 06 2013  01 38  -21.0528 26021.0 -03450.6 -07.5538 26248.8
 28 06 2013  01 39  -21.0534 26020.8 -03450.6 -07.5538 26248.6
 28 06 2013  01 40  -21.0536 26020.7 -03450.5 -07.5538 26248.5
 28 06 2013  01 41  -21.0537 26020.2 -03450.4 -07.5535 26248.0
 28 06 2013  01 42  -21.0539 26019.6 -03450.1 -07.5532 26247.4
 28 06 2013  01 43  -21.0544 26018.9 -03449.8 -07.5527 26246.6
 28 06 2013  01 44  -21.0549 26018.8 -03449.8 -07.5527 26246.5
 28 06 2013  01 45  -21.0549 26019.0 -03450.0 -07.5530 26246.7
 28 06 2013  01 46  -21.0547 26019.0 -03450.0 -07.5531 26246.7
 28 06 2013  01 47  -21.0544 26019.2 -03450.1 -07.5533 26246.9
 28 06 2013  01 48  -21.0543 26019.6 -03450.4 -07.5538 26247.4
 28 06 2013  01 49  -21.0536 26020.2 -03450.7 -07.5543 26248.0
 28 06 2013  01 50  -21.0530 26020.6 -03450.9 -07.5547 26248.4
 28 06 2013  01 51  -21.0527 26020.8 -03451.1 -07.5549 26248.6
 28 06 2013  01 52  -21.0525 26020.6 -03451.1 -07.5549 26248.5
 28 06 2013  01 53  -21.0524 26020.1 -03450.8 -07.5545 26248.0
 28 06 2013  01 54  -21.0525 26019.1 -03450.3 -07.5537 26246.9
 28 06 2013  01 55  -21.0526 26018.0 -03449.8 -07.5529 26245.7
 28 06 2013  01 56  -21.0527 26017.0 -03449.3 -07.5522 26244.6
 28 06 2013  01 57  -21.0526 26016.5 -03449.2 -07.5520 26244.2
 28 06 2013  01 58  -21.0524 26016.6 -03449.2 -07.5521 26244.2
 28 06 2013  01 59  -21.0518 26016.6 -03449.4 -07.5524 26244.3
 28 06 2013  02 00  -21.0512 26016.5 -03449.4 -07.5525 26244.1
 28 06 2013  02 01  -21.0506 26016.0 -03449.3 -07.5523 26243.7
 28 06 2013  02 02  -21.0500 26015.6 -03449.1 -07.5522 26243.2
 28 06 2013  02 03  -21.0494 26015.6 -03449.2 -07.5523 26243.2
 28 06 2013  02 04  -21.0490 26015.7 -03449.4 -07.5528 26243.4
 28 06 2013  02 05  -21.0484 26015.8 -03449.6 -07.5531 26243.5
 28 06 2013  02 06  -21.0481 26015.8 -03449.7 -07.5534 26243.5
 28 06 2013  02 07  -21.0482 26015.2 -03449.6 -07.5533 26242.9
 28 06 2013  02 08  -21.0481 26014.6 -03449.4 -07.5530 26242.3
 28 06 2013  02 09  -21.0480 26013.9 -03449.2 -07.5527 26241.6
 28 06 2013  02 10  -21.0481 26013.2 -03448.9 -07.5524 26240.8
 28 06 2013  02 11  -21.0484 26012.9 -03448.9 -07.5524 26240.5
 28 06 2013  02 12  -21.0487 26013.0 -03449.1 -07.5528 26240.6
 28 06 2013  02 13  -21.0495 26011.8 -03448.7 -07.5524 26239.5
 28 06 2013  02 14  -21.0501 26009.7 -03447.7 -07.5509 26237.2
 28 06 2013  02 15  -21.0493 26007.5 -03446.7 -07.5493 26234.9
 28 06 2013  02 16  -21.0486 26006.1 -03446.1 -07.5483 26233.5
 28 06 2013  02 17  -21.0489 26006.3 -03446.4 -07.5490 26233.7
 28 06 2013  02 18  -21.0489 26007.2 -03447.2 -07.5503 26234.6
 28 06 2013  02 19  -21.0479 26008.0 -03447.8 -07.5515 26235.5
 28 06 2013  02 20  -21.0466 26008.8 -03448.4 -07.5525 26236.4
 28 06 2013  02 21  -21.0457 26009.8 -03449.0 -07.5536 26237.5
 28 06 2013  02 22  -21.0449 26010.7 -03449.7 -07.5548 26238.5
 28 06 2013  02 23  -21.0445 26011.4 -03450.2 -07.5556 26239.2
 28 06 2013  02 24  -21.0443 26011.8 -03450.5 -07.5563 26239.7
 28 06 2013  02 25  -21.0440 26012.2 -03450.8 -07.5567 26240.1
 28 06 2013  02 26  -21.0439 26012.5 -03450.9 -07.5570 26240.4
 28 06 2013  02 27  -21.0440 26012.8 -03451.2 -07.5573 26240.8
 28 06 2013  02 28  -21.0450 26012.9 -03451.3 -07.5576 26240.9
 28 06 2013  02 29  -21.0463 26012.4 -03451.1 -07.5573 26240.3
 28 06 2013  02 30  -21.0474 26011.4 -03450.6 -07.5566 26239.3
 28 06 2013  02 31  -21.0486 26009.8 -03449.9 -07.5555 26237.6
 28 06 2013  02 32  -21.0501 26007.2 -03448.7 -07.5536 26234.9
 28 06 2013  02 33  -21.0509 26005.6 -03447.8 -07.5522 26233.2
 28 06 2013  02 34  -21.0508 26005.3 -03447.6 -07.5519 26232.9
 28 06 2013  02 35  -21.0512 26005.4 -03447.8 -07.5523 26232.9
 28 06 2013  02 36  -21.0524 26004.3 -03447.6 -07.5521 26231.9
 28 06 2013  02 37  -21.0519 26003.1 -03447.0 -07.5512 26230.5
 28 06 2013  02 38  -21.0508 26002.3 -03446.7 -07.5507 26229.7
 28 06 2013  02 39  -21.0500 26002.1 -03446.7 -07.5509 26229.5
 28 06 2013  02 40  -21.0495 26001.9 -03446.9 -07.5513 26229.4
 28 06 2013  02 41  -21.0493 26001.5 -03447.0 -07.5516 26228.9
 28 06 2013  02 42  -21.0491 26001.1 -03447.0 -07.5518 26228.6
 28 06 2013  02 43  -21.0486 26001.2 -03447.2 -07.5521 26228.7
 28 06 2013  02 44  -21.0478 26001.6 -03447.5 -07.5527 26229.1
 28 06 2013  02 45  -21.0467 26002.1 -03447.9 -07.5535 26229.7
 28 06 2013  02 46  -21.0453 26002.5 -03448.3 -07.5542 26230.2
 28 06 2013  02 47  -21.0440 26003.0 -03448.7 -07.5548 26230.7
 28 06 2013  02 48  -21.0427 26003.5 -03449.1 -07.5555 26231.3
 28 06 2013  02 49  -21.0414 26003.9 -03449.4 -07.5560 26231.7
 28 06 2013  02 50  -21.0404 26004.3 -03449.6 -07.5565 26232.1
 28 06 2013  02 51  -21.0396 26004.6 -03449.9 -07.5571 26232.4
 28 06 2013  02 52  -21.0389 26005.0 -03450.2 -07.5575 26232.8
 28 06 2013  02 53  -21.0383 26005.2 -03450.4 -07.5580 26233.1
 28 06 2013  02 54  -21.0378 26005.5 -03450.7 -07.5584 26233.5
 28 06 2013  02 55  -21.0372 26005.9 -03450.9 -07.5588 26233.8
 28 06 2013  02 56  -21.0367 26006.1 -03451.1 -07.5591 26234.1
 28 06 2013  02 57  -21.0362 26006.3 -03451.2 -07.5593 26234.3
 28 06 2013  02 58  -21.0357 26006.5 -03451.3 -07.5596 26234.5
 28 06 2013  02 59  -21.0352 26006.6 -03451.5 -07.5598 26234.7
 28 06 2013  03 00  -21.0347 26006.9 -03451.6 -07.5601 26235.0
 28 06 2013  03 01  -21.0343 26007.2 -03451.8 -07.5604 26235.3
 28 06 2013  03 02  -21.0336 26007.7 -03452.1 -07.5608 26235.8
 28 06 2013  03 03  -21.0331 26008.2 -03452.4 -07.5614 26236.3
 28 06 2013  03 04  -21.0327 26008.7 -03452.6 -07.5617 26236.8
 28 06 2013  03 05  -21.0324 26008.9 -03452.8 -07.5620 26237.1
 28 06 2013  03 06  -21.0323 26009.0 -03452.8 -07.5621 26237.2
 28 06 2013  03 07  -21.0320 26009.1 -03452.9 -07.5623 26237.3
 28 06 2013  03 08  -21.0322 26009.1 -03453.0 -07.5624 26237.3
 28 06 2013  03 09  -21.0323 26009.3 -03453.1 -07.5625 26237.6
 28 06 2013  03 10  -21.0319 26009.8 -03453.3 -07.5629 26238.1
 28 06 2013  03 11  -21.0316 26010.5 -03453.6 -07.5633 26238.7
 28 06 2013  03 12  -21.0313 26011.1 -03453.9 -07.5637 26239.4
 28 06 2013  03 13  -21.0312 26011.6 -03454.1 -07.5641 26240.0
 28 06 2013  03 14  -21.0311 26011.7 -03454.2 -07.5642 26240.1
 28 06 2013  03 15  -21.0312 26011.6 -03454.1 -07.5641 26239.9
 28 06 2013  03 16  -21.0313 26011.4 -03454.0 -07.5639 26239.7
 28 06 2013  03 17  -21.0314 26011.3 -03453.9 -07.5637 26239.6
 28 06 2013  03 18  -21.0309 26011.8 -03454.1 -07.5640 26240.2
 28 06 2013  03 19  -21.0301 26012.6 -03454.4 -07.5645 26240.9
 28 06 2013  03 20  -21.0292 26013.3 -03454.8 -07.5650 26241.7
 28 06 2013  03 21  -21.0280 26014.7 -03455.3 -07.5658 26243.1
 28 06 2013  03 22  -21.0265 26016.5 -03456.2 -07.5672 26245.1
 28 06 2013  03 23  -21.0253 26017.9 -03456.9 -07.5683 26246.6
 28 06 2013  03 24  -21.0247 26018.7 -03457.2 -07.5688 26247.4
 28 06 2013  03 25  -21.0245 26019.0 -03457.3 -07.5689 26247.7
 28 06 2013  03 26  -21.0245 26019.0 -03457.2 -07.5687 26247.7
 28 06 2013  03 27  -21.0246 26019.0 -03457.1 -07.5685 26247.7
 28 06 2013  03 28  -21.0248 26019.1 -03457.1 -07.5684 26247.7
 28 06 2013  03 29  -21.0248 26019.0 -03457.0 -07.5681 26247.7
 28 06 2013  03 30  -21.0250 26018.9 -03456.8 -07.5679 26247.5
 28 06 2013  03 31  -21.0252 26018.7 -03456.6 -07.5675 26247.3
 28 06 2013  03 32  -21.0256 26018.7 -03456.6 -07.5675 26247.3
 28 06 2013  03 33  -21.0260 26018.5 -03456.5 -07.5673 26247.1
 28 06 2013  03 34  -21.0262 26018.2 -03456.3 -07.5670 26246.8
 28 06 2013  03 35  -21.0263 26018.3 -03456.3 -07.5669 26246.8
 28 06 2013  03 36  -21.0263 26018.6 -03456.4 -07.5671 26247.2
 28 06 2013  03 37  -21.0261 26018.8 -03456.5 -07.5673 26247.4
 28 06 2013  03 38  -21.0261 26019.0 -03456.6 -07.5673 26247.6
 28 06 2013  03 39  -21.0265 26019.1 -03456.6 -07.5674 26247.7
 28 06 2013  03 40  -21.0269 26019.1 -03456.6 -07.5674 26247.7
 28 06 2013  03 41  -21.0274 26019.1 -03456.6 -07.5674 26247.7
 28 06 2013  03 42  -21.0277 26019.1 -03456.6 -07.5673 26247.7
 28 06 2013  03 43  -21.0278 26019.1 -03456.5 -07.5672 26247.7
 28 06 2013  03 44  -21.0278 26019.1 -03456.5 -07.5672 26247.7
 28 06 2013  03 45  -21.0277 26019.3 -03456.5 -07.5671 26247.9
 28 06 2013  03 46  -21.0274 26019.4 -03456.6 -07.5671 26248.0
 28 06 2013  03 47  -21.0272 26019.5 -03456.6 -07.5671 26248.1
 28 06 2013  03 48  -21.0269 26019.8 -03456.7 -07.5673 26248.4
 28 06 2013  03 49  -21.0270 26019.7 -03456.6 -07.5673 26248.3
 28 06 2013  03 50  -21.0276 26019.2 -03456.4 -07.5670 26247.8
 28 06 2013  03 51  -21.0282 26018.6 -03456.2 -07.5665 26247.1
 28 06 2013  03 52  -21.0287 26018.1 -03455.9 -07.5661 26246.6
 28 06 2013  03 53  -21.0287 26017.9 -03455.8 -07.5659 26246.4
 28 06 2013  03 54  -21.0285 26018.1 -03455.9 -07.5660 26246.6
 28 06 2013  03 55  -21.0282 26018.3 -03456.0 -07.5662 26246.8
 28 06 2013  03 56  -21.0272 26019.1 -03456.3 -07.5668 26247.7
 28 06 2013  03 57  -21.0253 26021.0 -03457.2 -07.5681 26249.6
 28 06 2013  03 58  -21.0235 26022.9 -03458.2 -07.5696 26251.6
 28 06 2013  03 59  -21.0223 26024.1 -03458.8 -07.5707 26253.0
 28 06 2013  04 00  -21.0208 26025.6 -03459.5 -07.5717 26254.5
 28 06 2013  04 01  -21.0196 26026.7 -03460.0 -07.5724 26255.6
 28 06 2013  04 02  -21.0192 26027.0 -03460.1 -07.5727 26256.0
 28 06 2013  04 03  -21.0190 26026.9 -03460.0 -07.5725 26255.9
 28 06 2013  04 04  -21.0194 26026.4 -03459.7 -07.5720 26255.3
 28 06 2013  04 05  -21.0198 26025.6 -03459.3 -07.5712 26254.5
 28 06 2013  04 06  -21.0199 26025.2 -03458.9 -07.5705 26254.0
 28 06 2013  04 07  -21.0199 26024.7 -03458.6 -07.5700 26253.5
 28 06 2013  04 08  -21.0202 26024.2 -03458.3 -07.5696 26253.0
 28 06 2013  04 09  -21.0219 26022.7 -03457.7 -07.5688 26251.4
 28 06 2013  04 10  -21.0245 26020.2 -03456.6 -07.5670 26248.8
 28 06 2013  04 11  -21.0267 26017.8 -03455.4 -07.5650 26246.3
 28 06 2013  04 12  -21.0283 26016.3 -03454.5 -07.5637 26244.7
 28 06 2013  04 13  -21.0291 26015.7 -03454.3 -07.5633 26244.1
 28 06 2013  04 14  -21.0300 26015.3 -03454.1 -07.5631 26243.6
 28 06 2013  04 15  -21.0303 26015.0 -03454.1 -07.5630 26243.3
 28 06 2013  04 16  -21.0303 26015.4 -03454.3 -07.5634 26243.7
 28 06 2013  04 17  -21.0300 26016.1 -03454.7 -07.5641 26244.5
 28 06 2013  04 18  -21.0295 26016.9 -03455.2 -07.5649 26245.3
 28 06 2013  04 19  -21.0292 26017.5 -03455.6 -07.5657 26246.0
 28 06 2013  04 20  -21.0291 26018.2 -03456.0 -07.5663 26246.7
 28 06 2013  04 21  -21.0290 26018.5 -03456.2 -07.5667 26247.0
 28 06 2013  04 22  -21.0292 26018.0 -03456.0 -07.5664 26246.5
 28 06 2013  04 23  -21.0308 26016.2 -03455.3 -07.5653 26244.6
 28 06 2013  04 24  -21.0338 26013.2 -03453.9 -07.5633 26241.5
 28 06 2013  04 25  -21.0359 26010.5 -03452.5 -07.5609 26238.6
 28 06 2013  04 26  -21.0369 26008.8 -03451.5 -07.5593 26236.8
 28 06 2013  04 27  -21.0372 26007.9 -03451.1 -07.5586 26235.9
 28 06 2013  04 28  -21.0369 26007.7 -03451.1 -07.5587 26235.7
 28 06 2013  04 29  -21.0359 26008.1 -03451.4 -07.5592 26236.1
 28 06 2013  04 30  -21.0349 26008.9 -03452.0 -07.5603 26236.9
 28 06 2013  04 31  -21.0342 26009.6 -03452.6 -07.5614 26237.8
 28 06 2013  04 32  -21.0335 26010.5 -03453.2 -07.5625 26238.7
 28 06 2013  04 33  -21.0328 26011.6 -03454.0 -07.5638 26239.9
 28 06 2013  04 34  -21.0323 26012.6 -03454.6 -07.5649 26241.0
 28 06 2013  04 35  -21.0320 26013.2 -03455.0 -07.5657 26241.6
 28 06 2013  04 36  -21.0320 26013.6 -03455.3 -07.5661 26242.1
 28 06 2013  04 37  -21.0323 26013.7 -03455.4 -07.5663 26242.2
 28 06 2013  04 38  -21.0332 26013.2 -03455.2 -07.5660 26241.6
 28 06 2013  04 39  -21.0342 26012.5 -03454.9 -07.5655 26240.9
 28 06 2013  04 40  -21.0348 26011.9 -03454.6 -07.5651 26240.3
 28 06 2013  04 41  -21.0354 26011.5 -03454.4 -07.5647 26239.9
 28 06 2013  04 42  -21.0357 26011.4 -03454.3 -07.5646 26239.7
 28 06 2013  04 43  -21.0358 26011.3 -03454.3 -07.5646 26239.7
 28 06 2013  04 44  -21.0358 26011.3 -03454.3 -07.5647 26239.7
 28 06 2013  04 45  -21.0358 26011.4 -03454.5 -07.5649 26239.8
 28 06 2013  04 46  -21.0358 26011.5 -03454.6 -07.5652 26239.9
 28 06 2013  04 47  -21.0358 26011.6 -03454.7 -07.5654 26240.0
 28 06 2013  04 48  -21.0358 26011.8 -03454.8 -07.5656 26240.2
 28 06 2013  04 49  -21.0359 26011.8 -03454.9 -07.5658 26240.2
 28 06 2013  04 50  -21.0361 26011.7 -03454.9 -07.5659 26240.2
 28 06 2013  04 51  -21.0361 26011.8 -03455.0 -07.5659 26240.2
 28 06 2013  04 52  -21.0359 26011.8 -03455.0 -07.5661 26240.3
 28 06 2013  04 53  -21.0358 26011.8 -03455.1 -07.5661 26240.3
 28 06 2013  04 54  -21.0357 26011.9 -03455.1 -07.5662 26240.3
 28 06 2013  04 55  -21.0354 26011.9 -03455.2 -07.5663 26240.4
 28 06 2013  04 56  -21.0352 26012.0 -03455.2 -07.5665 26240.5
 28 06 2013  04 57  -21.0348 26012.0 -03455.3 -07.5665 26240.5
 28 06 2013  04 58  -21.0345 26012.1 -03455.3 -07.5666 26240.6
 28 06 2013  04 59  -21.0343 26012.2 -03455.4 -07.5667 26240.7
 28 06 2013  05 00  -21.0341 26012.2 -03455.5 -07.5668 26240.7
 28 06 2013  05 01  -21.0338 26012.3 -03455.5 -07.5670 26240.8
 28 06 2013  05 02  -21.0336 26012.4 -03455.6 -07.5671 26240.9
 28 06 2013  05 03  -21.0335 26012.5 -03455.7 -07.5673 26241.0
 28 06 2013  05 04  -21.0334 26012.6 -03455.8 -07.5675 26241.2
 28 06 2013  05 05  -21.0334 26012.8 -03455.9 -07.5677 26241.4
 28 06 2013  05 06  -21.0333 26013.0 -03456.1 -07.5680 26241.6
 28 06 2013  05 07  -21.0333 26013.3 -03456.2 -07.5682 26241.9
 28 06 2013  05 08  -21.0333 26013.4 -03456.3 -07.5683 26242.0
 28 06 2013  05 09  -21.0332 26013.5 -03456.3 -07.5684 26242.1
 28 06 2013  05 10  -21.0328 26013.8 -03456.5 -07.5686 26242.5
 28 06 2013  05 11  -21.0324 26014.2 -03456.7 -07.5689 26242.9
 28 06 2013  05 12  -21.0323 26014.6 -03456.9 -07.5693 26243.3
 28 06 2013  05 13  -21.0321 26014.9 -03457.1 -07.5695 26243.6
 28 06 2013  05 14  -21.0319 26015.2 -03457.2 -07.5698 26243.9
 28 06 2013  05 15  -21.0315 26015.5 -03457.4 -07.5700 26244.2
 28 06 2013  05 16  -21.0310 26015.8 -03457.5 -07.5702 26244.6
 28 06 2013  05 17  -21.0306 26016.1 -03457.6 -07.5703 26244.9
 28 06 2013  05 18  -21.0303 26016.3 -03457.7 -07.5705 26245.0
 28 06 2013  05 19  -21.0305 26016.1 -03457.6 -07.5704 26244.9
 28 06 2013  05 20  -21.0308 26015.8 -03457.5 -07.5702 26244.6
 28 06 2013  05 21  -21.0306 26015.8 -03457.4 -07.5700 26244.6
 28 06 2013  05 22  -21.0302 26015.9 -03457.4 -07.5700 26244.6
 28 06 2013  05 23  -21.0300 26015.9 -03457.4 -07.5700 26244.7
 28 06 2013  05 24  -21.0299 26016.0 -03457.4 -07.5700 26244.7
 28 06 2013  05 25  -21.0301 26016.0 -03457.4 -07.5700 26244.7
 28 06 2013  05 26  -21.0303 26016.0 -03457.4 -07.5700 26244.7
 28 06 2013  05 27  -21.0306 26015.9 -03457.4 -07.5700 26244.6
 28 06 2013  05 28  -21.0305 26015.9 -03457.3 -07.5699 26244.6
 28 06 2013  05 29  -21.0304 26015.9 -03457.3 -07.5698 26244.6
 28 06 2013  05 30  -21.0305 26015.9 -03457.3 -07.5697 26244.7
 28 06 2013  05 31  -21.0306 26016.0 -03457.3 -07.5697 26244.7
 28 06 2013  05 32  -21.0306 26015.9 -03457.3 -07.5697 26244.7
 28 06 2013  05 33  -21.0308 26015.9 -03457.2 -07.5696 26244.6
 28 06 2013  05 34  -21.0309 26015.7 -03457.1 -07.5694 26244.4
 28 06 2013  05 35  -21.0310 26015.5 -03457.0 -07.5692 26244.2
 28 06 2013  05 36  -21.0311 26015.4 -03456.9 -07.5691 26244.0
 28 06 2013  05 37  -21.0311 26015.1 -03456.7 -07.5688 26243.8
 28 06 2013  05 38  -21.0311 26014.9 -03456.6 -07.5686 26243.5
 28 06 2013  05 39  -21.0310 26014.7 -03456.5 -07.5685 26243.4
 28 06 2013  05 40  -21.0308 26014.8 -03456.6 -07.5685 26243.4
 28 06 2013  05 41  -21.0307 26014.8 -03456.6 -07.5686 26243.4
 28 06 2013  05 42  -21.0307 26014.9 -03456.7 -07.5688 26243.6
 28 06 2013  05 43  -21.0307 26014.9 -03456.8 -07.5689 26243.6
 28 06 2013  05 44  -21.0308 26015.0 -03456.8 -07.5690 26243.7
 28 06 2013  05 45  -21.0308 26015.0 -03456.8 -07.5690 26243.7
 28 06 2013  05 46  -21.0308 26015.1 -03456.9 -07.5691 26243.8
 28 06 2013  05 47  -21.0309 26015.2 -03456.9 -07.5692 26243.9
 28 06 2013  05 48  -21.0310 26015.3 -03457.0 -07.5693 26243.9
 28 06 2013  05 49  -21.0311 26015.3 -03457.0 -07.5693 26244.0
 28 06 2013  05 50  -21.0311 26015.2 -03456.9 -07.5692 26243.9
 28 06 2013  05 51  -21.0312 26015.2 -03456.9 -07.5692 26243.9
 28 06 2013  05 52  -21.0312 26015.2 -03456.9 -07.5692 26243.9
 28 06 2013  05 53  -21.0312 26015.2 -03456.9 -07.5692 26243.9
 28 06 2013  05 54  -21.0312 26015.3 -03457.0 -07.5692 26244.0
 28 06 2013  05 55  -21.0312 26015.4 -03457.0 -07.5693 26244.1
 28 06 2013  05 56  -21.0312 26015.3 -03457.1 -07.5694 26244.0
 28 06 2013  05 57  -21.0311 26015.3 -03457.0 -07.5694 26244.0
 28 06 2013  05 58  -21.0312 26015.3 -03457.1 -07.5694 26244.0
 28 06 2013  05 59  -21.0312 26015.4 -03457.1 -07.5695 26244.1
 28 06 2013  06 00  -21.0311 26015.5 -03457.2 -07.5696 26244.2
 28 06 2013  06 01  -21.0312 26015.5 -03457.2 -07.5696 26244.2
 28 06 2013  06 02  -21.0313 26015.4 -03457.1 -07.5696 26244.1
 28 06 2013  06 03  -21.0316 26015.3 -03457.1 -07.5695 26244.0
 28 06 2013  06 04  -21.0318 26015.2 -03457.0 -07.5694 26243.9
 28 06 2013  06 05  -21.0316 26015.4 -03457.1 -07.5695 26244.1
 28 06 2013  06 06  -21.0312 26015.7 -03457.3 -07.5697 26244.4
 28 06 2013  06 07  -21.0308 26015.9 -03457.4 -07.5700 26244.6
 28 06 2013  06 08  -21.0305 26016.0 -03457.5 -07.5702 26244.8
 28 06 2013  06 09  -21.0303 26016.1 -03457.6 -07.5703 26244.9
 28 06 2013  06 10  -21.0304 26016.1 -03457.6 -07.5704 26244.9
 28 06 2013  06 11  -21.0306 26016.1 -03457.6 -07.5704 26244.9
 28 06 2013  06 12  -21.0308 26016.1 -03457.6 -07.5705 26244.9
 28 06 2013  06 13  -21.0308 26016.1 -03457.6 -07.5704 26244.8
 28 06 2013  06 14  -21.0306 26016.1 -03457.6 -07.5704 26244.8
 28 06 2013  06 15  -21.0303 26016.0 -03457.6 -07.5704 26244.8
 28 06 2013  06 16  -21.0303 26016.0 -03457.6 -07.5705 26244.7
 28 06 2013  06 17  -21.0303 26015.8 -03457.6 -07.5704 26244.6
 28 06 2013  06 18  -21.0302 26015.7 -03457.5 -07.5702 26244.4
 28 06 2013  06 19  -21.0299 26015.7 -03457.5 -07.5702 26244.5
 28 06 2013  06 20  -21.0295 26015.9 -03457.6 -07.5704 26244.6
 28 06 2013  06 21  -21.0293 26016.0 -03457.6 -07.5705 26244.7
 28 06 2013  06 22  -21.0289 26016.0 -03457.7 -07.5706 26244.8
 28 06 2013  06 23  -21.0285 26016.2 -03457.8 -07.5708 26245.0
 28 06 2013  06 24  -21.0284 26016.4 -03458.0 -07.5711 26245.2
 28 06 2013  06 25  -21.0286 26016.5 -03458.1 -07.5713 26245.3
 28 06 2013  06 26  -21.0285 26016.7 -03458.2 -07.5714 26245.5
 28 06 2013  06 27  -21.0285 26017.0 -03458.3 -07.5717 26245.8
 28 06 2013  06 28  -21.0287 26016.9 -03458.3 -07.5716 26245.7
 28 06 2013  06 29  -21.0286 26017.0 -03458.3 -07.5716 26245.8
 28 06 2013  06 30  -21.0284 26017.0 -03458.2 -07.5715 26245.8
 28 06 2013  06 31  -21.0280 26017.0 -03458.2 -07.5714 26245.8
 28 06 2013  06 32  -21.0277 26016.8 -03458.1 -07.5712 26245.6
 28 06 2013  06 33  -21.0271 26016.8 -03458.0 -07.5711 26245.6
 28 06 2013  06 34  -21.0265 26016.9 -03458.1 -07.5711 26245.7
 28 06 2013  06 35  -21.0260 26017.2 -03458.2 -07.5714 26246.0
 28 06 2013  06 36  -21.0258 26017.5 -03458.4 -07.5716 26246.3
 28 06 2013  06 37  -21.0259 26017.8 -03458.6 -07.5720 26246.7
 28 06 2013  06 38  -21.0263 26017.9 -03458.7 -07.5723 26246.8
 28 06 2013  06 39  -21.0264 26018.1 -03458.9 -07.5725 26247.0
 28 06 2013  06 40  -21.0263 26018.4 -03458.9 -07.5726 26247.3
 28 06 2013  06 41  -21.0262 26018.7 -03459.1 -07.5728 26247.6
 28 06 2013  06 42  -21.0260 26019.0 -03459.2 -07.5731 26248.0
 28 06 2013  06 43  -21.0259 26019.4 -03459.4 -07.5732 26248.3
 28 06 2013  06 44  -21.0260 26019.6 -03459.5 -07.5734 26248.5
 28 06 2013  06 45  -21.0257 26019.9 -03459.6 -07.5735 26248.9
 28 06 2013  06 46  -21.0253 26020.4 -03459.8 -07.5738 26249.4
 28 06 2013  06 47  -21.0249 26020.8 -03460.0 -07.5742 26249.9
 28 06 2013  06 48  -21.0247 26021.2 -03460.2 -07.5744 26250.3
 28 06 2013  06 49  -21.0243 26021.8 -03460.4 -07.5747 26250.8
 28 06 2013  06 50  -21.0236 26022.3 -03460.6 -07.5751 26251.4
 28 06 2013  06 51  -21.0227 26022.7 -03460.7 -07.5753 26251.8
 28 06 2013  06 52  -21.0216 26023.1 -03460.9 -07.5754 26252.2
 28 06 2013  06 53  -21.0205 26023.3 -03461.0 -07.5756 26252.5
 28 06 2013  06 54  -21.0197 26023.7 -03461.1 -07.5758 26252.9
 28 06 2013  06 55  -21.0189 26024.2 -03461.3 -07.5761 26253.3
 28 06 2013  06 56  -21.0184 26024.4 -03461.4 -07.5762 26253.6
 28 06 2013  06 57  -21.0185 26024.5 -03461.4 -07.5762 26253.7
 28 06 2013  06 58  -21.0189 26024.3 -03461.3 -07.5759 26253.5
 28 06 2013  06 59  -21.0197 26024.1 -03461.1 -07.5755 26253.3
 28 06 2013  07 00  -21.0202 26024.0 -03460.9 -07.5752 26253.1
 28 06 2013  07 01  -21.0206 26023.8 -03460.7 -07.5748 26252.9
 28 06 2013  07 02  -21.0208 26023.3 -03460.3 -07.5742 26252.3
 28 06 2013  07 03  -21.0209 26022.9 -03460.0 -07.5737 26251.9
 28 06 2013  07 04  -21.0211 26022.9 -03460.0 -07.5736 26251.9
 28 06 2013  07 05  -21.0209 26023.0 -03460.0 -07.5736 26252.0
 28 06 2013  07 06  -21.0211 26023.2 -03460.1 -07.5738 26252.3
 28 06 2013  07 07  -21.0218 26023.5 -03460.3 -07.5741 26252.5
 28 06 2013  07 08  -21.0224 26023.5 -03460.3 -07.5741 26252.6
 28 06 2013  07 09  -21.0233 26023.5 -03460.3 -07.5740 26252.6
 28 06 2013  07 10  -21.0242 26023.6 -03460.3 -07.5740 26252.7
 28 06 2013  07 11  -21.0250 26023.5 -03460.1 -07.5737 26252.5
 28 06 2013  07 12  -21.0257 26023.4 -03460.0 -07.5734 26252.4
 28 06 2013  07 13  -21.0263 26023.2 -03459.8 -07.5730 26252.2
 28 06 2013  07 14  -21.0266 26023.0 -03459.6 -07.5726 26251.9
 28 06 2013  07 15  -21.0267 26022.9 -03459.4 -07.5723 26251.9
 28 06 2013  07 16  -21.0269 26022.9 -03459.3 -07.5721 26251.8
 28 06 2013  07 17  -21.0270 26023.0 -03459.3 -07.5721 26251.9
 28 06 2013  07 18  -21.0271 26023.1 -03459.3 -07.5721 26252.1
 28 06 2013  07 19  -21.0273 26023.2 -03459.3 -07.5720 26252.2
 28 06 2013  07 20  -21.0275 26023.2 -03459.3 -07.5719 26252.1
 28 06 2013  07 21  -21.0274 26023.4 -03459.3 -07.5719 26252.4
 28 06 2013  07 22  -21.0273 26023.6 -03459.3 -07.5720 26252.5
 28 06 2013  07 23  -21.0274 26023.7 -03459.3 -07.5719 26252.6
 28 06 2013  07 24  -21.0276 26023.9 -03459.4 -07.5720 26252.8
 28 06 2013  07 25  -21.0279 26023.9 -03459.4 -07.5719 26252.8
 28 06 2013  07 26  -21.0279 26023.9 -03459.3 -07.5717 26252.9
 28 06 2013  07 27  -21.0278 26024.0 -03459.3 -07.5717 26252.9
 28 06 2013  07 28  -21.0277 26024.0 -03459.2 -07.5715 26252.9
 28 06 2013  07 29  -21.0276 26023.9 -03459.1 -07.5713 26252.7
 28 06 2013  07 30  -21.0276 26023.7 -03458.9 -07.5710 26252.5
 28 06 2013  07 31  -21.0274 26023.6 -03458.8 -07.5708 26252.4
 28 06 2013  07 32  -21.0274 26023.5 -03458.7 -07.5707 26252.3
 28 06 2013  07 33  -21.0274 26023.5 -03458.8 -07.5707 26252.4
 28 06 2013  07 34  -21.0275 26023.6 -03458.8 -07.5708 26252.5
 28 06 2013  07 35  -21.0277 26023.7 -03458.8 -07.5708 26252.6
 28 06 2013  07 36  -21.0279 26023.8 -03458.8 -07.5708 26252.6
 28 06 2013  07 37  -21.0281 26023.9 -03458.8 -07.5708 26252.7
 28 06 2013  07 38  -21.0283 26023.8 -03458.8 -07.5707 26252.7
 28 06 2013  07 39  -21.0284 26023.8 -03458.7 -07.5706 26252.6
 28 06 2013  07 40  -21.0285 26023.8 -03458.7 -07.5705 26252.6
 28 06 2013  07 41  -21.0286 26023.9 -03458.7 -07.5705 26252.7
 28 06 2013  07 42  -21.0288 26023.8 -03458.6 -07.5704 26252.6
 28 06 2013  07 43  -21.0290 26023.8 -03458.5 -07.5702 26252.6
 28 06 2013  07 44  -21.0291 26023.6 -03458.5 -07.5700 26252.4
 28 06 2013  07 45  -21.0292 26023.6 -03458.4 -07.5699 26252.4
 28 06 2013  07 46  -21.0294 26023.7 -03458.4 -07.5699 26252.5
 28 06 2013  07 47  -21.0293 26023.7 -03458.4 -07.5698 26252.4
 28 06 2013  07 48  -21.0292 26023.5 -03458.3 -07.5696 26252.3
 28 06 2013  07 49  -21.0289 26023.5 -03458.2 -07.5696 26252.3
 28 06 2013  07 50  -21.0287 26023.4 -03458.1 -07.5694 26252.2
 28 06 2013  07 51  -21.0285 26023.4 -03458.1 -07.5693 26252.1
 28 06 2013  07 52  -21.0283 26023.4 -03458.1 -07.5693 26252.1
 28 06 2013  07 53  -21.0280 26023.4 -03458.1 -07.5693 26252.2
 28 06 2013  07 54  -21.0278 26023.5 -03458.1 -07.5693 26252.2
 28 06 2013  07 55  -21.0278 26023.5 -03458.1 -07.5694 26252.2
 28 06 2013  07 56  -21.0280 26023.4 -03458.1 -07.5694 26252.2
 28 06 2013  07 57  -21.0282 26023.5 -03458.2 -07.5695 26252.3
 28 06 2013  07 58  -21.0284 26023.7 -03458.3 -07.5697 26252.5
 28 06 2013  07 59  -21.0284 26023.9 -03458.3 -07.5697 26252.7
 28 06 2013  08 00  -21.0282 26024.0 -03458.4 -07.5697 26252.8
 28 06 2013  08 01  -21.0278 26024.0 -03458.3 -07.5697 26252.8
 28 06 2013  08 02  -21.0276 26024.0 -03458.3 -07.5696 26252.8
 28 06 2013  08 03  -21.0275 26024.1 -03458.3 -07.5696 26252.9
 28 06 2013  08 04  -21.0271 26024.2 -03458.4 -07.5697 26253.0
 28 06 2013  08 05  -21.0269 26024.1 -03458.4 -07.5697 26252.9
 28 06 2013  08 06  -21.0269 26023.9 -03458.3 -07.5696 26252.7
 28 06 2013  08 07  -21.0268 26023.8 -03458.2 -07.5695 26252.6
 28 06 2013  08 08  -21.0267 26023.8 -03458.2 -07.5694 26252.6
 28 06 2013  08 09  -21.0264 26024.0 -03458.2 -07.5694 26252.7
 28 06 2013  08 10  -21.0259 26024.0 -03458.2 -07.5694 26252.7
 28 06 2013  08 11  -21.0256 26024.0 -03458.2 -07.5694 26252.7
 28 06 2013  08 12  -21.0253 26023.9 -03458.2 -07.5694 26252.6
 28 06 2013  08 13  -21.0252 26023.8 -03458.2 -07.5694 26252.6
 28 06 2013  08 14  -21.0252 26023.9 -03458.2 -07.5694 26252.6
 28 06 2013  08 15  -21.0250 26024.1 -03458.2 -07.5694 26252.8
 28 06 2013  08 16  -21.0248 26024.4 -03458.4 -07.5697 26253.2
 28 06 2013  08 17  -21.0242 26024.6 -03458.5 -07.5699 26253.4
 28 06 2013  08 18  -21.0239 26024.8 -03458.6 -07.5700 26253.6
 28 06 2013  08 19  -21.0236 26024.9 -03458.6 -07.5700 26253.7
 28 06 2013  08 20  -21.0231 26024.9 -03458.6 -07.5701 26253.7
 28 06 2013  08 21  -21.0227 26024.9 -03458.6 -07.5701 26253.7
 28 06 2013  08 22  -21.0224 26024.9 -03458.7 -07.5701 26253.7
 28 06 2013  08 23  -21.0223 26024.9 -03458.6 -07.5701 26253.7
 28 06 2013  08 24  -21.0220 26025.0 -03458.7 -07.5701 26253.8
 28 06 2013  08 25  -21.0218 26025.0 -03458.7 -07.5701 26253.9
 28 06 2013  08 26  -21.0217 26024.9 -03458.6 -07.5700 26253.7
 28 06 2013  08 27  -21.0217 26024.7 -03458.5 -07.5698 26253.5
 28 06 2013  08 28  -21.0216 26024.6 -03458.4 -07.5696 26253.4
 28 06 2013  08 29  -21.0217 26024.6 -03458.4 -07.5696 26253.4
 28 06 2013  08 30  -21.0219 26024.5 -03458.3 -07.5695 26253.3
 28 06 2013  08 31  -21.0219 26024.5 -03458.3 -07.5695 26253.3
 28 06 2013  08 32  -21.0220 26024.4 -03458.2 -07.5692 26253.2
 28 06 2013  08 33  -21.0219 26024.5 -03458.2 -07.5692 26253.2
 28 06 2013  08 34  -21.0217 26024.4 -03458.1 -07.5691 26253.1
 28 06 2013  08 35  -21.0214 26024.3 -03458.1 -07.5690 26253.1
 28 06 2013  08 36  -21.0208 26024.3 -03458.0 -07.5690 26253.1
 28 06 2013  08 37  -21.0204 26024.4 -03458.1 -07.5690 26253.1
 28 06 2013  08 38  -21.0204 26024.5 -03458.2 -07.5692 26253.3
 28 06 2013  08 39  -21.0201 26024.4 -03458.1 -07.5691 26253.1
 28 06 2013  08 40  -21.0202 26024.3 -03458.1 -07.5690 26253.1
 28 06 2013  08 41  -21.0199 26024.4 -03458.1 -07.5690 26253.2
 28 06 2013  08 42  -21.0196 26024.3 -03457.9 -07.5687 26253.0
 28 06 2013  08 43  -21.0193 26024.3 -03457.8 -07.5685 26253.0
 28 06 2013  08 44  -21.0189 26024.2 -03457.8 -07.5684 26252.9
 28 06 2013  08 45  -21.0181 26024.1 -03457.7 -07.5682 26252.8
 28 06 2013  08 46  -21.0176 26024.0 -03457.6 -07.5680 26252.7
 28 06 2013  08 47  -21.0174 26024.1 -03457.6 -07.5680 26252.8
 28 06 2013  08 48  -21.0168 26024.1 -03457.5 -07.5679 26252.8
 28 06 2013  08 49  -21.0161 26024.1 -03457.5 -07.5679 26252.7
 28 06 2013  08 50  -21.0152 26024.0 -03457.5 -07.5680 26252.7
 28 06 2013  08 51  -21.0143 26023.9 -03457.5 -07.5679 26252.6
 28 06 2013  08 52  -21.0136 26023.9 -03457.5 -07.5680 26252.6
 28 06 2013  08 53  -21.0130 26023.9 -03457.6 -07.5681 26252.5
 28 06 2013  08 54  -21.0124 26023.9 -03457.5 -07.5679 26252.6
 28 06 2013  08 55  -21.0115 26023.9 -03457.6 -07.5681 26252.6
 28 06 2013  08 56  -21.0108 26023.9 -03457.7 -07.5683 26252.6
 28 06 2013  08 57  -21.0100 26024.0 -03457.8 -07.5685 26252.7
 28 06 2013  08 58  -21.0092 26023.9 -03457.8 -07.5686 26252.6
 28 06 2013  08 59  -21.0082 26023.8 -03457.8 -07.5686 26252.5
 28 06 2013  09 00  -21.0072 26023.7 -03457.8 -07.5685 26252.5
 28 06 2013  09 01  -21.0067 26023.7 -03457.8 -07.5686 26252.4
 28 06 2013  09 02  -21.0060 26023.6 -03457.7 -07.5685 26252.3
 28 06 2013  09 03  -21.0050 26023.5 -03457.8 -07.5686 26252.2
 28 06 2013  09 04  -21.0040 26023.3 -03457.8 -07.5686 26252.0
 28 06 2013  09 05  -21.0034 26023.3 -03457.8 -07.5688 26252.0
 28 06 2013  09 06  -21.0029 26023.3 -03457.9 -07.5690 26252.0
 28 06 2013  09 07  -21.0018 26023.3 -03457.9 -07.5690 26252.0
 28 06 2013  09 08  -21.0010 26023.2 -03457.9 -07.5690 26251.9
 28 06 2013  09 09  -21.0003 26023.2 -03458.0 -07.5691 26252.0
 28 06 2013  09 10  -20.9994 26023.3 -03458.1 -07.5693 26252.0
 28 06 2013  09 11  -20.9988 26023.1 -03458.1 -07.5695 26251.9
 28 06 2013  09 12  -20.9978 26023.0 -03458.2 -07.5697 26251.8
 28 06 2013  09 13  -20.9968 26022.8 -03458.2 -07.5698 26251.6
 28 06 2013  09 14  -20.9962 26022.8 -03458.3 -07.5701 26251.6
 28 06 2013  09 15  -20.9958 26022.8 -03458.5 -07.5704 26251.7
 28 06 2013  09 16  -20.9950 26022.9 -03458.7 -07.5708 26251.7
 28 06 2013  09 17  -20.9940 26022.8 -03458.8 -07.5710 26251.7
 28 06 2013  09 18  -20.9933 26022.8 -03459.0 -07.5714 26251.7
 28 06 2013  09 19  -20.9929 26023.1 -03459.2 -07.5719 26252.0
 28 06 2013  09 20  -20.9925 26023.1 -03459.5 -07.5724 26252.0
 28 06 2013  09 21  -20.9916 26023.2 -03459.6 -07.5727 26252.2
 28 06 2013  09 22  -20.9908 26023.3 -03459.9 -07.5733 26252.3
 28 06 2013  09 23  -20.9899 26023.4 -03460.1 -07.5738 26252.4
 28 06 2013  09 24  -20.9884 26023.4 -03460.2 -07.5740 26252.4
 28 06 2013  09 25  -20.9878 26023.4 -03460.4 -07.5742 26252.5
 28 06 2013  09 26  -20.9871 26023.5 -03460.5 -07.5746 26252.5
 28 06 2013  09 27  -20.9867 26023.6 -03460.7 -07.5750 26252.7
 28 06 2013  09 28  -20.9860 26023.5 -03460.9 -07.5753 26252.6
 28 06 2013  09 29  -20.9850 26023.6 -03461.1 -07.5758 26252.8
 28 06 2013  09 30  -20.9849 26023.6 -03461.4 -07.5763 26252.8
 28 06 2013  09 31  -20.9851 26023.6 -03461.6 -07.5769 26252.9
 28 06 2013  09 32  -20.9848 26023.6 -03461.9 -07.5774 26252.8
 28 06 2013  09 33  -20.9850 26023.7 -03462.1 -07.5779 26253.0
 28 06 2013  09 34  -20.9848 26023.9 -03462.3 -07.5784 26253.2
 28 06 2013  09 35  -20.9850 26024.0 -03462.5 -07.5788 26253.3
 28 06 2013  09 36  -20.9847 26023.9 -03462.6 -07.5790 26253.2
 28 06 2013  09 37  -20.9846 26023.9 -03462.8 -07.5794 26253.2
 28 06 2013  09 38  -20.9848 26023.9 -03463.0 -07.5798 26253.3
 28 06 2013  09 39  -20.9848 26024.2 -03463.4 -07.5806 26253.7
 28 06 2013  09 40  -20.9845 26024.3 -03463.6 -07.5810 26253.8
 28 06 2013  09 41  -20.9840 26024.5 -03463.9 -07.5815 26254.0
 28 06 2013  09 42  -20.9836 26024.5 -03464.0 -07.5818 26254.0
 28 06 2013  09 43  -20.9825 26024.6 -03464.2 -07.5822 26254.1
 28 06 2013  09 44  -20.9813 26024.9 -03464.5 -07.5827 26254.5
 28 06 2013  09 45  -20.9807 26025.0 -03464.7 -07.5833 26254.6
 28 06 2013  09 46  -20.9801 26025.2 -03465.0 -07.5838 26254.8
 28 06 2013  09 47  -20.9803 26025.4 -03465.3 -07.5844 26255.0
 28 06 2013  09 48  -20.9800 26025.8 -03465.7 -07.5851 26255.6
 28 06 2013  09 49  -20.9797 26026.1 -03466.0 -07.5856 26255.8
 28 06 2013  09 50  -20.9797 26026.2 -03466.2 -07.5860 26256.0
 28 06 2013  09 51  -20.9803 26026.1 -03466.4 -07.5864 26256.0
 28 06 2013  09 52  -20.9800 26026.4 -03466.6 -07.5869 26256.2
 28 06 2013  09 53  -20.9796 26026.6 -03466.8 -07.5872 26256.4
 28 06 2013  09 54  -20.9798 26026.7 -03467.0 -07.5876 26256.6
 28 06 2013  09 55  -20.9801 26026.8 -03467.2 -07.5880 26256.7
 28 06 2013  09 56  -20.9802 26026.8 -03467.4 -07.5885 26256.8
 28 06 2013  09 57  -20.9807 26026.9 -03467.6 -07.5889 26256.9
 28 06 2013  09 58  -20.9809 26027.1 -03467.9 -07.5894 26257.1
 28 06 2013  09 59  -20.9817 26027.3 -03468.1 -07.5900 26257.3
 28 06 2013  10 00  -20.9817 26027.6 -03468.3 -07.5903 26257.7
 28 06 2013  10 01  -20.9808 26027.9 -03468.4 -07.5904 26258.0
 28 06 2013  10 02  -20.9801 26028.0 -03468.5 -07.5906 26258.1
 28 06 2013  10 03  -20.9802 26028.0 -03468.6 -07.5908 26258.1
 28 06 2013  10 04  -20.9809 26028.4 -03468.9 -07.5913 26258.5
 28 06 2013  10 05  -20.9817 26028.7 -03469.1 -07.5917 26258.9
 28 06 2013  10 06  -20.9818 26028.8 -03469.2 -07.5918 26258.9
 28 06 2013  10 07  -20.9820 26028.7 -03469.3 -07.5920 26258.9
 28 06 2013  10 08  -20.9825 26028.6 -03469.3 -07.5921 26258.8
 28 06 2013  10 09  -20.9830 26028.8 -03469.5 -07.5924 26259.0
 28 06 2013  10 10  -20.9831 26028.9 -03469.6 -07.5926 26259.1
 28 06 2013  10 11  -20.9836 26029.0 -03469.7 -07.5929 26259.2
 28 06 2013  10 12  -20.9838 26029.0 -03469.9 -07.5932 26259.3
 28 06 2013  10 13  -20.9838 26029.2 -03470.0 -07.5934 26259.4
 28 06 2013  10 14  -20.9842 26029.4 -03470.2 -07.5937 26259.7
 28 06 2013  10 15  -20.9841 26029.8 -03470.4 -07.5940 26260.1
 28 06 2013  10 16  -20.9841 26030.0 -03470.4 -07.5941 26260.4
 28 06 2013  10 17  -20.9843 26029.9 -03470.3 -07.5939 26260.2
 28 06 2013  10 18  -20.9844 26029.9 -03470.3 -07.5939 26260.2
 28 06 2013  10 19  -20.9850 26030.2 -03470.4 -07.5940 26260.5
 28 06 2013  10 20  -20.9859 26030.4 -03470.5 -07.5941 26260.7
 28 06 2013  10 21  -20.9858 26030.3 -03470.4 -07.5939 26260.6
 28 06 2013  10 22  -20.9862 26030.2 -03470.3 -07.5938 26260.5
 28 06 2013  10 23  -20.9875 26030.2 -03470.4 -07.5940 26260.5
 28 06 2013  10 24  -20.9883 26030.2 -03470.5 -07.5941 26260.5
 28 06 2013  10 25  -20.9886 26030.0 -03470.4 -07.5941 26260.3
 28 06 2013  10 26  -20.9889 26029.6 -03470.3 -07.5940 26259.9
 28 06 2013  10 27  -20.9899 26029.3 -03470.3 -07.5940 26259.6
 28 06 2013  10 28  -20.9907 26029.6 -03470.4 -07.5943 26259.9
 28 06 2013  10 29  -20.9916 26029.4 -03470.4 -07.5942 26259.7
 28 06 2013  10 30  -20.9923 26029.2 -03470.4 -07.5942 26259.5
 28 06 2013  10 31  -20.9927 26028.9 -03470.2 -07.5940 26259.2
 28 06 2013  10 32  -20.9923 26028.8 -03470.1 -07.5938 26259.1
 28 06 2013  10 33  -20.9921 26028.7 -03470.1 -07.5937 26259.0
 28 06 2013  10 34  -20.9914 26028.7 -03470.0 -07.5936 26258.9
 28 06 2013  10 35  -20.9914 26028.6 -03470.0 -07.5936 26258.9
 28 06 2013  10 36  -20.9909 26028.5 -03470.0 -07.5935 26258.8
 28 06 2013  10 37  -20.9910 26028.7 -03470.1 -07.5937 26259.0
 28 06 2013  10 38  -20.9915 26029.4 -03470.3 -07.5940 26259.7
 28 06 2013  10 39  -20.9925 26029.7 -03470.4 -07.5942 26260.1
 28 06 2013  10 40  -20.9929 26029.5 -03470.2 -07.5938 26259.8
 28 06 2013  10 41  -20.9934 26029.4 -03470.1 -07.5935 26259.7
 28 06 2013  10 42  -20.9944 26029.6 -03470.0 -07.5934 26259.8
 28 06 2013  10 43  -20.9949 26029.7 -03470.0 -07.5933 26259.9
 28 06 2013  10 44  -20.9953 26029.9 -03469.9 -07.5931 26260.1
 28 06 2013  10 45  -20.9954 26030.0 -03469.9 -07.5930 26260.2
 28 06 2013  10 46  -20.9949 26030.3 -03469.9 -07.5928 26260.6
 28 06 2013  10 47  -20.9946 26030.4 -03469.7 -07.5925 26260.6
 28 06 2013  10 48  -20.9947 26030.3 -03469.5 -07.5920 26260.5
 28 06 2013  10 49  -20.9947 26030.2 -03469.3 -07.5917 26260.4
 28 06 2013  10 50  -20.9948 26030.0 -03469.1 -07.5912 26260.1
 28 06 2013  10 51  -20.9943 26029.9 -03469.0 -07.5910 26260.1
 28 06 2013  10 52  -20.9938 26030.0 -03468.9 -07.5908 26260.1
 28 06 2013  10 53  -20.9941 26030.0 -03468.9 -07.5907 26260.2
 28 06 2013  10 54  -20.9950 26029.7 -03468.7 -07.5904 26259.8
 28 06 2013  10 55  -20.9958 26029.8 -03468.7 -07.5904 26259.9
 28 06 2013  10 56  -20.9963 26030.4 -03468.8 -07.5906 26260.5
 28 06 2013  10 57  -20.9964 26030.9 -03468.9 -07.5906 26261.0
 28 06 2013  10 58  -20.9963 26030.9 -03468.7 -07.5902 26261.0
 28 06 2013  10 59  -20.9959 26030.7 -03468.5 -07.5898 26260.8
 28 06 2013  11 00  -20.9955 26031.1 -03468.5 -07.5896 26261.1
 28 06 2013  11 01  -20.9956 26031.6 -03468.6 -07.5896 26261.7
 28 06 2013  11 02  -20.9950 26032.3 -03468.7 -07.5896 26262.4
 28 06 2013  11 03  -20.9940 26032.8 -03468.7 -07.5895 26262.9
 28 06 2013  11 04  -20.9933 26033.1 -03468.6 -07.5893 26263.2
 28 06 2013  11 05  -20.9922 26033.7 -03468.7 -07.5893 26263.8
 28 06 2013  11 06  -20.9915 26034.4 -03468.9 -07.5895 26264.5
 28 06 2013  11 07  -20.9915 26035.2 -03469.0 -07.5896 26265.3
 28 06 2013  11 08  -20.9903 26036.3 -03469.2 -07.5896 26266.4
 28 06 2013  11 09  -20.9890 26037.3 -03469.3 -07.5895 26267.4
 28 06 2013  11 10  -20.9880 26038.4 -03469.3 -07.5894 26268.5
 28 06 2013  11 11  -20.9879 26039.4 -03469.3 -07.5890 26269.5
 28 06 2013  11 12  -20.9883 26040.4 -03469.2 -07.5885 26270.5
 28 06 2013  11 13  -20.9888 26041.0 -03468.8 -07.5875 26271.0
 28 06 2013  11 14  -20.9886 26041.6 -03468.4 -07.5864 26271.6
 28 06 2013  11 15  -20.9895 26041.9 -03468.0 -07.5854 26271.8
 28 06 2013  11 16  -20.9912 26041.8 -03467.5 -07.5844 26271.7
 28 06 2013  11 17  -20.9928 26041.8 -03467.2 -07.5837 26271.6
 28 06 2013  11 18  -20.9945 26041.6 -03466.9 -07.5831 26271.4
 28 06 2013  11 19  -20.9954 26041.1 -03466.6 -07.5826 26270.8
 28 06 2013  11 20  -20.9956 26040.7 -03466.3 -07.5821 26270.4
 28 06 2013  11 21  -20.9961 26040.7 -03466.3 -07.5820 26270.4
 28 06 2013  11 22  -20.9972 26041.0 -03466.2 -07.5819 26270.6
 28 06 2013  11 23  -20.9979 26040.9 -03466.1 -07.5815 26270.5
 28 06 2013  11 24  -20.9979 26040.6 -03465.8 -07.5811 26270.2
 28 06 2013  11 25  -20.9981 26040.1 -03465.6 -07.5807 26269.7
 28 06 2013  11 26  -20.9979 26039.7 -03465.4 -07.5804 26269.3
 28 06 2013  11 27  -20.9976 26039.8 -03465.5 -07.5805 26269.4
 28 06 2013  11 28  -20.9975 26040.1 -03465.5 -07.5806 26269.7
 28 06 2013  11 29  -20.9981 26040.5 -03465.6 -07.5807 26270.1
 28 06 2013  11 30  -20.9987 26040.3 -03465.4 -07.5803 26269.9
 28 06 2013  11 31  -20.9991 26039.8 -03465.1 -07.5798 26269.3
 28 06 2013  11 32  -20.9991 26039.7 -03465.0 -07.5796 26269.3
 28 06 2013  11 33  -20.9994 26040.1 -03465.1 -07.5797 26269.6
 28 06 2013  11 34  -20.9993 26040.3 -03465.1 -07.5797 26269.9
 28 06 2013  11 35  -20.9995 26040.7 -03465.2 -07.5796 26270.2
 28 06 2013  11 36  -20.9998 26041.2 -03465.2 -07.5795 26270.8
 28 06 2013  11 37  -21.0009 26041.5 -03465.0 -07.5791 26271.0
 28 06 2013  11 38  -21.0022 26041.6 -03464.8 -07.5787 26271.1
 28 06 2013  11 39  -21.0029 26041.7 -03464.7 -07.5784 26271.2
 28 06 2013  11 40  -21.0027 26041.9 -03464.6 -07.5781 26271.4
 28 06 2013  11 41  -21.0014 26042.2 -03464.7 -07.5781 26271.7
 28 06 2013  11 42  -21.0006 26042.6 -03464.7 -07.5782 26272.0
 28 06 2013  11 43  -20.9990 26043.4 -03465.0 -07.5785 26272.9
 28 06 2013  11 44  -20.9977 26045.1 -03465.6 -07.5792 26274.6
 28 06 2013  11 45  -20.9963 26047.2 -03466.1 -07.5798 26276.8
 28 06 2013  11 46  -20.9947 26049.4 -03466.5 -07.5801 26279.0
 28 06 2013  11 47  -20.9939 26051.8 -03466.8 -07.5800 26281.4
 28 06 2013  11 48  -20.9940 26053.6 -03466.8 -07.5794 26283.2
 28 06 2013  11 49  -20.9938 26055.2 -03466.6 -07.5786 26284.8
 28 06 2013  11 50  -20.9949 26056.1 -03466.3 -07.5777 26285.6
 28 06 2013  11 51  -20.9954 26056.5 -03465.9 -07.5766 26286.0
 28 06 2013  11 52  -20.9955 26056.4 -03465.3 -07.5754 26285.8
 28 06 2013  11 53  -20.9960 26056.0 -03464.8 -07.5744 26285.4
 28 06 2013  11 54  -20.9969 26055.5 -03464.3 -07.5736 26284.8
 28 06 2013  11 55  -20.9976 26054.9 -03463.9 -07.5729 26284.1
 28 06 2013  11 56  -20.9985 26054.0 -03463.5 -07.5723 26283.2
 28 06 2013  11 57  -20.9983 26053.4 -03463.3 -07.5720 26282.5
 28 06 2013  11 58  -20.9985 26053.0 -03463.3 -07.5720 26282.2
 28 06 2013  11 59  -20.9984 26052.8 -03463.3 -07.5721 26282.0
 28 06 2013  12 00  -20.9983 26052.4 -03463.2 -07.5721 26281.6
 28 06 2013  12 01  -20.9982 26051.3 -03462.9 -07.5716 26280.4
 28 06 2013  12 02  -20.9972 26050.0 -03462.5 -07.5712 26279.1
 28 06 2013  12 03  -20.9963 26048.6 -03462.3 -07.5711 26277.7
 28 06 2013  12 04  -20.9965 26048.0 -03462.4 -07.5716 26277.1
 28 06 2013  12 05  -21.0010 26047.5 -03462.4 -07.5717 26276.6
 28 06 2013  12 06  -21.0013 26047.2 -03462.7 -07.5725 26276.3
 28 06 2013  12 07  -21.0013 26047.1 -03462.9 -07.5730 26276.3
 28 06 2013  12 08  -21.0013 26047.1 -03463.0 -07.5732 26276.3
 28 06 2013  12 09  -21.0013 26047.1 -03463.2 -07.5736 26276.3
 28 06 2013  12 10  -21.0016 26047.2 -03463.4 -07.5740 26276.4
 28 06 2013  12 11  -21.0022 26046.9 -03463.4 -07.5740 26276.2
 28 06 2013  12 12  -21.0030 26047.0 -03463.4 -07.5741 26276.2
 28 06 2013  12 13  -21.0038 26047.1 -03463.4 -07.5741 26276.3
 28 06 2013  12 14  -21.0048 26046.7 -03463.3 -07.5738 26275.9
 28 06 2013  12 15  -21.0052 26046.2 -03463.1 -07.5737 26275.4
 28 06 2013  12 16  -21.0050 26045.9 -03463.1 -07.5737 26275.2
 28 06 2013  12 17  -21.0051 26045.4 -03463.1 -07.5738 26274.7
 28 06 2013  12 18  -21.0048 26044.7 -03463.0 -07.5737 26273.9
 28 06 2013  12 19  -21.0036 26044.1 -03462.9 -07.5737 26273.4
 28 06 2013  12 20  -21.0006 26044.7 -03463.4 -07.5747 26274.0
 28 06 2013  12 21  -21.0012 26045.0 -03463.6 -07.5750 26274.3
 28 06 2013  12 22  -21.0009 26044.7 -03463.6 -07.5751 26274.0
 28 06 2013  12 23  -21.0007 26044.5 -03463.6 -07.5752 26273.8
 28 06 2013  12 24  -21.0004 26044.9 -03463.8 -07.5755 26274.2
 28 06 2013  12 25  -21.0014 26044.9 -03464.0 -07.5758 26274.2
 28 06 2013  12 26  -21.0024 26045.2 -03464.1 -07.5761 26274.5
 28 06 2013  12 27  -21.0032 26045.5 -03464.2 -07.5761 26274.9
 28 06 2013  12 28  -21.0042 26046.0 -03464.2 -07.5761 26275.3
 28 06 2013  12 29  -21.0048 26045.9 -03464.1 -07.5758 26275.3
 28 06 2013  12 30  -21.0052 26045.7 -03463.9 -07.5754 26275.1
 28 06 2013  12 31  -21.0064 26045.5 -03463.7 -07.5751 26274.8
 28 06 2013  12 32  -21.0073 26045.6 -03463.6 -07.5750 26274.9
 28 06 2013  12 33  -21.0080 26046.0 -03463.8 -07.5751 26275.3
 28 06 2013  12 34  -21.0078 26046.5 -03463.9 -07.5752 26275.8
 28 06 2013  12 35  -21.0078 26046.5 -03463.7 -07.5749 26275.8
 28 06 2013  12 36  -21.0079 26047.1 -03463.9 -07.5750 26276.4
 28 06 2013  12 37  -21.0077 26047.4 -03463.8 -07.5749 26276.7
 28 06 2013  12 38  -21.0075 26047.7 -03463.8 -07.5748 26277.0
 28 06 2013  12 39  -21.0080 26048.3 -03463.9 -07.5748 26277.6
 28 06 2013  12 40  -21.0086 26048.8 -03463.8 -07.5743 26278.1
 28 06 2013  12 41  -21.0085 26048.9 -03463.6 -07.5739 26278.2
 28 06 2013  12 42  -21.0091 26048.5 -03463.1 -07.5730 26277.7
 28 06 2013  12 43  -21.0093 26048.4 -03462.9 -07.5726 26277.6
 28 06 2013  12 44  -21.0093 26048.7 -03462.9 -07.5724 26277.9
 28 06 2013  12 45  -21.0094 26049.0 -03462.8 -07.5723 26278.2
 28 06 2013  12 46  -21.0100 26049.1 -03462.8 -07.5721 26278.3
 28 06 2013  12 47  -21.0109 26049.3 -03462.7 -07.5718 26278.5
 28 06 2013  12 48  -21.0114 26049.4 -03462.5 -07.5713 26278.5
 28 06 2013  12 49  -21.0116 26049.4 -03462.2 -07.5708 26278.5
 28 06 2013  12 50  -21.0120 26049.5 -03462.2 -07.5706 26278.6
 28 06 2013  12 51  -21.0117 26049.7 -03462.1 -07.5704 26278.8
 28 06 2013  12 52  -21.0115 26049.9 -03462.1 -07.5703 26279.0
 28 06 2013  12 53  -21.0115 26050.4 -03462.1 -07.5703 26279.4
 28 06 2013  12 54  -21.0119 26050.7 -03462.2 -07.5704 26279.8
 28 06 2013  12 55  -21.0123 26050.7 -03462.1 -07.5701 26279.8
 28 06 2013  12 56  -21.0129 26050.7 -03462.0 -07.5698 26279.8
 28 06 2013  12 57  -21.0131 26050.7 -03461.8 -07.5696 26279.7
 28 06 2013  12 58  -21.0137 26051.1 -03461.9 -07.5695 26280.1
 28 06 2013  12 59  -21.0143 26051.3 -03461.9 -07.5695 26280.3
 28 06 2013  13 00  -21.0148 26051.8 -03462.0 -07.5697 26280.8
 28 06 2013  13 01  -21.0149 26052.2 -03462.1 -07.5697 26281.2
 28 06 2013  13 02  -21.0157 26052.4 -03462.1 -07.5696 26281.5
 28 06 2013  13 03  -21.0168 26052.4 -03462.0 -07.5694 26281.5
 28 06 2013  13 04  -21.0174 26051.9 -03461.7 -07.5690 26280.9
 28 06 2013  13 05  -21.0177 26051.6 -03461.7 -07.5690 26280.6
 28 06 2013  13 06  -21.0176 26051.1 -03461.5 -07.5688 26280.0
 28 06 2013  13 07  -21.0179 26051.4 -03461.8 -07.5694 26280.4
 28 06 2013  13 08  -21.0188 26052.4 -03462.4 -07.5703 26281.5
 28 06 2013  13 09  -21.0195 26052.9 -03462.6 -07.5705 26282.0
 28 06 2013  13 10  -21.0197 26053.4 -03462.7 -07.5707 26282.5
 28 06 2013  13 11  -21.0204 26054.2 -03463.0 -07.5710 26283.3
 28 06 2013  13 12  -21.0216 26055.4 -03463.4 -07.5716 26284.6
 28 06 2013  13 13  -21.0213 26056.0 -03463.4 -07.5715 26285.2
 28 06 2013  13 14  -21.0208 26056.6 -03463.5 -07.5714 26285.7
 28 06 2013  13 15  -21.0212 26057.4 -03463.6 -07.5715 26286.6
 28 06 2013  13 16  -21.0218 26057.8 -03463.7 -07.5716 26287.0
 28 06 2013  13 17  -21.0236 26058.3 -03463.7 -07.5715 26287.5
 28 06 2013  13 18  -21.0247 26058.9 -03463.8 -07.5714 26288.1
 28 06 2013  13 19  -21.0248 26059.2 -03463.6 -07.5710 26288.3
 28 06 2013  13 20  -21.0250 26058.8 -03463.4 -07.5705 26287.9
 28 06 2013  13 21  -21.0256 26058.2 -03463.2 -07.5703 26287.3
 28 06 2013  13 22  -21.0268 26057.7 -03463.2 -07.5704 26286.8
 28 06 2013  13 23  -21.0280 26057.9 -03463.4 -07.5710 26287.1
 28 06 2013  13 24  -21.0287 26057.5 -03463.5 -07.5711 26286.7
 28 06 2013  13 25  -21.0290 26057.0 -03463.5 -07.5714 26286.2
 28 06 2013  13 26  -21.0293 26056.7 -03463.6 -07.5718 26285.9
 28 06 2013  13 27  -21.0301 26056.8 -03464.0 -07.5725 26286.1
 28 06 2013  13 28  -21.0307 26056.8 -03464.2 -07.5729 26286.1
 28 06 2013  13 29  -21.0316 26057.2 -03464.5 -07.5734 26286.5
 28 06 2013  13 30  -21.0336 26057.5 -03464.8 -07.5740 26286.9
 28 06 2013  13 31  -21.0350 26057.2 -03464.7 -07.5739 26286.5
 28 06 2013  13 32  -21.0355 26056.6 -03464.6 -07.5738 26285.9
 28 06 2013  13 33  -21.0364 26056.3 -03464.6 -07.5740 26285.6
 28 06 2013  13 34  -21.0372 26054.5 -03464.1 -07.5733 26283.8
 28 06 2013  13 35  -21.0366 26053.2 -03463.9 -07.5733 26282.4
 28 06 2013  13 36  -21.0369 26053.4 -03464.6 -07.5747 26282.8
 28 06 2013  13 37  -21.0378 26054.1 -03465.2 -07.5759 26283.5
 28 06 2013  13 38  -21.0380 26054.4 -03465.4 -07.5763 26283.8
 28 06 2013  13 39  -21.0388 26054.1 -03465.4 -07.5762 26283.5
 28 06 2013  13 40  -21.0390 26053.0 -03465.1 -07.5760 26282.5
 28 06 2013  13 41  -21.0387 26052.3 -03465.0 -07.5760 26281.7
 28 06 2013  13 42  -21.0387 26051.0 -03464.9 -07.5760 26280.4
 28 06 2013  13 43  -21.0387 26049.6 -03464.7 -07.5762 26279.0
 28 06 2013  13 44  -21.0392 26048.7 -03464.9 -07.5769 26278.1
 28 06 2013  13 45  -21.0399 26047.5 -03465.1 -07.5775 26277.0
 28 06 2013  13 46  -21.0401 26045.6 -03465.0 -07.5780 26275.1
 28 06 2013  13 47  -21.0398 26043.9 -03465.2 -07.5788 26273.4
 28 06 2013  13 48  -21.0394 26042.3 -03465.5 -07.5799 26271.8
 28 06 2013  13 49  -21.0398 26040.7 -03466.0 -07.5814 26270.3
 28 06 2013  13 50  -21.0401 26039.4 -03466.6 -07.5831 26269.1
 28 06 2013  13 51  -21.0402 26038.1 -03467.2 -07.5847 26267.9
 28 06 2013  13 52  -21.0402 26037.3 -03467.9 -07.5866 26267.3
 28 06 2013  13 53  -21.0406 26036.9 -03468.7 -07.5884 26267.0
 28 06 2013  13 54  -21.0416 26035.5 -03469.0 -07.5894 26265.6
 28 06 2013  13 55  -21.0415 26033.0 -03468.7 -07.5894 26263.0
 28 06 2013  13 56  -21.0417 26031.8 -03469.1 -07.5907 26262.0
 28 06 2013  13 57  -21.0423 26031.2 -03470.0 -07.5928 26261.4
 28 06 2013  13 58  -21.0436 26030.7 -03470.9 -07.5950 26261.1
 28 06 2013  13 59  -21.0452 26030.6 -03471.8 -07.5969 26261.1
 28 06 2013  14 00  -21.0464 26031.2 -03472.7 -07.5987 26261.8
 28 06 2013  14 01  -21.0473 26031.6 -03473.5 -07.6002 26262.3
 28 06 2013  14 02  -21.0487 26032.3 -03474.2 -07.6017 26263.1
 28 06 2013  14 03  -21.0494 26033.1 -03474.9 -07.6028 26264.0
 28 06 2013  14 04  -21.0499 26034.6 -03475.6 -07.6040 26265.6
 28 06 2013  14 05  -21.0500 26035.5 -03476.1 -07.6047 26266.5
 28 06 2013  14 06  -21.0502 26035.9 -03476.3 -07.6051 26267.0
 28 06 2013  14 07  -21.0515 26037.4 -03476.9 -07.6059 26268.5
 28 06 2013  14 08  -21.0528 26038.4 -03477.0 -07.6060 26269.5
 28 06 2013  14 09  -21.0535 26038.8 -03476.7 -07.6052 26269.9
 28 06 2013  14 10  -21.0537 26038.8 -03476.3 -07.6042 26269.8
 28 06 2013  14 11  -21.0532 26039.0 -03475.9 -07.6033 26270.0
 28 06 2013  14 12  -21.0530 26039.1 -03475.5 -07.6024 26270.0
 28 06 2013  14 13  -21.0527 26039.5 -03475.3 -07.6020 26270.4
 28 06 2013  14 14  -21.0526 26040.8 -03475.5 -07.6020 26271.7
 28 06 2013  14 15  -21.0524 26041.7 -03475.5 -07.6017 26272.6
 28 06 2013  14 16  -21.0525 26043.0 -03475.7 -07.6017 26273.9
 28 06 2013  14 17  -21.0529 26043.5 -03475.4 -07.6010 26274.4
 28 06 2013  14 18  -21.0528 26044.5 -03475.2 -07.6002 26275.3
 28 06 2013  14 19  -21.0529 26046.1 -03475.2 -07.5999 26276.9
 28 06 2013  14 20  -21.0532 26046.8 -03475.0 -07.5991 26277.5
 28 06 2013  14 21  -21.0530 26047.6 -03474.6 -07.5980 26278.3
 28 06 2013  14 22  -21.0536 26048.7 -03474.4 -07.5972 26279.4
 28 06 2013  14 23  -21.0528 26048.2 -03473.5 -07.5955 26278.8
 28 06 2013  14 24  -21.0533 26048.3 -03473.1 -07.5946 26278.8
 28 06 2013  14 25  -21.0534 26048.5 -03472.7 -07.5937 26279.0
 28 06 2013  14 26  -21.0539 26048.7 -03472.3 -07.5928 26279.2
 28 06 2013  14 27  -21.0543 26048.9 -03472.1 -07.5923 26279.3
 28 06 2013  14 28  -21.0550 26048.7 -03471.9 -07.5918 26279.1
 28 06 2013  14 29  -21.0555 26048.6 -03471.8 -07.5916 26278.9
 28 06 2013  14 30  -21.0563 26048.9 -03471.9 -07.5918 26279.2
 28 06 2013  14 31  -21.0574 26049.0 -03471.9 -07.5917 26279.4
 28 06 2013  14 32  -21.0579 26049.1 -03471.8 -07.5915 26279.5
 28 06 2013  14 33  -21.0582 26049.2 -03471.7 -07.5914 26279.6
 28 06 2013  14 34  -21.0586 26049.5 -03471.7 -07.5913 26279.8
 28 06 2013  14 35  -21.0585 26049.5 -03471.6 -07.5909 26279.8
 28 06 2013  14 36  -21.0585 26049.6 -03471.4 -07.5905 26279.9
 28 06 2013  14 37  -21.0589 26049.1 -03471.1 -07.5900 26279.4
 28 06 2013  14 38  -21.0590 26048.1 -03470.6 -07.5893 26278.3
 28 06 2013  14 39  -21.0591 26047.4 -03470.4 -07.5890 26277.5
 28 06 2013  14 40  -21.0590 26046.5 -03470.1 -07.5886 26276.6
 28 06 2013  14 41  -21.0588 26045.9 -03469.9 -07.5885 26276.0
 28 06 2013  14 42  -21.0592 26045.9 -03470.2 -07.5891 26276.1
 28 06 2013  14 43  -21.0599 26046.3 -03470.6 -07.5899 26276.5
 28 06 2013  14 44  -21.0613 26046.9 -03471.1 -07.5906 26277.1
 28 06 2013  14 45  -21.0624 26047.2 -03471.3 -07.5910 26277.5
 28 06 2013  14 46  -21.0636 26048.4 -03471.7 -07.5915 26278.8
 28 06 2013  14 47  -21.0648 26049.7 -03472.1 -07.5920 26280.1
 28 06 2013  14 48  -21.0661 26051.3 -03472.5 -07.5925 26281.7
 28 06 2013  14 49  -21.0675 26052.5 -03472.7 -07.5926 26282.9
 28 06 2013  14 50  -21.0690 26053.3 -03472.6 -07.5922 26283.8
 28 06 2013  14 51  -21.0697 26053.6 -03472.2 -07.5912 26283.9
 28 06 2013  14 52  -21.0696 26053.4 -03471.6 -07.5899 26283.7
 28 06 2013  14 53  -21.0700 26053.2 -03471.1 -07.5888 26283.4
 28 06 2013  14 54  -21.0696 26052.2 -03470.3 -07.5875 26282.3
 28 06 2013  14 55  -21.0695 26051.9 -03470.1 -07.5870 26282.0
 28 06 2013  14 56  -21.0696 26051.9 -03470.0 -07.5868 26282.0
 28 06 2013  14 57  -21.0696 26051.3 -03469.7 -07.5864 26281.3
 28 06 2013  14 58  -21.0690 26050.0 -03469.1 -07.5856 26280.0
 28 06 2013  14 59  -21.0688 26049.2 -03468.9 -07.5853 26279.2
 28 06 2013  15 00  -21.0692 26048.8 -03468.9 -07.5854 26278.8
 28 06 2013  15 01  -21.0700 26048.8 -03469.0 -07.5857 26278.8
 28 06 2013  15 02  -21.0715 26049.2 -03469.3 -07.5862 26279.2
 28 06 2013  15 03  -21.0727 26049.6 -03469.5 -07.5865 26279.7
 28 06 2013  15 04  -21.0740 26050.3 -03469.7 -07.5866 26280.3
 28 06 2013  15 05  -21.0760 26052.0 -03470.2 -07.5873 26282.1
 28 06 2013  15 06  -21.0781 26054.0 -03470.6 -07.5876 26284.1
 28 06 2013  15 07  -21.0806 26056.4 -03471.1 -07.5879 26286.6
 28 06 2013  15 08  -21.0827 26057.8 -03470.9 -07.5872 26287.9
 28 06 2013  15 09  -21.0836 26057.6 -03470.0 -07.5852 26287.6
 28 06 2013  15 10  -21.0822 26056.1 -03468.6 -07.5826 26286.0
 28 06 2013  15 11  -21.0820 26055.9 -03468.0 -07.5813 26285.6
 28 06 2013  15 12  -21.0808 26054.7 -03467.0 -07.5796 26284.3
 28 06 2013  15 13  -21.0800 26054.1 -03466.5 -07.5787 26283.7
 28 06 2013  15 14  -21.0807 26053.8 -03466.3 -07.5783 26283.3
 28 06 2013  15 15  -21.0819 26053.7 -03466.3 -07.5783 26283.2
 28 06 2013  15 16  -21.0846 26055.6 -03467.1 -07.5795 26285.3
 28 06 2013  15 17  -21.0885 26058.9 -03468.3 -07.5811 26288.7
 28 06 2013  15 18  -21.0904 26060.9 -03468.5 -07.5811 26290.7
 28 06 2013  15 19  -21.0911 26061.9 -03468.2 -07.5800 26291.7
 28 06 2013  15 20  -21.0919 26062.9 -03467.6 -07.5786 26292.6
 28 06 2013  15 21  -21.0918 26063.3 -03466.9 -07.5768 26292.8
 28 06 2013  15 22  -21.0910 26063.0 -03466.0 -07.5749 26292.4
 28 06 2013  15 23  -21.0904 26062.4 -03465.0 -07.5731 26291.8
 28 06 2013  15 24  -21.0898 26061.5 -03464.1 -07.5714 26290.7
 28 06 2013  15 25  -21.0899 26060.5 -03463.5 -07.5703 26289.6
 28 06 2013  15 26  -21.0898 26059.5 -03463.0 -07.5696 26288.6
 28 06 2013  15 27  -21.0899 26058.5 -03462.8 -07.5693 26287.5
 28 06 2013  15 28  -21.0905 26057.5 -03462.7 -07.5694 26286.6
 28 06 2013  15 29  -21.0912 26056.2 -03462.5 -07.5694 26285.2
 28 06 2013  15 30  -21.0919 26055.1 -03462.6 -07.5699 26284.1
 28 06 2013  15 31  -21.0935 26054.4 -03462.9 -07.5708 26283.5
 28 06 2013  15 32  -21.0949 26053.4 -03463.0 -07.5714 26282.6
 28 06 2013  15 33  -21.0961 26052.5 -03463.1 -07.5718 26281.7
 28 06 2013  15 34  -21.0986 26053.5 -03463.9 -07.5733 26282.7
 28 06 2013  15 35  -21.1005 26054.2 -03464.5 -07.5743 26283.6
 28 06 2013  15 36  -21.1024 26055.7 -03465.1 -07.5753 26285.1
 28 06 2013  15 37  -21.1045 26057.0 -03465.7 -07.5760 26286.5
 28 06 2013  15 38  -21.1060 26057.4 -03465.5 -07.5755 26286.8
 28 06 2013  15 39  -21.1065 26056.9 -03464.8 -07.5743 26286.2
 28 06 2013  15 40  -21.1080 26057.2 -03464.6 -07.5737 26286.5
 28 06 2013  15 41  -21.1117 26059.4 -03465.4 -07.5748 26288.8
 28 06 2013  15 42  -21.1150 26061.7 -03466.1 -07.5756 26291.2
 28 06 2013  15 43  -21.1156 26061.1 -03465.3 -07.5741 26290.5
 28 06 2013  15 44  -21.1159 26059.9 -03464.2 -07.5721 26289.1
 28 06 2013  15 45  -21.1149 26058.0 -03463.0 -07.5699 26287.1
 28 06 2013  15 46  -21.1140 26055.7 -03461.8 -07.5680 26284.6
 28 06 2013  15 47  -21.1137 26053.7 -03461.1 -07.5672 26282.6
 28 06 2013  15 48  -21.1130 26051.2 -03460.6 -07.5667 26280.1
 28 06 2013  15 49  -21.1131 26048.6 -03460.1 -07.5665 26277.4
 28 06 2013  15 50  -21.1157 26049.9 -03461.4 -07.5688 26278.9
 28 06 2013  15 51  -21.1205 26053.7 -03463.5 -07.5724 26282.9
 28 06 2013  15 52  -21.1224 26055.5 -03464.1 -07.5732 26284.8
 28 06 2013  15 53  -21.1256 26057.5 -03464.6 -07.5735 26286.8
 28 06 2013  15 54  -21.1280 26059.3 -03464.7 -07.5732 26288.6
 28 06 2013  15 55  -21.1301 26060.8 -03464.7 -07.5729 26290.1
 28 06 2013  15 56  -21.1316 26061.4 -03464.4 -07.5720 26290.6
 28 06 2013  15 57  -21.1325 26061.1 -03463.7 -07.5707 26290.3
 28 06 2013  15 58  -21.1301 26059.0 -03462.2 -07.5680 26288.0
 28 06 2013  15 59  -21.1278 26056.0 -03460.7 -07.5656 26284.8
 28 06 2013  16 00  -21.1266 26053.8 -03459.9 -07.5646 26282.5
 28 06 2013  16 01  -21.1279 26054.5 -03460.6 -07.5658 26283.3
 28 06 2013  16 02  -21.1300 26056.1 -03461.7 -07.5678 26285.0
 28 06 2013  16 03  -21.1298 26055.6 -03461.9 -07.5684 26284.6
 28 06 2013  16 04  -21.1311 26054.5 -03462.0 -07.5689 26283.6
 28 06 2013  16 05  -21.1322 26053.5 -03462.0 -07.5692 26282.5
 28 06 2013  16 06  -21.1306 26049.5 -03460.7 -07.5674 26278.3
 28 06 2013  16 07  -21.1294 26044.6 -03459.1 -07.5654 26273.3
 28 06 2013  16 08  -21.1283 26041.8 -03458.6 -07.5651 26270.5
 28 06 2013  16 09  -21.1277 26040.8 -03459.2 -07.5667 26269.6
 28 06 2013  16 10  -21.1284 26040.3 -03460.0 -07.5686 26269.1
 28 06 2013  16 11  -21.1305 26040.6 -03461.0 -07.5706 26269.5
 28 06 2013  16 12  -21.1330 26041.8 -03462.2 -07.5728 26271.0
 28 06 2013  16 13  -21.1352 26042.3 -03462.6 -07.5736 26271.5
 28 06 2013  16 14  -21.1351 26040.9 -03462.1 -07.5729 26270.0
 28 06 2013  16 15  -21.1324 26036.1 -03460.1 -07.5700 26265.0
 28 06 2013  16 16  -21.1301 26031.5 -03458.6 -07.5680 26260.3
 28 06 2013  16 17  -21.1255 26024.4 -03456.4 -07.5653 26252.9
 28 06 2013  16 18  -21.1204 26017.4 -03454.8 -07.5638 26245.8
 28 06 2013  16 19  -21.1178 26012.9 -03455.1 -07.5659 26241.3
 28 06 2013  16 20  -21.1180 26010.1 -03456.5 -07.5698 26238.8
 28 06 2013  16 21  -21.1199 26009.7 -03458.8 -07.5749 26238.6
 28 06 2013  16 22  -21.1217 26009.6 -03460.7 -07.5789 26238.8
 28 06 2013  16 23  -21.1231 26010.6 -03462.4 -07.5822 26240.0
 28 06 2013  16 24  -21.1242 26011.9 -03463.8 -07.5849 26241.5
 28 06 2013  16 25  -21.1251 26013.2 -03464.7 -07.5866 26242.9
 28 06 2013  16 26  -21.1272 26015.6 -03465.9 -07.5885 26245.4
 28 06 2013  16 27  -21.1253 26014.4 -03465.3 -07.5876 26244.1
 28 06 2013  16 28  -21.1221 26011.2 -03464.0 -07.5856 26240.8
 28 06 2013  16 29  -21.1202 26008.4 -03463.1 -07.5844 26237.9
 28 06 2013  16 30  -21.1188 26007.3 -03463.0 -07.5846 26236.9
 28 06 2013  16 31  -21.1174 26007.1 -03463.3 -07.5854 26236.7
 28 06 2013  16 32  -21.1165 26007.5 -03464.0 -07.5867 26237.2
 28 06 2013  16 33  -21.1155 26007.9 -03464.4 -07.5875 26237.6
 28 06 2013  16 34  -21.1150 26007.9 -03464.6 -07.5878 26237.6
 28 06 2013  16 35  -21.1151 26008.5 -03464.9 -07.5884 26238.3
 28 06 2013  16 36  -21.1158 26009.8 -03465.6 -07.5894 26239.7
 28 06 2013  16 37  -21.1171 26011.3 -03466.2 -07.5904 26241.2
 28 06 2013  16 38  -21.1181 26012.5 -03466.5 -07.5906 26242.5
 28 06 2013  16 39  -21.1176 26012.2 -03466.0 -07.5897 26242.1
 28 06 2013  16 40  -21.1150 26009.0 -03464.4 -07.5871 26238.8
 28 06 2013  16 41  -21.1132 26006.3 -03463.3 -07.5854 26235.9
 28 06 2013  16 42  -21.1119 26004.4 -03462.8 -07.5850 26234.0
 28 06 2013  16 43  -21.1109 26003.2 -03462.8 -07.5853 26232.7
 28 06 2013  16 44  -21.1102 26002.6 -03463.0 -07.5860 26232.2
 28 06 2013  16 45  -21.1105 26002.7 -03463.5 -07.5871 26232.3
 28 06 2013  16 46  -21.1117 26003.7 -03464.3 -07.5884 26233.4
 28 06 2013  16 47  -21.1130 26004.9 -03464.9 -07.5895 26234.8
 28 06 2013  16 48  -21.1143 26006.3 -03465.3 -07.5900 26236.2
 28 06 2013  16 49  -21.1168 26008.9 -03466.1 -07.5909 26238.9
 28 06 2013  16 50  -21.1186 26011.2 -03466.5 -07.5911 26241.2
 28 06 2013  16 51  -21.1201 26013.1 -03466.6 -07.5906 26243.1
 28 06 2013  16 52  -21.1209 26014.1 -03466.0 -07.5892 26244.0
 28 06 2013  16 53  -21.1217 26015.4 -03465.6 -07.5878 26245.3
 28 06 2013  16 54  -21.1226 26016.9 -03465.2 -07.5867 26246.6
 28 06 2013  16 55  -21.1226 26017.6 -03464.6 -07.5850 26247.2
 28 06 2013  16 56  -21.1228 26018.8 -03464.1 -07.5836 26248.4
 28 06 2013  16 57  -21.1218 26019.5 -03463.4 -07.5819 26249.0
 28 06 2013  16 58  -21.1227 26021.6 -03463.3 -07.5811 26251.0
 28 06 2013  16 59  -21.1228 26022.9 -03462.8 -07.5798 26252.3
 28 06 2013  17 00  -21.1227 26023.9 -03462.3 -07.5783 26253.2
 28 06 2013  17 01  -21.1231 26024.9 -03461.9 -07.5771 26254.2
 28 06 2013  17 02  -21.1235 26026.1 -03461.6 -07.5761 26255.3
 28 06 2013  17 03  -21.1248 26027.7 -03461.5 -07.5754 26256.9
 28 06 2013  17 04  -21.1258 26029.1 -03461.2 -07.5744 26258.2
 28 06 2013  17 05  -21.1274 26031.0 -03461.1 -07.5737 26260.1
 28 06 2013  17 06  -21.1283 26032.1 -03460.6 -07.5724 26261.1
 28 06 2013  17 07  -21.1299 26033.4 -03460.3 -07.5711 26262.4
 28 06 2013  17 08  -21.1310 26034.6 -03459.8 -07.5698 26263.5
 28 06 2013  17 09  -21.1303 26034.1 -03458.7 -07.5676 26262.9
 28 06 2013  17 10  -21.1292 26033.2 -03457.6 -07.5655 26261.9
 28 06 2013  17 11  -21.1283 26033.1 -03457.1 -07.5643 26261.6
 28 06 2013  17 12  -21.1272 26032.3 -03456.4 -07.5632 26260.7
 28 06 2013  17 13  -21.1243 26029.9 -03455.2 -07.5612 26258.2
 28 06 2013  17 14  -21.1215 26027.4 -03454.0 -07.5594 26255.6
 28 06 2013  17 15  -21.1195 26025.3 -03453.4 -07.5587 26253.4
 28 06 2013  17 16  -21.1187 26023.9 -03453.3 -07.5589 26252.0
 28 06 2013  17 17  -21.1187 26023.4 -03453.7 -07.5598 26251.6
 28 06 2013  17 18  -21.1184 26022.9 -03453.9 -07.5605 26251.1
 28 06 2013  17 19  -21.1184 26022.3 -03454.2 -07.5612 26250.6
 28 06 2013  17 20  -21.1191 26022.5 -03454.7 -07.5622 26250.8
 28 06 2013  17 21  -21.1207 26023.1 -03455.3 -07.5633 26251.5
 28 06 2013  17 22  -21.1229 26024.5 -03456.0 -07.5644 26252.9
 28 06 2013  17 23  -21.1250 26025.5 -03456.4 -07.5649 26254.1
 28 06 2013  17 24  -21.1234 26023.6 -03455.3 -07.5632 26252.0
 28 06 2013  17 25  -21.1215 26021.2 -03454.2 -07.5616 26249.4
 28 06 2013  17 26  -21.1182 26018.3 -03453.0 -07.5599 26246.5
 28 06 2013  17 27  -21.1191 26019.9 -03454.0 -07.5614 26248.1
 28 06 2013  17 28  -21.1199 26020.9 -03454.8 -07.5629 26249.3
 28 06 2013  17 29  -21.1209 26021.0 -03455.1 -07.5635 26249.4
 28 06 2013  17 30  -21.1201 26018.7 -03454.3 -07.5625 26247.0
 28 06 2013  17 31  -21.1178 26016.1 -03453.4 -07.5612 26244.3
 28 06 2013  17 32  -21.1177 26015.2 -03453.4 -07.5616 26243.4
 28 06 2013  17 33  -21.1183 26015.1 -03453.9 -07.5626 26243.4
 28 06 2013  17 34  -21.1193 26015.4 -03454.5 -07.5638 26243.7
 28 06 2013  17 35  -21.1207 26015.4 -03454.8 -07.5646 26243.8
 28 06 2013  17 36  -21.1202 26014.5 -03454.8 -07.5647 26242.9
 28 06 2013  17 37  -21.1197 26013.6 -03454.7 -07.5648 26242.0
 28 06 2013  17 38  -21.1206 26014.0 -03455.1 -07.5656 26242.5
 28 06 2013  17 39  -21.1210 26014.1 -03455.4 -07.5661 26242.6
 28 06 2013  17 40  -21.1212 26014.3 -03455.6 -07.5666 26242.8
 28 06 2013  17 41  -21.1226 26015.3 -03456.2 -07.5675 26243.9
 28 06 2013  17 42  -21.1238 26016.6 -03456.7 -07.5683 26245.2
 28 06 2013  17 43  -21.1252 26018.2 -03457.2 -07.5690 26246.9
 28 06 2013  17 44  -21.1261 26019.2 -03457.4 -07.5690 26247.9
 28 06 2013  17 45  -21.1268 26019.6 -03457.2 -07.5685 26248.3
 28 06 2013  17 46  -21.1276 26019.9 -03457.0 -07.5681 26248.5
 28 06 2013  17 47  -21.1270 26019.0 -03456.4 -07.5669 26247.6
 28 06 2013  17 48  -21.1257 26018.1 -03455.7 -07.5658 26246.6
 28 06 2013  17 49  -21.1244 26017.2 -03455.3 -07.5651 26245.7
 28 06 2013  17 50  -21.1228 26016.2 -03455.0 -07.5646 26244.6
 28 06 2013  17 51  -21.1218 26015.8 -03454.9 -07.5646 26244.2
 28 06 2013  17 52  -21.1220 26015.9 -03455.0 -07.5649 26244.3
 28 06 2013  17 53  -21.1230 26016.6 -03455.4 -07.5654 26245.1
 28 06 2013  17 54  -21.1234 26016.9 -03455.4 -07.5654 26245.4
 28 06 2013  17 55  -21.1235 26016.5 -03455.2 -07.5651 26245.0
 28 06 2013  17 56  -21.1235 26015.9 -03454.8 -07.5645 26244.3
 28 06 2013  17 57  -21.1234 26015.3 -03454.6 -07.5641 26243.7
 28 06 2013  17 58  -21.1245 26015.8 -03454.8 -07.5644 26244.2
 28 06 2013  17 59  -21.1262 26016.5 -03455.0 -07.5647 26244.9
 28 06 2013  18 00  -21.1273 26016.8 -03455.0 -07.5645 26245.2
 28 06 2013  18 01  -21.1274 26016.3 -03454.6 -07.5637 26244.7
 28 06 2013  18 02  -21.1279 26015.8 -03454.2 -07.5631 26244.1
 28 06 2013  18 03  -21.1289 26015.6 -03454.0 -07.5628 26243.9
 28 06 2013  18 04  -21.1291 26015.2 -03453.7 -07.5622 26243.5
 28 06 2013  18 05  -21.1291 26014.9 -03453.4 -07.5617 26243.1
 28 06 2013  18 06  -21.1301 26015.3 -03453.5 -07.5617 26243.5
 28 06 2013  18 07  -21.1312 26015.9 -03453.5 -07.5616 26244.1
 28 06 2013  18 08  -21.1313 26016.1 -03453.3 -07.5610 26244.2
 28 06 2013  18 09  -21.1319 26016.3 -03453.1 -07.5605 26244.4
 28 06 2013  18 10  -21.1316 26015.7 -03452.5 -07.5594 26243.8
 28 06 2013  18 11  -21.1320 26015.4 -03452.2 -07.5588 26243.4
 28 06 2013  18 12  -21.1326 26015.3 -03451.9 -07.5583 26243.4
 28 06 2013  18 13  -21.1330 26014.9 -03451.5 -07.5575 26242.9
 28 06 2013  18 14  -21.1331 26013.9 -03450.9 -07.5565 26241.8
 28 06 2013  18 15  -21.1333 26013.4 -03450.6 -07.5559 26241.3
 28 06 2013  18 16  -21.1325 26012.6 -03450.1 -07.5550 26240.4
 28 06 2013  18 17  -21.1321 26011.7 -03449.6 -07.5542 26239.5
 28 06 2013  18 18  -21.1318 26010.8 -03449.2 -07.5537 26238.5
 28 06 2013  18 19  -21.1319 26010.0 -03448.8 -07.5532 26237.6
 28 06 2013  18 20  -21.1321 26009.4 -03448.6 -07.5528 26237.0
 28 06 2013  18 21  -21.1318 26008.7 -03448.3 -07.5524 26236.3
 28 06 2013  18 22  -21.1315 26007.6 -03448.0 -07.5519 26235.2
 28 06 2013  18 23  -21.1315 26007.2 -03447.9 -07.5519 26234.8
 28 06 2013  18 24  -21.1323 26007.6 -03448.1 -07.5522 26235.1
 28 06 2013  18 25  -21.1327 26007.4 -03448.0 -07.5521 26235.0
 28 06 2013  18 26  -21.1327 26007.3 -03447.9 -07.5518 26234.9
 28 06 2013  18 27  -21.1329 26007.3 -03447.8 -07.5517 26234.8
 28 06 2013  18 28  -21.1326 26007.0 -03447.6 -07.5512 26234.5
 28 06 2013  18 29  -21.1321 26006.6 -03447.3 -07.5508 26234.1
 28 06 2013  18 30  -21.1315 26006.0 -03447.0 -07.5503 26233.4
 28 06 2013  18 31  -21.1316 26005.7 -03446.8 -07.5500 26233.1
 28 06 2013  18 32  -21.1330 26008.3 -03447.9 -07.5516 26235.8
 28 06 2013  18 33  -21.1350 26009.9 -03448.6 -07.5526 26237.6
 28 06 2013  18 34  -21.1365 26011.1 -03448.7 -07.5525 26238.7
 28 06 2013  18 35  -21.1376 26011.6 -03448.4 -07.5516 26239.2
 28 06 2013  18 36  -21.1386 26012.6 -03448.2 -07.5511 26240.2
 28 06 2013  18 37  -21.1396 26013.9 -03448.2 -07.5508 26241.4
 28 06 2013  18 38  -21.1396 26014.5 -03448.0 -07.5500 26242.0
 28 06 2013  18 39  -21.1400 26016.0 -03448.1 -07.5499 26243.5
 28 06 2013  18 40  -21.1417 26018.8 -03448.9 -07.5507 26246.4
 28 06 2013  18 41  -21.1425 26020.5 -03449.0 -07.5505 26248.1
 28 06 2013  18 42  -21.1427 26020.0 -03448.2 -07.5490 26247.5
 28 06 2013  18 43  -21.1422 26019.5 -03447.5 -07.5475 26246.9
 28 06 2013  18 44  -21.1420 26019.3 -03447.1 -07.5466 26246.7
 28 06 2013  18 45  -21.1415 26018.7 -03446.5 -07.5455 26245.9
 28 06 2013  18 46  -21.1407 26017.5 -03445.7 -07.5442 26244.6
 28 06 2013  18 47  -21.1397 26016.0 -03445.0 -07.5431 26243.1
 28 06 2013  18 48  -21.1378 26013.6 -03444.0 -07.5416 26240.6
 28 06 2013  18 49  -21.1354 26011.2 -03443.1 -07.5404 26238.1
 28 06 2013  18 50  -21.1329 26008.5 -03442.2 -07.5393 26235.3
 28 06 2013  18 51  -21.1319 26006.3 -03441.8 -07.5391 26233.0
 28 06 2013  18 52  -21.1311 26004.4 -03441.6 -07.5391 26231.2
 28 06 2013  18 53  -21.1310 26002.7 -03441.5 -07.5394 26229.4
 28 06 2013  18 54  -21.1314 26001.2 -03441.5 -07.5399 26228.0
 28 06 2013  18 55  -21.1319 26000.0 -03441.6 -07.5404 26226.8
 28 06 2013  18 56  -21.1323 25998.9 -03441.8 -07.5411 26225.8
 28 06 2013  18 57  -21.1336 25997.7 -03441.9 -07.5416 26224.6
 28 06 2013  18 58  -21.1344 25996.5 -03441.9 -07.5419 26223.4
 28 06 2013  18 59  -21.1354 25995.5 -03441.9 -07.5423 26222.4
 28 06 2013  19 00  -21.1365 25994.5 -03442.0 -07.5427 26221.4
 28 06 2013  19 01  -21.1418 25993.0 -03441.6 -07.5424 26219.9
 28 06 2013  19 02  -21.1432 25992.1 -03441.6 -07.5427 26218.9
 28 06 2013  19 03  -21.1443 25991.5 -03441.7 -07.5430 26218.4
 28 06 2013  19 04  -21.1454 25991.9 -03442.0 -07.5435 26218.8
 28 06 2013  19 05  -21.1469 25992.7 -03442.5 -07.5444 26219.6
 28 06 2013  19 06  -21.1464 25992.8 -03442.6 -07.5445 26219.8
 28 06 2013  19 07  -21.1447 25994.1 -03443.1 -07.5453 26221.1
 28 06 2013  19 08  -21.1451 25994.6 -03443.1 -07.5453 26221.6
 28 06 2013  19 09  -21.1453 25994.6 -03443.0 -07.5448 26221.7
 28 06 2013  19 10  -21.1460 25995.0 -03442.9 -07.5446 26222.0
 28 06 2013  19 11  -21.1465 25995.2 -03442.8 -07.5443 26222.2
 28 06 2013  19 12  -21.1472 25995.2 -03442.5 -07.5438 26222.1
 28 06 2013  19 13  -21.1471 25994.1 -03441.9 -07.5427 26220.9
 28 06 2013  19 14  -21.1467 25992.6 -03441.2 -07.5415 26219.4
 28 06 2013  19 15  -21.1465 25991.5 -03440.7 -07.5408 26218.3
 28 06 2013  19 16  -21.1460 25990.8 -03440.4 -07.5404 26217.5
 28 06 2013  19 17  -21.1455 25989.8 -03440.1 -07.5400 26216.5
 28 06 2013  19 18  -21.1448 25988.8 -03439.8 -07.5397 26215.4
 28 06 2013  19 19  -21.1445 25988.1 -03439.7 -07.5396 26214.7
 28 06 2013  19 20  -21.1442 25987.7 -03439.7 -07.5397 26214.4
 28 06 2013  19 21  -21.1437 25987.6 -03439.8 -07.5399 26214.3
 28 06 2013  19 22  -21.1435 25987.6 -03439.9 -07.5401 26214.3
 28 06 2013  19 23  -21.1430 25987.5 -03439.8 -07.5401 26214.1
 28 06 2013  19 24  -21.1421 25986.9 -03439.7 -07.5399 26213.6
 28 06 2013  19 25  -21.1415 25986.7 -03439.7 -07.5400 26213.3
 28 06 2013  19 26  -21.1408 25986.6 -03439.7 -07.5400 26213.3
 28 06 2013  19 27  -21.1405 25986.7 -03439.8 -07.5402 26213.4
 28 06 2013  19 28  -21.1401 25986.7 -03439.8 -07.5403 26213.3
 28 06 2013  19 29  -21.1395 25986.2 -03439.7 -07.5401 26212.8
 28 06 2013  19 30  -21.1391 25985.5 -03439.4 -07.5398 26212.1
 28 06 2013  19 31  -21.1392 25985.2 -03439.3 -07.5397 26211.8
 28 06 2013  19 32  -21.1394 25984.9 -03439.3 -07.5397 26211.6
 28 06 2013  19 33  -21.1396 25984.6 -03439.2 -07.5395 26211.2
 28 06 2013  19 34  -21.1392 25984.1 -03438.9 -07.5391 26210.7
 28 06 2013  19 35  -21.1388 25985.5 -03439.5 -07.5400 26212.1
 28 06 2013  19 36  -21.1396 25986.8 -03440.2 -07.5411 26213.5
 28 06 2013  19 37  -21.1405 25988.7 -03441.0 -07.5424 26215.5
 28 06 2013  19 38  -21.1418 25990.7 -03441.7 -07.5432 26217.6
 28 06 2013  19 39  -21.1434 25993.5 -03442.4 -07.5440 26220.4
 28 06 2013  19 40  -21.1438 25995.3 -03442.7 -07.5442 26222.3
 28 06 2013  19 41  -21.1432 25995.9 -03442.3 -07.5431 26222.8
 28 06 2013  19 42  -21.1430 25996.7 -03442.2 -07.5427 26223.6
 28 06 2013  19 43  -21.1422 25996.1 -03441.6 -07.5415 26223.0
 28 06 2013  19 44  -21.1413 25995.8 -03441.2 -07.5406 26222.6
 28 06 2013  19 45  -21.1403 25995.2 -03440.7 -07.5398 26221.9
 28 06 2013  19 46  -21.1387 25994.2 -03440.2 -07.5389 26220.9
 28 06 2013  19 47  -21.1367 25992.3 -03439.4 -07.5378 26218.9
 28 06 2013  19 48  -21.1343 25990.3 -03438.7 -07.5368 26216.8
 28 06 2013  19 49  -21.1322 25988.1 -03438.1 -07.5362 26214.6
 28 06 2013  19 50  -21.1304 25986.7 -03437.9 -07.5362 26213.1
 28 06 2013  19 51  -21.1291 25985.6 -03437.9 -07.5366 26212.0
 28 06 2013  19 52  -21.1282 25984.4 -03437.9 -07.5368 26210.9
 28 06 2013  19 53  -21.1279 25983.6 -03438.0 -07.5373 26210.1
 28 06 2013  19 54  -21.1280 25983.1 -03438.3 -07.5380 26209.6
 28 06 2013  19 55  -21.1281 25982.9 -03438.6 -07.5387 26209.5
 28 06 2013  19 56  -21.1281 25982.5 -03438.7 -07.5391 26209.0
 28 06 2013  19 57  -21.1281 25981.5 -03438.6 -07.5392 26208.1
 28 06 2013  19 58  -21.1277 25980.5 -03438.5 -07.5393 26207.1
 28 06 2013  19 59  -21.1277 25979.7 -03438.5 -07.5395 26206.3
 28 06 2013  20 00  -21.1282 25978.7 -03438.5 -07.5398 26205.3
 28 06 2013  20 01  -21.1290 25977.7 -03438.5 -07.5400 26204.2
 28 06 2013  20 02  -21.1294 25976.2 -03438.3 -07.5399 26202.8
 28 06 2013  20 03  -21.1295 25975.3 -03438.2 -07.5401 26201.8
 28 06 2013  20 04  -21.1292 25974.3 -03438.1 -07.5402 26200.9
 28 06 2013  20 05  -21.1291 25973.1 -03437.9 -07.5401 26199.7
 28 06 2013  20 06  -21.1291 25972.1 -03437.8 -07.5402 26198.6
 28 06 2013  20 07  -21.1293 25971.2 -03437.8 -07.5404 26197.8
 28 06 2013  20 08  -21.1294 25970.0 -03437.6 -07.5403 26196.6
 28 06 2013  20 09  -21.1288 25969.2 -03437.5 -07.5404 26195.7
 28 06 2013  20 10  -21.1290 25969.1 -03437.8 -07.5409 26195.7
 28 06 2013  20 11  -21.1289 25968.9 -03438.0 -07.5414 26195.5
 28 06 2013  20 12  -21.1291 25969.0 -03438.2 -07.5419 26195.6
 28 06 2013  20 13  -21.1295 25969.1 -03438.5 -07.5424 26195.7
 28 06 2013  20 14  -21.1297 25969.0 -03438.6 -07.5428 26195.7
 28 06 2013  20 15  -21.1296 25968.5 -03438.6 -07.5429 26195.2
 28 06 2013  20 16  -21.1293 25968.0 -03438.6 -07.5431 26194.7
 28 06 2013  20 17  -21.1289 25967.3 -03438.6 -07.5432 26194.0
 28 06 2013  20 18  -21.1288 25966.8 -03438.6 -07.5435 26193.5
 28 06 2013  20 19  -21.1283 25966.3 -03438.7 -07.5438 26193.0
 28 06 2013  20 20  -21.1271 25965.8 -03438.7 -07.5439 26192.5
 28 06 2013  20 21  -21.1262 25965.4 -03438.8 -07.5441 26192.2
 28 06 2013  20 22  -21.1256 25965.1 -03438.9 -07.5444 26191.9
 28 06 2013  20 23  -21.1246 25964.9 -03439.0 -07.5447 26191.6
 28 06 2013  20 24  -21.1238 25964.9 -03439.2 -07.5451 26191.6
 28 06 2013  20 25  -21.1230 25964.2 -03439.1 -07.5453 26191.0
 28 06 2013  20 26  -21.1221 25963.6 -03439.1 -07.5454 26190.4
 28 06 2013  20 27  -21.1211 25963.2 -03439.2 -07.5457 26190.0
 28 06 2013  20 28  -21.1195 25962.7 -03439.3 -07.5460 26189.6
 28 06 2013  20 29  -21.1179 25962.2 -03439.3 -07.5462 26189.0
 28 06 2013  20 30  -21.1163 25961.8 -03439.5 -07.5467 26188.6
 28 06 2013  20 31  -21.1148 25961.5 -03439.7 -07.5474 26188.4
 28 06 2013  20 32  -21.1136 25961.3 -03440.0 -07.5480 26188.2
 28 06 2013  20 33  -21.1125 25961.0 -03440.3 -07.5487 26187.9
 28 06 2013  20 34  -21.1116 25960.8 -03440.6 -07.5494 26187.7
 28 06 2013  20 35  -21.1113 25960.7 -03441.0 -07.5503 26187.8
 28 06 2013  20 36  -21.1114 25961.0 -03441.5 -07.5513 26188.1
 28 06 2013  20 37  -21.1120 25962.2 -03442.3 -07.5528 26189.4
 28 06 2013  20 38  -21.1126 25962.8 -03442.9 -07.5539 26190.1
 28 06 2013  20 39  -21.1129 25963.0 -03443.3 -07.5546 26190.3
 28 06 2013  20 40  -21.1133 25963.7 -03443.8 -07.5555 26191.1
 28 06 2013  20 41  -21.1135 25964.5 -03444.2 -07.5561 26191.9
 28 06 2013  20 42  -21.1134 25964.9 -03444.5 -07.5566 26192.4
 28 06 2013  20 43  -21.1127 25964.9 -03444.4 -07.5565 26192.3
 28 06 2013  20 44  -21.1118 25964.7 -03444.3 -07.5562 26192.1
 28 06 2013  20 45  -21.1105 25963.8 -03443.9 -07.5558 26191.2
 28 06 2013  20 46  -21.1084 25962.9 -03443.6 -07.5554 26190.3
 28 06 2013  20 47  -21.1063 25961.9 -03443.3 -07.5550 26189.2
 28 06 2013  20 48  -21.1045 25960.9 -03443.1 -07.5549 26188.3
 28 06 2013  20 49  -21.1036 25960.2 -03443.2 -07.5552 26187.6
 28 06 2013  20 50  -21.1037 25959.7 -03443.3 -07.5557 26187.0
 28 06 2013  20 51  -21.1045 25959.4 -03443.8 -07.5567 26186.9
 28 06 2013  20 52  -21.1052 25959.4 -03444.2 -07.5576 26186.9
 28 06 2013  20 53  -21.1058 25959.5 -03444.5 -07.5584 26187.0
 28 06 2013  20 54  -21.1064 25959.5 -03444.8 -07.5589 26187.0
 28 06 2013  20 55  -21.1071 25959.3 -03445.0 -07.5594 26186.9
 28 06 2013  20 56  -21.1076 25959.2 -03445.1 -07.5597 26186.8
 28 06 2013  20 57  -21.1077 25958.7 -03445.1 -07.5598 26186.4
 28 06 2013  20 58  -21.1076 25958.4 -03445.1 -07.5599 26186.0
 28 06 2013  20 59  -21.1073 25958.1 -03445.1 -07.5600 26185.7
 28 06 2013  21 00  -21.1070 25957.9 -03445.2 -07.5602 26185.5
 28 06 2013  21 01  -21.1066 25957.6 -03445.2 -07.5604 26185.2
 28 06 2013  21 02  -21.1063 25957.2 -03445.2 -07.5605 26184.8
 28 06 2013  21 03  -21.1060 25956.9 -03445.3 -07.5607 26184.6
 28 06 2013  21 04  -21.1058 25956.6 -03445.3 -07.5609 26184.2
 28 06 2013  21 05  -21.1055 25956.4 -03445.4 -07.5611 26184.1
 28 06 2013  21 06  -21.1056 25956.3 -03445.5 -07.5614 26184.0
 28 06 2013  21 07  -21.1060 25956.3 -03445.8 -07.5620 26184.1
 28 06 2013  21 08  -21.1060 25956.6 -03446.1 -07.5625 26184.3
 28 06 2013  21 09  -21.1059 25956.6 -03446.2 -07.5628 26184.4
 28 06 2013  21 10  -21.1054 25956.5 -03446.3 -07.5629 26184.3
 28 06 2013  21 11  -21.1045 25956.2 -03446.2 -07.5628 26184.0
 28 06 2013  21 12  -21.1035 25956.0 -03446.1 -07.5628 26183.8
 28 06 2013  21 13  -21.1028 25955.8 -03446.0 -07.5627 26183.5
 28 06 2013  21 14  -21.1021 25955.6 -03446.1 -07.5630 26183.3
 28 06 2013  21 15  -21.1016 25955.5 -03446.3 -07.5633 26183.3
 28 06 2013  21 16  -21.1015 25955.2 -03446.4 -07.5635 26183.0
 28 06 2013  21 17  -21.1012 25955.1 -03446.5 -07.5638 26182.9
 28 06 2013  21 18  -21.1007 25955.1 -03446.6 -07.5641 26182.9
 28 06 2013  21 19  -21.1004 25955.0 -03446.7 -07.5644 26182.9
 28 06 2013  21 20  -21.1000 25955.2 -03446.9 -07.5647 26183.1
 28 06 2013  21 21  -21.0997 25955.3 -03447.0 -07.5650 26183.1
 28 06 2013  21 22  -21.0993 25955.3 -03447.2 -07.5653 26183.2
 28 06 2013  21 23  -21.0987 25955.2 -03447.2 -07.5654 26183.2
 28 06 2013  21 24  -21.0980 25954.9 -03447.2 -07.5654 26182.9
 28 06 2013  21 25  -21.0980 25954.7 -03447.2 -07.5654 26182.6
 28 06 2013  21 26  -21.0980 25954.4 -03447.2 -07.5656 26182.4
 28 06 2013  21 27  -21.0981 25954.0 -03447.1 -07.5655 26181.9
 28 06 2013  21 28  -21.0982 25953.5 -03447.1 -07.5655 26181.4
 28 06 2013  21 29  -21.0980 25953.1 -03447.0 -07.5655 26181.0
 28 06 2013  21 30  -21.0980 25952.7 -03446.9 -07.5654 26180.5
 28 06 2013  21 31  -21.0976 25952.2 -03446.8 -07.5653 26180.1
 28 06 2013  21 32  -21.0975 25952.1 -03446.9 -07.5656 26180.1
 28 06 2013  21 33  -21.0975 25952.0 -03447.0 -07.5658 26179.9
 28 06 2013  21 34  -21.0974 25951.7 -03447.0 -07.5659 26179.6
 28 06 2013  21 35  -21.0971 25951.5 -03447.0 -07.5660 26179.4
 28 06 2013  21 36  -21.0966 25951.2 -03447.0 -07.5660 26179.1
 28 06 2013  21 37  -21.0962 25951.0 -03447.0 -07.5661 26179.0
 28 06 2013  21 38  -21.0957 25951.2 -03447.2 -07.5665 26179.2
 28 06 2013  21 39  -21.0954 25951.7 -03447.6 -07.5672 26179.7
 28 06 2013  21 40  -21.0951 25952.2 -03447.9 -07.5678 26180.2
 28 06 2013  21 41  -21.0953 25952.7 -03448.3 -07.5684 26180.8
 28 06 2013  21 42  -21.0958 25953.0 -03448.5 -07.5689 26181.2
 28 06 2013  21 43  -21.0966 25953.2 -03448.7 -07.5692 26181.4
 28 06 2013  21 44  -21.0970 25953.3 -03448.8 -07.5693 26181.5
 28 06 2013  21 45  -21.0974 25953.3 -03448.8 -07.5693 26181.4
 28 06 2013  21 46  -21.0977 25953.2 -03448.7 -07.5692 26181.4
 28 06 2013  21 47  -21.0975 25953.2 -03448.6 -07.5691 26181.3
 28 06 2013  21 48  -21.0977 25953.1 -03448.6 -07.5691 26181.2
 28 06 2013  21 49  -21.0978 25953.1 -03448.6 -07.5691 26181.2
 28 06 2013  21 50  -21.0983 25952.8 -03448.5 -07.5690 26180.9
 28 06 2013  21 51  -21.0997 25952.5 -03448.5 -07.5689 26180.6
 28 06 2013  21 52  -21.1005 25952.2 -03448.4 -07.5689 26180.3
 28 06 2013  21 53  -21.1009 25951.8 -03448.2 -07.5686 26179.9
 28 06 2013  21 54  -21.1011 25951.7 -03448.1 -07.5684 26179.7
 28 06 2013  21 55  -21.1018 25951.7 -03448.2 -07.5685 26179.8
 28 06 2013  21 56  -21.1032 25951.5 -03448.2 -07.5685 26179.6
 28 06 2013  21 57  -21.1044 25951.3 -03448.2 -07.5686 26179.4
 28 06 2013  21 58  -21.1055 25951.3 -03448.2 -07.5687 26179.4
 28 06 2013  21 59  -21.1065 25951.7 -03448.4 -07.5689 26179.8
 28 06 2013  22 00  -21.1079 25952.3 -03448.7 -07.5694 26180.4
 28 06 2013  22 01  -21.1096 25952.7 -03448.9 -07.5698 26180.9
 28 06 2013  22 02  -21.1110 25953.2 -03449.1 -07.5701 26181.4
 28 06 2013  22 03  -21.1123 25953.4 -03449.2 -07.5702 26181.6
 28 06 2013  22 04  -21.1129 25954.4 -03449.5 -07.5705 26182.7
 28 06 2013  22 05  -21.1136 25955.2 -03449.7 -07.5709 26183.4
 28 06 2013  22 06  -21.1137 25955.9 -03449.9 -07.5711 26184.1
 28 06 2013  22 07  -21.1140 25956.5 -03450.2 -07.5715 26184.8
 28 06 2013  22 08  -21.1142 25957.0 -03450.3 -07.5715 26185.3
 28 06 2013  22 09  -21.1137 25956.9 -03450.1 -07.5712 26185.2
 28 06 2013  22 10  -21.1128 25956.3 -03449.7 -07.5704 26184.5
 28 06 2013  22 11  -21.1115 25955.3 -03449.1 -07.5694 26183.5
 28 06 2013  22 12  -21.1111 25954.0 -03448.4 -07.5683 26182.0
 28 06 2013  22 13  -21.1109 25952.4 -03447.7 -07.5673 26180.4
 28 06 2013  22 14  -21.1106 25951.1 -03447.2 -07.5665 26179.0
 28 06 2013  22 15  -21.1095 25949.5 -03446.5 -07.5654 26177.4
 28 06 2013  22 16  -21.1095 25948.1 -03446.0 -07.5647 26175.9
 28 06 2013  22 17  -21.1096 25946.8 -03445.6 -07.5643 26174.6
 28 06 2013  22 18  -21.1103 25945.5 -03445.2 -07.5638 26173.2
 28 06 2013  22 19  -21.1118 25944.6 -03445.1 -07.5638 26172.3
 28 06 2013  22 20  -21.1129 25944.0 -03445.1 -07.5640 26171.7
 28 06 2013  22 21  -21.1133 25943.3 -03444.9 -07.5639 26171.0
 28 06 2013  22 22  -21.1137 25942.4 -03444.7 -07.5637 26170.1
 28 06 2013  22 23  -21.1134 25941.1 -03444.2 -07.5630 26168.7
 28 06 2013  22 24  -21.1128 25940.1 -03443.9 -07.5625 26167.7
 28 06 2013  22 25  -21.1123 25939.6 -03443.8 -07.5625 26167.2
 28 06 2013  22 26  -21.1114 25939.3 -03443.9 -07.5628 26166.9
 28 06 2013  22 27  -21.1107 25938.9 -03444.0 -07.5632 26166.5
 28 06 2013  22 28  -21.1102 25938.5 -03444.1 -07.5634 26166.1
 28 06 2013  22 29  -21.1104 25938.3 -03444.3 -07.5639 26166.0
 28 06 2013  22 30  -21.1115 25938.6 -03444.7 -07.5648 26166.3
 28 06 2013  22 31  -21.1125 25939.0 -03445.2 -07.5658 26166.8
 28 06 2013  22 32  -21.1129 25939.4 -03445.6 -07.5665 26167.3
 28 06 2013  22 33  -21.1131 25939.7 -03445.9 -07.5670 26167.6
 28 06 2013  22 34  -21.1136 25940.3 -03446.3 -07.5678 26168.2
 28 06 2013  22 35  -21.1135 25940.8 -03446.7 -07.5684 26168.8
 28 06 2013  22 36  -21.1136 25941.0 -03446.9 -07.5687 26169.0
 28 06 2013  22 37  -21.1140 25941.1 -03447.0 -07.5689 26169.1
 28 06 2013  22 38  -21.1137 25940.8 -03446.9 -07.5688 26168.8
 28 06 2013  22 39  -21.1130 25940.0 -03446.5 -07.5682 26168.0
 28 06 2013  22 40  -21.1115 25939.2 -03446.1 -07.5675 26167.1
 28 06 2013  22 41  -21.1099 25938.8 -03445.9 -07.5672 26166.7
 28 06 2013  22 42  -21.1083 25938.1 -03445.7 -07.5670 26166.0
 28 06 2013  22 43  -21.1063 25936.9 -03445.3 -07.5664 26164.8
 28 06 2013  22 44  -21.1051 25935.5 -03444.8 -07.5659 26163.3
 28 06 2013  22 45  -21.1045 25934.4 -03444.5 -07.5655 26162.1
 28 06 2013  22 46  -21.1041 25933.4 -03444.4 -07.5655 26161.1
 28 06 2013  22 47  -21.1041 25932.6 -03444.4 -07.5657 26160.4
 28 06 2013  22 48  -21.1038 25932.1 -03444.4 -07.5660 26159.8
 28 06 2013  22 49  -21.1033 25931.6 -03444.5 -07.5664 26159.4
 28 06 2013  22 50  -21.1032 25931.6 -03444.8 -07.5669 26159.4
 28 06 2013  22 51  -21.1034 25931.9 -03445.3 -07.5679 26159.7
 28 06 2013  22 52  -21.1037 25932.5 -03445.9 -07.5691 26160.5
 28 06 2013  22 53  -21.1045 25932.9 -03446.4 -07.5700 26160.9
 28 06 2013  22 54  -21.1053 25933.1 -03446.7 -07.5707 26161.2
 28 06 2013  22 55  -21.1057 25933.3 -03447.0 -07.5712 26161.3
 28 06 2013  22 56  -21.1062 25933.1 -03447.1 -07.5714 26161.2
 28 06 2013  22 57  -21.1066 25932.7 -03447.0 -07.5714 26160.8
 28 06 2013  22 58  -21.1072 25932.2 -03446.8 -07.5712 26160.2
 28 06 2013  22 59  -21.1075 25931.6 -03446.7 -07.5710 26159.7
 28 06 2013  23 00  -21.1075 25930.7 -03446.3 -07.5705 26158.7
 28 06 2013  23 01  -21.1071 25929.4 -03445.8 -07.5697 26157.4
 28 06 2013  23 02  -21.1065 25928.4 -03445.3 -07.5691 26156.3
 28 06 2013  23 03  -21.1061 25927.3 -03445.0 -07.5686 26155.2
 28 06 2013  23 04  -21.1060 25926.6 -03444.9 -07.5686 26154.5
 28 06 2013  23 05  -21.1056 25926.3 -03445.0 -07.5688 26154.2
 28 06 2013  23 06  -21.1052 25926.6 -03445.3 -07.5695 26154.5
 28 06 2013  23 07  -21.1047 25927.1 -03445.8 -07.5705 26155.1
 28 06 2013  23 08  -21.1043 25927.8 -03446.3 -07.5714 26155.8
 28 06 2013  23 09  -21.1036 25928.5 -03446.9 -07.5724 26156.6
 28 06 2013  23 10  -21.1029 25929.3 -03447.4 -07.5733 26157.4
 28 06 2013  23 11  -21.1026 25930.2 -03448.0 -07.5743 26158.4
 28 06 2013  23 12  -21.1025 25931.3 -03448.7 -07.5754 26159.6
 28 06 2013  23 13  -21.1025 25932.2 -03449.2 -07.5764 26160.5
 28 06 2013  23 14  -21.1025 25933.0 -03449.7 -07.5772 26161.4
 28 06 2013  23 15  -21.1032 25933.8 -03450.1 -07.5779 26162.2
 28 06 2013  23 16  -21.1043 25934.8 -03450.7 -07.5788 26163.4
 28 06 2013  23 17  -21.1055 25935.6 -03451.1 -07.5794 26164.2
 28 06 2013  23 18  -21.1067 25935.7 -03451.1 -07.5794 26164.3
 28 06 2013  23 19  -21.1076 25935.8 -03451.0 -07.5791 26164.3
 28 06 2013  23 20  -21.1086 25935.9 -03450.9 -07.5790 26164.5
 28 06 2013  23 21  -21.1091 25935.9 -03450.8 -07.5788 26164.5
 28 06 2013  23 22  -21.1092 25935.6 -03450.6 -07.5783 26164.1
 28 06 2013  23 23  -21.1088 25935.4 -03450.3 -07.5778 26163.9
 28 06 2013  23 24  -21.1083 25935.2 -03450.1 -07.5774 26163.7
 28 06 2013  23 25  -21.1080 25935.2 -03450.0 -07.5773 26163.7
 28 06 2013  23 26  -21.1077 25935.2 -03450.0 -07.5772 26163.6
 28 06 2013  23 27  -21.1072 25935.2 -03450.0 -07.5771 26163.6
 28 06 2013  23 28  -21.1068 25935.2 -03450.0 -07.5771 26163.7
 28 06 2013  23 29  -21.1063 25935.2 -03449.9 -07.5771 26163.7
 28 06 2013  23 30  -21.1055 25935.2 -03449.9 -07.5770 26163.6
 28 06 2013  23 31  -21.1046 25935.2 -03449.9 -07.5770 26163.6
 28 06 2013  23 32  -21.1039 25935.1 -03449.9 -07.5771 26163.6
 28 06 2013  23 33  -21.1030 25935.0 -03449.9 -07.5770 26163.4
 28 06 2013  23 34  -21.1016 25934.7 -03449.7 -07.5768 26163.1
 28 06 2013  23 35  -21.1004 25934.4 -03449.6 -07.5766 26162.8
 28 06 2013  23 36  -21.0991 25934.2 -03449.6 -07.5766 26162.7
 28 06 2013  23 37  -21.0982 25934.0 -03449.6 -07.5767 26162.4
 28 06 2013  23 38  -21.0977 25933.8 -03449.7 -07.5769 26162.3
 28 06 2013  23 39  -21.0978 25933.7 -03449.8 -07.5771 26162.2
 28 06 2013  23 40  -21.0984 25933.8 -03450.0 -07.5775 26162.3
 28 06 2013  23 41  -21.0994 25933.9 -03450.2 -07.5780 26162.4
 28 06 2013  23 42  -21.1003 25933.7 -03450.2 -07.5781 26162.2
 28 06 2013  23 43  -21.1007 25933.4 -03450.1 -07.5780 26161.8
 28 06 2013  23 44  -21.1013 25933.0 -03450.0 -07.5778 26161.5
 28 06 2013  23 45  -21.1017 25932.7 -03449.9 -07.5776 26161.2
 28 06 2013  23 46  -21.1020 25932.5 -03449.8 -07.5775 26160.9
 28 06 2013  23 47  -21.1020 25932.3 -03449.7 -07.5775 26160.7
 28 06 2013  23 48  -21.1021 25932.3 -03449.8 -07.5776 26160.8
 28 06 2013  23 49  -21.1025 25932.6 -03450.0 -07.5780 26161.0
 28 06 2013  23 50  -21.1029 25932.5 -03450.1 -07.5782 26161.0
 28 06 2013  23 51  -21.1033 25932.3 -03450.0 -07.5781 26160.8
 28 06 2013  23 52  -21.1036 25932.0 -03449.9 -07.5779 26160.5
 28 06 2013  23 53  -21.1041 25931.7 -03449.8 -07.5778 26160.2
 28 06 2013  23 54  -21.1045 25931.5 -03449.7 -07.5777 26159.9
 28 06 2013  23 55  -21.1048 25931.3 -03449.7 -07.5776 26159.7
 28 06 2013  23 56  -21.1046 25931.2 -03449.7 -07.5776 26159.7
 28 06 2013  23 57  -21.1043 25931.0 -03449.6 -07.5776 26159.5
