SAO LUIS EMBRACE-03 <079> 1 Min. Reported data

 DD MM YYYY  HH MM   D(Deg)  H(nT)   Z(nT)   I(Deg)   F(nT)

 20 03 2013  00 00  -21.0563 26022.3 -03421.1 -07.4896 26246.2
 20 03 2013  00 01  -21.0563 26022.3 -03421.0 -07.4895 26246.2
 20 03 2013  00 02  -21.0565 26022.1 -03421.0 -07.4894 26246.0
 20 03 2013  00 03  -21.0565 26022.2 -03421.0 -07.4894 26246.1
 20 03 2013  00 04  -21.0566 26022.1 -03420.9 -07.4893 26246.0
 20 03 2013  00 05  -21.0568 26022.0 -03420.9 -07.4893 26245.9
 20 03 2013  00 06  -21.0570 26021.9 -03420.9 -07.4892 26245.8
 20 03 2013  00 07  -21.0571 26021.8 -03420.8 -07.4890 26245.7
 20 03 2013  00 08  -21.0571 26021.5 -03420.6 -07.4887 26245.3
 20 03 2013  00 09  -21.0570 26021.4 -03420.5 -07.4886 26245.3
 20 03 2013  00 10  -21.0569 26021.3 -03420.5 -07.4885 26245.1
 20 03 2013  00 11  -21.0568 26021.2 -03420.4 -07.4885 26245.0
 20 03 2013  00 12  -21.0567 26021.1 -03420.4 -07.4885 26245.0
 20 03 2013  00 13  -21.0566 26021.1 -03420.4 -07.4884 26244.9
 20 03 2013  00 14  -21.0566 26021.0 -03420.4 -07.4885 26244.9
 20 03 2013  00 15  -21.0565 26021.0 -03420.5 -07.4886 26244.9
 20 03 2013  00 16  -21.0563 26021.0 -03420.5 -07.4886 26244.9
 20 03 2013  00 17  -21.0562 26021.0 -03420.5 -07.4887 26244.8
 20 03 2013  00 18  -21.0559 26021.0 -03420.5 -07.4887 26244.8
 20 03 2013  00 19  -21.0557 26021.0 -03420.6 -07.4888 26244.9
 20 03 2013  00 20  -21.0560 26021.0 -03420.6 -07.4889 26244.9
 20 03 2013  00 21  -21.0563 26020.9 -03420.6 -07.4889 26244.8
 20 03 2013  00 22  -21.0566 26020.8 -03420.6 -07.4888 26244.6
 20 03 2013  00 23  -21.0571 26020.7 -03420.5 -07.4888 26244.6
 20 03 2013  00 24  -21.0574 26020.7 -03420.6 -07.4889 26244.6
 20 03 2013  00 25  -21.0579 26020.7 -03420.6 -07.4889 26244.6
 20 03 2013  00 26  -21.0584 26020.6 -03420.5 -07.4888 26244.5
 20 03 2013  00 27  -21.0588 26020.6 -03420.5 -07.4888 26244.5
 20 03 2013  00 28  -21.0593 26020.6 -03420.5 -07.4887 26244.4
 20 03 2013  00 29  -21.0596 26020.5 -03420.4 -07.4886 26244.3
 20 03 2013  00 30  -21.0600 26020.5 -03420.4 -07.4886 26244.3
 20 03 2013  00 31  -21.0605 26020.4 -03420.4 -07.4885 26244.2
 20 03 2013  00 32  -21.0609 26020.2 -03420.2 -07.4884 26244.0
 20 03 2013  00 33  -21.0612 26020.0 -03420.1 -07.4881 26243.8
 20 03 2013  00 34  -21.0612 26019.8 -03420.0 -07.4879 26243.6
 20 03 2013  00 35  -21.0613 26019.6 -03419.9 -07.4877 26243.4
 20 03 2013  00 36  -21.0614 26019.3 -03419.7 -07.4875 26243.0
 20 03 2013  00 37  -21.0613 26019.1 -03419.6 -07.4873 26242.8
 20 03 2013  00 38  -21.0616 26018.9 -03419.6 -07.4872 26242.7
 20 03 2013  00 39  -21.0619 26018.8 -03419.6 -07.4873 26242.5
 20 03 2013  00 40  -21.0621 26018.6 -03419.5 -07.4872 26242.3
 20 03 2013  00 41  -21.0620 26018.3 -03419.4 -07.4871 26242.1
 20 03 2013  00 42  -21.0618 26018.3 -03419.4 -07.4870 26242.0
 20 03 2013  00 43  -21.0618 26018.1 -03419.3 -07.4870 26241.8
 20 03 2013  00 44  -21.0618 26018.0 -03419.4 -07.4870 26241.8
 20 03 2013  00 45  -21.0617 26018.1 -03419.5 -07.4872 26241.8
 20 03 2013  00 46  -21.0618 26018.1 -03419.5 -07.4874 26241.8
 20 03 2013  00 47  -21.0621 26018.0 -03419.6 -07.4875 26241.8
 20 03 2013  00 48  -21.0624 26018.0 -03419.6 -07.4876 26241.8
 20 03 2013  00 49  -21.0629 26017.9 -03419.7 -07.4878 26241.7
 20 03 2013  00 50  -21.0631 26018.0 -03419.7 -07.4879 26241.7
 20 03 2013  00 51  -21.0630 26018.0 -03419.8 -07.4880 26241.8
 20 03 2013  00 52  -21.0626 26018.1 -03419.8 -07.4880 26241.9
 20 03 2013  00 53  -21.0623 26018.3 -03419.9 -07.4882 26242.1
 20 03 2013  00 54  -21.0620 26018.5 -03420.1 -07.4884 26242.3
 20 03 2013  00 55  -21.0623 26018.6 -03420.2 -07.4886 26242.4
 20 03 2013  00 56  -21.0622 26018.9 -03420.3 -07.4889 26242.7
 20 03 2013  00 57  -21.0620 26019.2 -03420.5 -07.4892 26243.0
 20 03 2013  00 58  -21.0618 26019.4 -03420.6 -07.4893 26243.3
 20 03 2013  00 59  -21.0617 26019.4 -03420.7 -07.4894 26243.3
 20 03 2013  01 00  -21.0618 26019.4 -03420.6 -07.4895 26243.2
 20 03 2013  01 01  -21.0621 26019.1 -03420.5 -07.4893 26243.0
 20 03 2013  01 02  -21.0623 26018.9 -03420.4 -07.4891 26242.8
 20 03 2013  01 03  -21.0624 26018.6 -03420.3 -07.4890 26242.5
 20 03 2013  01 04  -21.0622 26018.4 -03420.2 -07.4888 26242.3
 20 03 2013  01 05  -21.0619 26018.4 -03420.2 -07.4887 26242.2
 20 03 2013  01 06  -21.0617 26018.3 -03420.2 -07.4887 26242.2
 20 03 2013  01 07  -21.0616 26018.2 -03420.2 -07.4888 26242.1
 20 03 2013  01 08  -21.0614 26018.1 -03420.2 -07.4888 26241.9
 20 03 2013  01 09  -21.0612 26018.0 -03420.2 -07.4888 26241.8
 20 03 2013  01 10  -21.0611 26018.0 -03420.2 -07.4889 26241.8
 20 03 2013  01 11  -21.0609 26017.9 -03420.2 -07.4888 26241.7
 20 03 2013  01 12  -21.0608 26017.8 -03420.2 -07.4889 26241.6
 20 03 2013  01 13  -21.0606 26017.7 -03420.3 -07.4891 26241.6
 20 03 2013  01 14  -21.0603 26017.7 -03420.3 -07.4891 26241.6
 20 03 2013  01 15  -21.0599 26017.7 -03420.3 -07.4893 26241.6
 20 03 2013  01 16  -21.0597 26017.8 -03420.4 -07.4894 26241.6
 20 03 2013  01 17  -21.0599 26017.8 -03420.5 -07.4895 26241.6
 20 03 2013  01 18  -21.0601 26018.1 -03420.7 -07.4898 26242.0
 20 03 2013  01 19  -21.0602 26018.5 -03420.9 -07.4903 26242.4
 20 03 2013  01 20  -21.0602 26018.8 -03421.1 -07.4907 26242.8
 20 03 2013  01 21  -21.0602 26019.0 -03421.2 -07.4908 26242.9
 20 03 2013  01 22  -21.0603 26019.1 -03421.3 -07.4909 26243.0
 20 03 2013  01 23  -21.0606 26019.0 -03421.3 -07.4909 26243.0
 20 03 2013  01 24  -21.0609 26018.8 -03421.2 -07.4908 26242.8
 20 03 2013  01 25  -21.0612 26018.6 -03421.1 -07.4906 26242.5
 20 03 2013  01 26  -21.0613 26018.4 -03421.0 -07.4905 26242.4
 20 03 2013  01 27  -21.0614 26018.4 -03421.0 -07.4904 26242.3
 20 03 2013  01 28  -21.0613 26018.4 -03421.0 -07.4904 26242.3
 20 03 2013  01 29  -21.0613 26018.5 -03421.0 -07.4904 26242.4
 20 03 2013  01 30  -21.0612 26018.6 -03421.1 -07.4906 26242.5
 20 03 2013  01 31  -21.0612 26018.8 -03421.2 -07.4908 26242.7
 20 03 2013  01 32  -21.0611 26018.9 -03421.2 -07.4909 26242.8
 20 03 2013  01 33  -21.0613 26018.9 -03421.3 -07.4910 26242.9
 20 03 2013  01 34  -21.0614 26018.6 -03421.2 -07.4908 26242.6
 20 03 2013  01 35  -21.0614 26018.3 -03421.0 -07.4905 26242.2
 20 03 2013  01 36  -21.0612 26018.0 -03420.8 -07.4902 26241.9
 20 03 2013  01 37  -21.0612 26017.8 -03420.7 -07.4901 26241.7
 20 03 2013  01 38  -21.0613 26017.7 -03420.7 -07.4900 26241.6
 20 03 2013  01 39  -21.0617 26017.6 -03420.7 -07.4901 26241.6
 20 03 2013  01 40  -21.0621 26017.5 -03420.7 -07.4900 26241.4
 20 03 2013  01 41  -21.0622 26017.4 -03420.6 -07.4900 26241.3
 20 03 2013  01 42  -21.0623 26017.2 -03420.5 -07.4898 26241.1
 20 03 2013  01 43  -21.0625 26017.1 -03420.4 -07.4897 26240.9
 20 03 2013  01 44  -21.0626 26017.1 -03420.5 -07.4898 26241.0
 20 03 2013  01 45  -21.0626 26017.2 -03420.6 -07.4900 26241.1
 20 03 2013  01 46  -21.0624 26017.3 -03420.6 -07.4900 26241.2
 20 03 2013  01 47  -21.0622 26017.5 -03420.7 -07.4901 26241.4
 20 03 2013  01 48  -21.0621 26017.6 -03420.8 -07.4902 26241.5
 20 03 2013  01 49  -21.0621 26017.6 -03420.8 -07.4903 26241.5
 20 03 2013  01 50  -21.0622 26017.6 -03420.8 -07.4903 26241.5
 20 03 2013  01 51  -21.0622 26017.6 -03420.8 -07.4903 26241.6
 20 03 2013  01 52  -21.0624 26017.6 -03420.8 -07.4903 26241.5
 20 03 2013  01 53  -21.0625 26017.7 -03420.8 -07.4903 26241.6
 20 03 2013  01 54  -21.0626 26017.8 -03420.9 -07.4904 26241.7
 20 03 2013  01 55  -21.0627 26017.9 -03420.9 -07.4905 26241.8
 20 03 2013  01 56  -21.0628 26017.9 -03420.9 -07.4904 26241.8
 20 03 2013  01 57  -21.0627 26017.8 -03420.9 -07.4903 26241.7
 20 03 2013  01 58  -21.0627 26017.7 -03420.8 -07.4903 26241.6
 20 03 2013  01 59  -21.0626 26017.7 -03420.7 -07.4901 26241.6
 20 03 2013  02 00  -21.0624 26017.7 -03420.7 -07.4901 26241.6
 20 03 2013  02 01  -21.0623 26017.7 -03420.7 -07.4901 26241.6
 20 03 2013  02 02  -21.0623 26017.7 -03420.7 -07.4901 26241.6
 20 03 2013  02 03  -21.0622 26017.7 -03420.7 -07.4901 26241.6
 20 03 2013  02 04  -21.0622 26017.7 -03420.8 -07.4902 26241.7
 20 03 2013  02 05  -21.0621 26017.9 -03420.8 -07.4903 26241.8
 20 03 2013  02 06  -21.0622 26018.0 -03420.9 -07.4905 26242.0
 20 03 2013  02 07  -21.0623 26018.0 -03421.0 -07.4905 26242.0
 20 03 2013  02 08  -21.0623 26018.1 -03421.0 -07.4906 26242.1
 20 03 2013  02 09  -21.0623 26018.3 -03421.1 -07.4906 26242.3
 20 03 2013  02 10  -21.0622 26018.5 -03421.1 -07.4907 26242.4
 20 03 2013  02 11  -21.0621 26018.5 -03421.1 -07.4907 26242.4
 20 03 2013  02 12  -21.0621 26018.5 -03421.1 -07.4907 26242.4
 20 03 2013  02 13  -21.0620 26018.6 -03421.1 -07.4907 26242.5
 20 03 2013  02 14  -21.0620 26018.7 -03421.2 -07.4908 26242.7
 20 03 2013  02 15  -21.0621 26018.9 -03421.3 -07.4909 26242.9
 20 03 2013  02 16  -21.0623 26018.9 -03421.3 -07.4910 26242.9
 20 03 2013  02 17  -21.0624 26018.9 -03421.2 -07.4908 26242.8
 20 03 2013  02 18  -21.0626 26018.8 -03421.1 -07.4907 26242.8
 20 03 2013  02 19  -21.0628 26018.7 -03421.1 -07.4906 26242.7
 20 03 2013  02 20  -21.0631 26018.7 -03421.0 -07.4905 26242.6
 20 03 2013  02 21  -21.0634 26018.6 -03421.0 -07.4903 26242.5
 20 03 2013  02 22  -21.0634 26018.6 -03420.9 -07.4902 26242.5
 20 03 2013  02 23  -21.0632 26018.6 -03420.9 -07.4903 26242.5
 20 03 2013  02 24  -21.0627 26018.8 -03421.0 -07.4903 26242.8
 20 03 2013  02 25  -21.0622 26018.9 -03421.1 -07.4904 26242.9
 20 03 2013  02 26  -21.0619 26019.2 -03421.1 -07.4906 26243.1
 20 03 2013  02 27  -21.0617 26019.5 -03421.3 -07.4907 26243.5
 20 03 2013  02 28  -21.0617 26019.6 -03421.3 -07.4908 26243.5
 20 03 2013  02 29  -21.0620 26019.5 -03421.3 -07.4908 26243.5
 20 03 2013  02 30  -21.0622 26019.3 -03421.2 -07.4906 26243.3
 20 03 2013  02 31  -21.0626 26019.1 -03421.1 -07.4904 26243.0
 20 03 2013  02 32  -21.0627 26018.8 -03420.9 -07.4902 26242.7
 20 03 2013  02 33  -21.0627 26018.6 -03420.8 -07.4900 26242.5
 20 03 2013  02 34  -21.0625 26018.5 -03420.7 -07.4898 26242.4
 20 03 2013  02 35  -21.0627 26018.5 -03420.7 -07.4898 26242.4
 20 03 2013  02 36  -21.0627 26018.5 -03420.7 -07.4899 26242.4
 20 03 2013  02 37  -21.0628 26018.5 -03420.7 -07.4899 26242.4
 20 03 2013  02 38  -21.0627 26018.6 -03420.8 -07.4901 26242.5
 20 03 2013  02 39  -21.0625 26018.7 -03420.9 -07.4901 26242.7
 20 03 2013  02 40  -21.0622 26018.7 -03420.9 -07.4902 26242.6
 20 03 2013  02 41  -21.0620 26018.7 -03420.9 -07.4902 26242.6
 20 03 2013  02 42  -21.0619 26018.8 -03421.0 -07.4904 26242.8
 20 03 2013  02 43  -21.0618 26019.0 -03421.1 -07.4906 26243.0
 20 03 2013  02 44  -21.0619 26019.1 -03421.2 -07.4908 26243.1
 20 03 2013  02 45  -21.0620 26019.2 -03421.3 -07.4910 26243.2
 20 03 2013  02 46  -21.0622 26019.3 -03421.4 -07.4911 26243.3
 20 03 2013  02 47  -21.0622 26019.5 -03421.5 -07.4912 26243.5
 20 03 2013  02 48  -21.0621 26020.2 -03421.8 -07.4917 26244.2
 20 03 2013  02 49  -21.0622 26020.1 -03421.7 -07.4916 26244.1
 20 03 2013  02 50  -21.0623 26020.1 -03421.7 -07.4915 26244.1
 20 03 2013  02 51  -21.0624 26019.8 -03421.5 -07.4911 26243.8
 20 03 2013  02 52  -21.0627 26019.6 -03421.4 -07.4909 26243.6
 20 03 2013  02 53  -21.0628 26019.3 -03421.2 -07.4907 26243.3
 20 03 2013  02 54  -21.0628 26019.2 -03421.1 -07.4905 26243.1
 20 03 2013  02 55  -21.0626 26019.0 -03421.0 -07.4903 26243.0
 20 03 2013  02 56  -21.0623 26019.1 -03421.0 -07.4903 26243.0
 20 03 2013  02 57  -21.0621 26019.1 -03421.0 -07.4903 26243.0
 20 03 2013  02 58  -21.0619 26019.0 -03421.0 -07.4902 26243.0
 20 03 2013  02 59  -21.0617 26019.0 -03420.9 -07.4902 26242.9
 20 03 2013  03 00  -21.0616 26018.9 -03420.9 -07.4901 26242.8
 20 03 2013  03 01  -21.0614 26019.3 -03421.1 -07.4904 26243.3
 20 03 2013  03 02  -21.0614 26019.2 -03421.1 -07.4906 26243.2
 20 03 2013  03 03  -21.0611 26019.7 -03421.3 -07.4909 26243.7
 20 03 2013  03 04  -21.0614 26019.6 -03421.4 -07.4909 26243.6
 20 03 2013  03 05  -21.0615 26019.6 -03421.3 -07.4908 26243.6
 20 03 2013  03 06  -21.0615 26019.7 -03421.3 -07.4908 26243.6
 20 03 2013  03 07  -21.0617 26019.8 -03421.4 -07.4909 26243.8
 20 03 2013  03 08  -21.0619 26020.2 -03421.5 -07.4911 26244.2
 20 03 2013  03 09  -21.0624 26020.6 -03421.8 -07.4915 26244.6
 20 03 2013  03 10  -21.0629 26020.6 -03421.8 -07.4915 26244.6
 20 03 2013  03 11  -21.0633 26020.6 -03421.7 -07.4914 26244.6
 20 03 2013  03 12  -21.0637 26020.7 -03421.7 -07.4913 26244.7
 20 03 2013  03 13  -21.0640 26020.7 -03421.6 -07.4911 26244.6
 20 03 2013  03 14  -21.0643 26020.9 -03421.6 -07.4911 26244.9
 20 03 2013  03 15  -21.0644 26021.4 -03421.8 -07.4914 26245.4
 20 03 2013  03 16  -21.0646 26021.6 -03421.8 -07.4914 26245.6
 20 03 2013  03 17  -21.0646 26021.8 -03421.9 -07.4914 26245.8
 20 03 2013  03 18  -21.0645 26021.8 -03421.8 -07.4912 26245.8
 20 03 2013  03 19  -21.0645 26021.9 -03421.8 -07.4911 26245.9
 20 03 2013  03 20  -21.0644 26022.0 -03421.8 -07.4912 26246.0
 20 03 2013  03 21  -21.0640 26022.0 -03421.7 -07.4910 26245.9
 20 03 2013  03 22  -21.0638 26022.0 -03421.7 -07.4909 26246.0
 20 03 2013  03 23  -21.0636 26022.4 -03421.9 -07.4912 26246.4
 20 03 2013  03 24  -21.0636 26022.4 -03421.8 -07.4912 26246.4
 20 03 2013  03 25  -21.0634 26022.7 -03421.9 -07.4913 26246.7
 20 03 2013  03 26  -21.0633 26022.6 -03421.9 -07.4912 26246.6
 20 03 2013  03 27  -21.0634 26023.0 -03422.1 -07.4916 26247.0
 20 03 2013  03 28  -21.0634 26023.3 -03422.2 -07.4917 26247.4
 20 03 2013  03 29  -21.0638 26023.2 -03422.1 -07.4915 26247.2
 20 03 2013  03 30  -21.0641 26023.2 -03422.1 -07.4915 26247.3
 20 03 2013  03 31  -21.0641 26023.3 -03422.0 -07.4913 26247.3
 20 03 2013  03 32  -21.0644 26023.7 -03422.2 -07.4915 26247.8
 20 03 2013  03 33  -21.0645 26023.7 -03422.1 -07.4914 26247.8
 20 03 2013  03 34  -21.0646 26023.6 -03422.0 -07.4912 26247.6
 20 03 2013  03 35  -21.0647 26023.6 -03421.9 -07.4910 26247.7
 20 03 2013  03 36  -21.0649 26023.3 -03421.7 -07.4906 26247.2
 20 03 2013  03 37  -21.0649 26023.2 -03421.5 -07.4903 26247.1
 20 03 2013  03 38  -21.0648 26023.1 -03421.4 -07.4900 26247.0
 20 03 2013  03 39  -21.0647 26023.0 -03421.3 -07.4899 26247.0
 20 03 2013  03 40  -21.0645 26023.0 -03421.2 -07.4897 26246.9
 20 03 2013  03 41  -21.0642 26022.8 -03421.1 -07.4894 26246.7
 20 03 2013  03 42  -21.0636 26022.8 -03421.0 -07.4893 26246.7
 20 03 2013  03 43  -21.0631 26022.7 -03420.9 -07.4890 26246.5
 20 03 2013  03 44  -21.0625 26022.6 -03420.8 -07.4889 26246.5
 20 03 2013  03 45  -21.0622 26022.6 -03420.8 -07.4888 26246.4
 20 03 2013  03 46  -21.0616 26022.5 -03420.7 -07.4887 26246.4
 20 03 2013  03 47  -21.0610 26022.5 -03420.7 -07.4886 26246.4
 20 03 2013  03 48  -21.0609 26022.5 -03420.7 -07.4886 26246.4
 20 03 2013  03 49  -21.0607 26022.6 -03420.8 -07.4888 26246.5
 20 03 2013  03 50  -21.0608 26022.5 -03420.7 -07.4887 26246.4
 20 03 2013  03 51  -21.0609 26022.6 -03420.8 -07.4888 26246.4
 20 03 2013  03 52  -21.0610 26022.5 -03420.7 -07.4887 26246.4
 20 03 2013  03 53  -21.0611 26022.3 -03420.6 -07.4885 26246.1
 20 03 2013  03 54  -21.0612 26022.2 -03420.5 -07.4883 26246.0
 20 03 2013  03 55  -21.0616 26022.1 -03420.5 -07.4883 26245.9
 20 03 2013  03 56  -21.0623 26022.1 -03420.5 -07.4884 26246.0
 20 03 2013  03 57  -21.0634 26022.3 -03420.6 -07.4885 26246.1
 20 03 2013  03 58  -21.0640 26022.1 -03420.5 -07.4884 26246.0
 20 03 2013  03 59  -21.0643 26022.0 -03420.3 -07.4880 26245.8
 20 03 2013  04 00  -21.0646 26021.9 -03420.2 -07.4877 26245.7
 20 03 2013  04 01  -21.0649 26021.7 -03420.0 -07.4875 26245.4
 20 03 2013  04 02  -21.0652 26021.4 -03419.9 -07.4872 26245.2
 20 03 2013  04 03  -21.0651 26021.1 -03419.6 -07.4868 26244.8
 20 03 2013  04 04  -21.0651 26020.7 -03419.5 -07.4865 26244.5
 20 03 2013  04 05  -21.0650 26020.4 -03419.2 -07.4861 26244.1
 20 03 2013  04 06  -21.0647 26020.1 -03419.1 -07.4859 26243.8
 20 03 2013  04 07  -21.0642 26019.8 -03418.9 -07.4856 26243.4
 20 03 2013  04 08  -21.0641 26019.7 -03418.9 -07.4855 26243.3
 20 03 2013  04 09  -21.0640 26019.6 -03418.9 -07.4856 26243.2
 20 03 2013  04 10  -21.0640 26019.4 -03418.9 -07.4856 26243.0
 20 03 2013  04 11  -21.0638 26019.2 -03418.8 -07.4855 26242.8
 20 03 2013  04 12  -21.0634 26018.9 -03418.7 -07.4853 26242.5
 20 03 2013  04 13  -21.0626 26018.6 -03418.6 -07.4851 26242.2
 20 03 2013  04 14  -21.0619 26018.4 -03418.5 -07.4851 26242.0
 20 03 2013  04 15  -21.0613 26018.3 -03418.5 -07.4851 26242.0
 20 03 2013  04 16  -21.0614 26018.4 -03418.7 -07.4855 26242.1
 20 03 2013  04 17  -21.0618 26018.3 -03418.8 -07.4857 26242.0
 20 03 2013  04 18  -21.0616 26018.6 -03419.0 -07.4860 26242.3
 20 03 2013  04 19  -21.0612 26019.2 -03419.3 -07.4865 26242.9
 20 03 2013  04 20  -21.0614 26019.9 -03419.7 -07.4873 26243.7
 20 03 2013  04 21  -21.0620 26020.5 -03420.1 -07.4880 26244.3
 20 03 2013  04 22  -21.0621 26020.8 -03420.3 -07.4883 26244.7
 20 03 2013  04 23  -21.0618 26020.9 -03420.3 -07.4883 26244.8
 20 03 2013  04 24  -21.0615 26020.8 -03420.2 -07.4880 26244.6
 20 03 2013  04 25  -21.0614 26020.6 -03420.0 -07.4877 26244.4
 20 03 2013  04 26  -21.0615 26020.3 -03419.9 -07.4875 26244.1
 20 03 2013  04 27  -21.0615 26020.2 -03419.8 -07.4874 26244.0
 20 03 2013  04 28  -21.0611 26020.2 -03419.8 -07.4874 26244.0
 20 03 2013  04 29  -21.0604 26020.3 -03419.8 -07.4873 26244.0
 20 03 2013  04 30  -21.0597 26020.4 -03419.8 -07.4874 26244.1
 20 03 2013  04 31  -21.0593 26020.7 -03420.0 -07.4877 26244.5
 20 03 2013  04 32  -21.0591 26020.6 -03420.0 -07.4878 26244.4
 20 03 2013  04 33  -21.0587 26020.2 -03419.9 -07.4876 26244.0
 20 03 2013  04 34  -21.0586 26020.0 -03419.8 -07.4875 26243.8
 20 03 2013  04 35  -21.0588 26020.0 -03419.8 -07.4875 26243.8
 20 03 2013  04 36  -21.0591 26020.2 -03420.0 -07.4878 26244.0
 20 03 2013  04 37  -21.0595 26020.5 -03420.2 -07.4882 26244.3
 20 03 2013  04 38  -21.0597 26020.8 -03420.4 -07.4886 26244.7
 20 03 2013  04 39  -21.0598 26021.1 -03420.6 -07.4888 26245.0
 20 03 2013  04 40  -21.0598 26021.3 -03420.7 -07.4890 26245.2
 20 03 2013  04 41  -21.0597 26021.3 -03420.6 -07.4889 26245.1
 20 03 2013  04 42  -21.0598 26021.1 -03420.5 -07.4887 26244.9
 20 03 2013  04 43  -21.0598 26020.9 -03420.4 -07.4884 26244.7
 20 03 2013  04 44  -21.0597 26020.8 -03420.3 -07.4883 26244.6
 20 03 2013  04 45  -21.0593 26020.7 -03420.3 -07.4882 26244.6
 20 03 2013  04 46  -21.0586 26020.5 -03420.1 -07.4880 26244.3
 20 03 2013  04 47  -21.0578 26020.2 -03420.0 -07.4877 26244.0
 20 03 2013  04 48  -21.0571 26020.0 -03419.8 -07.4875 26243.7
 20 03 2013  04 49  -21.0567 26019.7 -03419.8 -07.4875 26243.5
 20 03 2013  04 50  -21.0563 26019.5 -03419.7 -07.4874 26243.3
 20 03 2013  04 51  -21.0559 26019.4 -03419.7 -07.4874 26243.1
 20 03 2013  04 52  -21.0558 26019.3 -03419.7 -07.4875 26243.0
 20 03 2013  04 53  -21.0558 26019.3 -03419.8 -07.4877 26243.1
 20 03 2013  04 54  -21.0557 26019.4 -03420.0 -07.4879 26243.2
 20 03 2013  04 55  -21.0554 26019.5 -03420.0 -07.4881 26243.3
 20 03 2013  04 56  -21.0553 26019.6 -03420.1 -07.4882 26243.4
 20 03 2013  04 57  -21.0556 26019.6 -03420.2 -07.4884 26243.4
 20 03 2013  04 58  -21.0559 26019.7 -03420.3 -07.4886 26243.5
 20 03 2013  04 59  -21.0559 26019.6 -03420.3 -07.4886 26243.4
 20 03 2013  05 00  -21.0559 26019.5 -03420.2 -07.4885 26243.3
 20 03 2013  05 01  -21.0558 26019.4 -03420.2 -07.4884 26243.2
 20 03 2013  05 02  -21.0557 26019.2 -03420.1 -07.4884 26243.0
 20 03 2013  05 03  -21.0556 26019.1 -03420.0 -07.4882 26242.9
 20 03 2013  05 04  -21.0553 26019.1 -03420.0 -07.4882 26242.9
 20 03 2013  05 05  -21.0548 26019.1 -03420.1 -07.4883 26242.9
 20 03 2013  05 06  -21.0545 26019.1 -03420.1 -07.4884 26242.9
 20 03 2013  05 07  -21.0544 26019.1 -03420.2 -07.4885 26242.9
 20 03 2013  05 08  -21.0545 26019.1 -03420.2 -07.4885 26242.9
 20 03 2013  05 09  -21.0546 26019.0 -03420.2 -07.4886 26242.8
 20 03 2013  05 10  -21.0547 26018.9 -03420.2 -07.4886 26242.7
 20 03 2013  05 11  -21.0547 26018.7 -03420.1 -07.4885 26242.5
 20 03 2013  05 12  -21.0549 26018.6 -03420.1 -07.4885 26242.5
 20 03 2013  05 13  -21.0553 26018.7 -03420.2 -07.4886 26242.5
 20 03 2013  05 14  -21.0558 26018.7 -03420.3 -07.4888 26242.6
 20 03 2013  05 15  -21.0563 26018.8 -03420.4 -07.4890 26242.7
 20 03 2013  05 16  -21.0568 26018.9 -03420.4 -07.4891 26242.8
 20 03 2013  05 17  -21.0572 26019.0 -03420.4 -07.4891 26242.9
 20 03 2013  05 18  -21.0579 26019.3 -03420.6 -07.4893 26243.1
 20 03 2013  05 19  -21.0586 26019.5 -03420.7 -07.4895 26243.4
 20 03 2013  05 20  -21.0590 26019.7 -03420.7 -07.4895 26243.6
 20 03 2013  05 21  -21.0592 26019.6 -03420.7 -07.4895 26243.5
 20 03 2013  05 22  -21.0592 26019.4 -03420.5 -07.4892 26243.3
 20 03 2013  05 23  -21.0595 26019.2 -03420.4 -07.4889 26243.1
 20 03 2013  05 24  -21.0600 26019.1 -03420.3 -07.4887 26243.0
 20 03 2013  05 25  -21.0608 26019.3 -03420.4 -07.4889 26243.2
 20 03 2013  05 26  -21.0613 26019.6 -03420.5 -07.4890 26243.5
 20 03 2013  05 27  -21.0614 26019.6 -03420.4 -07.4889 26243.4
 20 03 2013  05 28  -21.0615 26019.6 -03420.4 -07.4888 26243.5
 20 03 2013  05 29  -21.0619 26019.7 -03420.4 -07.4889 26243.6
 20 03 2013  05 30  -21.0621 26019.9 -03420.4 -07.4888 26243.7
 20 03 2013  05 31  -21.0623 26019.7 -03420.3 -07.4886 26243.6
 20 03 2013  05 32  -21.0623 26019.7 -03420.2 -07.4884 26243.5
 20 03 2013  05 33  -21.0624 26019.7 -03420.2 -07.4884 26243.6
 20 03 2013  05 34  -21.0624 26020.0 -03420.3 -07.4885 26243.9
 20 03 2013  05 35  -21.0623 26020.4 -03420.5 -07.4888 26244.3
 20 03 2013  05 36  -21.0621 26020.7 -03420.6 -07.4891 26244.6
 20 03 2013  05 37  -21.0618 26021.0 -03420.7 -07.4891 26244.9
 20 03 2013  05 38  -21.0615 26021.2 -03420.8 -07.4893 26245.1
 20 03 2013  05 39  -21.0611 26021.5 -03420.9 -07.4893 26245.4
 20 03 2013  05 40  -21.0608 26021.7 -03421.0 -07.4895 26245.6
 20 03 2013  05 41  -21.0606 26021.9 -03421.0 -07.4896 26245.8
 20 03 2013  05 42  -21.0601 26022.0 -03421.1 -07.4896 26246.0
 20 03 2013  05 43  -21.0596 26022.1 -03421.0 -07.4895 26246.0
 20 03 2013  05 44  -21.0601 26022.1 -03421.1 -07.4896 26246.0
 20 03 2013  05 45  -21.0606 26022.1 -03421.1 -07.4896 26246.0
 20 03 2013  05 46  -21.0605 26022.1 -03421.0 -07.4895 26246.0
 20 03 2013  05 47  -21.0606 26022.1 -03421.0 -07.4894 26246.0
 20 03 2013  05 48  -21.0608 26022.4 -03421.1 -07.4895 26246.3
 20 03 2013  05 49  -21.0609 26022.5 -03421.2 -07.4897 26246.5
 20 03 2013  05 50  -21.0609 26022.8 -03421.3 -07.4898 26246.7
 20 03 2013  05 51  -21.0609 26023.0 -03421.3 -07.4899 26246.9
 20 03 2013  05 52  -21.0611 26022.9 -03421.3 -07.4899 26246.9
 20 03 2013  05 53  -21.0613 26023.2 -03421.4 -07.4900 26247.2
 20 03 2013  05 54  -21.0611 26023.3 -03421.4 -07.4900 26247.3
 20 03 2013  05 55  -21.0607 26023.2 -03421.3 -07.4898 26247.1
 20 03 2013  05 56  -21.0603 26023.2 -03421.3 -07.4897 26247.2
 20 03 2013  05 57  -21.0598 26023.3 -03421.3 -07.4897 26247.2
 20 03 2013  05 58  -21.0593 26023.3 -03421.3 -07.4897 26247.2
 20 03 2013  05 59  -21.0590 26023.2 -03421.3 -07.4897 26247.1
 20 03 2013  06 00  -21.0586 26023.2 -03421.2 -07.4896 26247.2
 20 03 2013  06 01  -21.0583 26023.3 -03421.3 -07.4897 26247.3
 20 03 2013  06 02  -21.0580 26023.4 -03421.4 -07.4898 26247.3
 20 03 2013  06 03  -21.0577 26023.5 -03421.4 -07.4899 26247.4
 20 03 2013  06 04  -21.0578 26023.5 -03421.5 -07.4901 26247.5
 20 03 2013  06 05  -21.0579 26023.9 -03421.7 -07.4904 26247.8
 20 03 2013  06 06  -21.0582 26024.2 -03421.8 -07.4907 26248.2
 20 03 2013  06 07  -21.0583 26024.5 -03422.0 -07.4908 26248.5
 20 03 2013  06 08  -21.0583 26024.9 -03422.2 -07.4911 26248.9
 20 03 2013  06 09  -21.0583 26025.1 -03422.3 -07.4913 26249.2
 20 03 2013  06 10  -21.0579 26025.3 -03422.3 -07.4913 26249.4
 20 03 2013  06 11  -21.0574 26025.6 -03422.4 -07.4914 26249.7
 20 03 2013  06 12  -21.0574 26026.0 -03422.5 -07.4916 26250.1
 20 03 2013  06 13  -21.0570 26026.3 -03422.7 -07.4918 26250.4
 20 03 2013  06 14  -21.0564 26026.5 -03422.7 -07.4918 26250.6
 20 03 2013  06 15  -21.0560 26027.0 -03422.8 -07.4920 26251.1
 20 03 2013  06 16  -21.0556 26027.4 -03423.1 -07.4924 26251.5
 20 03 2013  06 17  -21.0552 26027.7 -03423.2 -07.4926 26251.9
 20 03 2013  06 18  -21.0550 26027.8 -03423.2 -07.4926 26251.9
 20 03 2013  06 19  -21.0546 26028.1 -03423.3 -07.4927 26252.3
 20 03 2013  06 20  -21.0544 26028.2 -03423.3 -07.4928 26252.3
 20 03 2013  06 21  -21.0541 26028.1 -03423.2 -07.4926 26252.2
 20 03 2013  06 22  -21.0540 26028.2 -03423.3 -07.4926 26252.4
 20 03 2013  06 23  -21.0542 26028.3 -03423.4 -07.4928 26252.5
 20 03 2013  06 24  -21.0543 26028.2 -03423.3 -07.4927 26252.4
 20 03 2013  06 25  -21.0543 26028.2 -03423.3 -07.4926 26252.4
 20 03 2013  06 26  -21.0544 26028.3 -03423.2 -07.4925 26252.4
 20 03 2013  06 27  -21.0547 26028.2 -03423.2 -07.4926 26252.4
 20 03 2013  06 28  -21.0551 26028.2 -03423.2 -07.4925 26252.4
 20 03 2013  06 29  -21.0554 26028.1 -03423.1 -07.4923 26252.3
 20 03 2013  06 30  -21.0557 26028.1 -03423.1 -07.4923 26252.3
 20 03 2013  06 31  -21.0561 26028.2 -03423.1 -07.4923 26252.3
 20 03 2013  06 32  -21.0567 26028.3 -03423.1 -07.4923 26252.5
 20 03 2013  06 33  -21.0572 26028.2 -03423.1 -07.4922 26252.3
 20 03 2013  06 34  -21.0574 26028.1 -03423.0 -07.4920 26252.2
 20 03 2013  06 35  -21.0576 26028.1 -03422.9 -07.4919 26252.2
 20 03 2013  06 36  -21.0576 26028.0 -03422.8 -07.4916 26252.0
 20 03 2013  06 37  -21.0574 26027.8 -03422.6 -07.4914 26251.9
 20 03 2013  06 38  -21.0571 26027.6 -03422.5 -07.4912 26251.6
 20 03 2013  06 39  -21.0569 26027.3 -03422.4 -07.4909 26251.4
 20 03 2013  06 40  -21.0568 26027.2 -03422.3 -07.4908 26251.3
 20 03 2013  06 41  -21.0567 26027.1 -03422.3 -07.4907 26251.2
 20 03 2013  06 42  -21.0565 26027.0 -03422.2 -07.4907 26251.1
 20 03 2013  06 43  -21.0565 26027.1 -03422.2 -07.4907 26251.1
 20 03 2013  06 44  -21.0565 26027.1 -03422.3 -07.4909 26251.2
 20 03 2013  06 45  -21.0565 26027.2 -03422.4 -07.4910 26251.3
 20 03 2013  06 46  -21.0565 26027.3 -03422.5 -07.4912 26251.4
 20 03 2013  06 47  -21.0565 26027.5 -03422.5 -07.4912 26251.5
 20 03 2013  06 48  -21.0565 26027.4 -03422.6 -07.4913 26251.5
 20 03 2013  06 49  -21.0564 26027.3 -03422.5 -07.4911 26251.3
 20 03 2013  06 50  -21.0562 26027.2 -03422.4 -07.4911 26251.2
 20 03 2013  06 51  -21.0560 26027.1 -03422.4 -07.4910 26251.1
 20 03 2013  06 52  -21.0559 26027.1 -03422.4 -07.4910 26251.2
 20 03 2013  06 53  -21.0561 26027.1 -03422.4 -07.4911 26251.2
 20 03 2013  06 54  -21.0563 26027.1 -03422.4 -07.4911 26251.1
 20 03 2013  06 55  -21.0563 26027.0 -03422.4 -07.4912 26251.1
 20 03 2013  06 56  -21.0564 26027.0 -03422.4 -07.4912 26251.0
 20 03 2013  06 57  -21.0565 26027.0 -03422.4 -07.4912 26251.0
 20 03 2013  06 58  -21.0567 26026.9 -03422.4 -07.4912 26250.9
 20 03 2013  06 59  -21.0567 26026.9 -03422.4 -07.4912 26250.9
 20 03 2013  07 00  -21.0566 26027.1 -03422.5 -07.4913 26251.2
 20 03 2013  07 01  -21.0564 26027.4 -03422.7 -07.4915 26251.5
 20 03 2013  07 02  -21.0560 26027.6 -03422.8 -07.4917 26251.7
 20 03 2013  07 03  -21.0556 26027.8 -03422.8 -07.4918 26251.9
 20 03 2013  07 04  -21.0550 26027.9 -03422.8 -07.4918 26252.0
 20 03 2013  07 05  -21.0548 26027.8 -03422.9 -07.4918 26251.9
 20 03 2013  07 06  -21.0547 26027.9 -03422.9 -07.4919 26252.0
 20 03 2013  07 07  -21.0547 26027.9 -03423.0 -07.4920 26252.0
 20 03 2013  07 08  -21.0550 26028.1 -03423.1 -07.4922 26252.2
 20 03 2013  07 09  -21.0551 26028.2 -03423.1 -07.4923 26252.3
 20 03 2013  07 10  -21.0553 26028.0 -03423.0 -07.4922 26252.1
 20 03 2013  07 11  -21.0556 26027.8 -03422.9 -07.4920 26251.9
 20 03 2013  07 12  -21.0558 26027.7 -03422.9 -07.4920 26251.9
 20 03 2013  07 13  -21.0559 26027.6 -03422.8 -07.4918 26251.7
 20 03 2013  07 14  -21.0558 26027.8 -03422.8 -07.4918 26251.9
 20 03 2013  07 15  -21.0562 26027.9 -03422.9 -07.4919 26252.0
 20 03 2013  07 16  -21.0564 26027.8 -03422.9 -07.4919 26251.9
 20 03 2013  07 17  -21.0565 26027.7 -03422.8 -07.4917 26251.8
 20 03 2013  07 18  -21.0565 26027.8 -03422.7 -07.4916 26251.8
 20 03 2013  07 19  -21.0564 26027.7 -03422.7 -07.4915 26251.8
 20 03 2013  07 20  -21.0562 26027.5 -03422.6 -07.4913 26251.6
 20 03 2013  07 21  -21.0558 26027.2 -03422.4 -07.4910 26251.2
 20 03 2013  07 22  -21.0553 26026.9 -03422.2 -07.4907 26250.9
 20 03 2013  07 23  -21.0548 26026.9 -03422.2 -07.4906 26251.0
 20 03 2013  07 24  -21.0542 26027.1 -03422.3 -07.4908 26251.1
 20 03 2013  07 25  -21.0538 26027.0 -03422.3 -07.4909 26251.0
 20 03 2013  07 26  -21.0534 26026.9 -03422.3 -07.4909 26250.9
 20 03 2013  07 27  -21.0529 26026.9 -03422.3 -07.4910 26250.9
 20 03 2013  07 28  -21.0528 26027.0 -03422.4 -07.4911 26251.1
 20 03 2013  07 29  -21.0529 26027.2 -03422.5 -07.4913 26251.3
 20 03 2013  07 30  -21.0532 26027.3 -03422.7 -07.4916 26251.4
 20 03 2013  07 31  -21.0534 26027.5 -03422.8 -07.4917 26251.6
 20 03 2013  07 32  -21.0536 26027.6 -03422.8 -07.4919 26251.7
 20 03 2013  07 33  -21.0537 26027.6 -03422.9 -07.4919 26251.7
 20 03 2013  07 34  -21.0538 26027.6 -03422.9 -07.4919 26251.7
 20 03 2013  07 35  -21.0540 26027.6 -03422.9 -07.4919 26251.7
 20 03 2013  07 36  -21.0543 26027.6 -03422.9 -07.4919 26251.7
 20 03 2013  07 37  -21.0545 26027.5 -03422.8 -07.4917 26251.6
 20 03 2013  07 38  -21.0547 26027.5 -03422.7 -07.4916 26251.6
 20 03 2013  07 39  -21.0547 26027.6 -03422.8 -07.4917 26251.7
 20 03 2013  07 40  -21.0548 26027.7 -03422.8 -07.4916 26251.8
 20 03 2013  07 41  -21.0550 26027.7 -03422.8 -07.4917 26251.8
 20 03 2013  07 42  -21.0552 26027.8 -03422.8 -07.4917 26251.9
 20 03 2013  07 43  -21.0554 26027.8 -03422.8 -07.4916 26251.9
 20 03 2013  07 44  -21.0555 26027.8 -03422.8 -07.4916 26251.9
 20 03 2013  07 45  -21.0555 26027.8 -03422.7 -07.4915 26251.9
 20 03 2013  07 46  -21.0556 26027.8 -03422.7 -07.4914 26251.9
 20 03 2013  07 47  -21.0556 26027.8 -03422.6 -07.4913 26251.9
 20 03 2013  07 48  -21.0556 26027.7 -03422.6 -07.4912 26251.8
 20 03 2013  07 49  -21.0559 26027.8 -03422.6 -07.4912 26251.8
 20 03 2013  07 50  -21.0561 26027.9 -03422.6 -07.4912 26251.9
 20 03 2013  07 51  -21.0561 26027.9 -03422.5 -07.4910 26251.9
 20 03 2013  07 52  -21.0561 26027.7 -03422.4 -07.4909 26251.7
 20 03 2013  07 53  -21.0560 26027.6 -03422.3 -07.4908 26251.6
 20 03 2013  07 54  -21.0558 26027.4 -03422.3 -07.4906 26251.5
 20 03 2013  07 55  -21.0557 26027.3 -03422.1 -07.4904 26251.3
 20 03 2013  07 56  -21.0556 26027.2 -03422.1 -07.4904 26251.2
 20 03 2013  07 57  -21.0554 26027.1 -03422.1 -07.4904 26251.1
 20 03 2013  07 58  -21.0552 26027.0 -03422.0 -07.4903 26251.0
 20 03 2013  07 59  -21.0550 26026.9 -03422.0 -07.4902 26250.9
 20 03 2013  08 00  -21.0547 26026.8 -03421.9 -07.4901 26250.8
 20 03 2013  08 01  -21.0544 26026.7 -03421.9 -07.4900 26250.6
 20 03 2013  08 02  -21.0542 26026.4 -03421.8 -07.4899 26250.4
 20 03 2013  08 03  -21.0538 26026.3 -03421.7 -07.4898 26250.3
 20 03 2013  08 04  -21.0537 26026.3 -03421.8 -07.4899 26250.2
 20 03 2013  08 05  -21.0535 26026.2 -03421.8 -07.4899 26250.1
 20 03 2013  08 06  -21.0533 26026.1 -03421.8 -07.4900 26250.0
 20 03 2013  08 07  -21.0530 26026.0 -03421.8 -07.4900 26250.0
 20 03 2013  08 08  -21.0526 26025.9 -03421.8 -07.4900 26249.9
 20 03 2013  08 09  -21.0522 26025.8 -03421.8 -07.4900 26249.8
 20 03 2013  08 10  -21.0520 26025.8 -03421.8 -07.4901 26249.8
 20 03 2013  08 11  -21.0519 26025.7 -03421.8 -07.4902 26249.7
 20 03 2013  08 12  -21.0518 26025.8 -03421.9 -07.4903 26249.8
 20 03 2013  08 13  -21.0517 26025.7 -03422.0 -07.4905 26249.7
 20 03 2013  08 14  -21.0515 26025.7 -03422.0 -07.4905 26249.7
 20 03 2013  08 15  -21.0515 26025.8 -03422.1 -07.4907 26249.9
 20 03 2013  08 16  -21.0515 26025.9 -03422.2 -07.4910 26249.9
 20 03 2013  08 17  -21.0515 26025.9 -03422.2 -07.4910 26249.9
 20 03 2013  08 18  -21.0515 26025.8 -03422.2 -07.4910 26249.8
 20 03 2013  08 19  -21.0516 26025.8 -03422.2 -07.4910 26249.8
 20 03 2013  08 20  -21.0518 26025.7 -03422.2 -07.4911 26249.8
 20 03 2013  08 21  -21.0518 26025.6 -03422.2 -07.4911 26249.7
 20 03 2013  08 22  -21.0518 26025.5 -03422.2 -07.4910 26249.6
 20 03 2013  08 23  -21.0518 26025.6 -03422.2 -07.4910 26249.6
 20 03 2013  08 24  -21.0519 26025.6 -03422.3 -07.4912 26249.7
 20 03 2013  08 25  -21.0521 26025.7 -03422.4 -07.4914 26249.8
 20 03 2013  08 26  -21.0522 26025.6 -03422.3 -07.4913 26249.7
 20 03 2013  08 27  -21.0523 26025.4 -03422.2 -07.4911 26249.4
 20 03 2013  08 28  -21.0521 26025.2 -03422.1 -07.4909 26249.2
 20 03 2013  08 29  -21.0519 26025.1 -03422.0 -07.4908 26249.1
 20 03 2013  08 30  -21.0521 26025.1 -03422.1 -07.4910 26249.1
 20 03 2013  08 31  -21.0522 26024.9 -03422.1 -07.4909 26249.0
 20 03 2013  08 32  -21.0520 26024.9 -03422.1 -07.4910 26248.9
 20 03 2013  08 33  -21.0518 26024.9 -03422.1 -07.4910 26248.9
 20 03 2013  08 34  -21.0518 26024.7 -03422.0 -07.4909 26248.7
 20 03 2013  08 35  -21.0517 26024.6 -03422.0 -07.4909 26248.6
 20 03 2013  08 36  -21.0516 26024.5 -03422.0 -07.4910 26248.5
 20 03 2013  08 37  -21.0518 26024.4 -03422.0 -07.4910 26248.5
 20 03 2013  08 38  -21.0518 26024.3 -03422.0 -07.4910 26248.3
 20 03 2013  08 39  -21.0517 26024.1 -03421.9 -07.4909 26248.1
 20 03 2013  08 40  -21.0518 26024.0 -03422.0 -07.4910 26248.0
 20 03 2013  08 41  -21.0518 26023.9 -03422.0 -07.4910 26247.9
 20 03 2013  08 42  -21.0520 26023.9 -03422.0 -07.4912 26247.9
 20 03 2013  08 43  -21.0519 26023.8 -03422.0 -07.4912 26247.8
 20 03 2013  08 44  -21.0517 26023.7 -03422.1 -07.4912 26247.8
 20 03 2013  08 45  -21.0514 26023.7 -03422.1 -07.4913 26247.8
 20 03 2013  08 46  -21.0513 26023.8 -03422.1 -07.4914 26247.9
 20 03 2013  08 47  -21.0512 26023.9 -03422.2 -07.4916 26247.9
 20 03 2013  08 48  -21.0508 26023.8 -03422.2 -07.4916 26247.8
 20 03 2013  08 49  -21.0501 26023.7 -03422.1 -07.4915 26247.8
 20 03 2013  08 50  -21.0494 26023.6 -03422.1 -07.4914 26247.6
 20 03 2013  08 51  -21.0489 26023.3 -03422.0 -07.4913 26247.3
 20 03 2013  08 52  -21.0483 26023.1 -03421.9 -07.4912 26247.1
 20 03 2013  08 53  -21.0480 26022.9 -03421.8 -07.4910 26246.9
 20 03 2013  08 54  -21.0477 26022.7 -03421.9 -07.4913 26246.7
 20 03 2013  08 55  -21.0471 26022.4 -03421.9 -07.4914 26246.4
 20 03 2013  08 56  -21.0468 26022.2 -03422.0 -07.4915 26246.2
 20 03 2013  08 57  -21.0467 26022.0 -03422.1 -07.4918 26246.1
 20 03 2013  08 58  -21.0467 26021.9 -03422.2 -07.4920 26246.0
 20 03 2013  08 59  -21.0468 26021.8 -03422.3 -07.4922 26245.9
 20 03 2013  09 00  -21.0467 26021.6 -03422.3 -07.4923 26245.7
 20 03 2013  09 01  -21.0466 26021.5 -03422.3 -07.4925 26245.6
 20 03 2013  09 02  -21.0468 26021.5 -03422.5 -07.4928 26245.6
 20 03 2013  09 03  -21.0469 26021.5 -03422.6 -07.4932 26245.6
 20 03 2013  09 04  -21.0470 26021.4 -03422.7 -07.4934 26245.6
 20 03 2013  09 05  -21.0468 26021.4 -03422.8 -07.4936 26245.5
 20 03 2013  09 06  -21.0469 26021.4 -03422.9 -07.4938 26245.6
 20 03 2013  09 07  -21.0470 26021.4 -03423.0 -07.4940 26245.6
 20 03 2013  09 08  -21.0470 26021.4 -03423.1 -07.4942 26245.6
 20 03 2013  09 09  -21.0470 26021.4 -03423.2 -07.4944 26245.6
 20 03 2013  09 10  -21.0471 26021.2 -03423.3 -07.4947 26245.5
 20 03 2013  09 11  -21.0471 26021.0 -03423.4 -07.4949 26245.2
 20 03 2013  09 12  -21.0472 26020.9 -03423.4 -07.4950 26245.1
 20 03 2013  09 13  -21.0477 26020.9 -03423.5 -07.4953 26245.1
 20 03 2013  09 14  -21.0478 26020.9 -03423.6 -07.4954 26245.2
 20 03 2013  09 15  -21.0478 26020.9 -03423.6 -07.4955 26245.2
 20 03 2013  09 16  -21.0480 26020.9 -03423.6 -07.4955 26245.2
 20 03 2013  09 17  -21.0482 26020.7 -03423.6 -07.4955 26245.0
 20 03 2013  09 18  -21.0482 26020.4 -03423.5 -07.4954 26244.7
 20 03 2013  09 19  -21.0478 26020.1 -03423.4 -07.4953 26244.3
 20 03 2013  09 20  -21.0479 26019.8 -03423.4 -07.4953 26244.0
 20 03 2013  09 21  -21.0485 26019.6 -03423.4 -07.4953 26243.8
 20 03 2013  09 22  -21.0486 26019.3 -03423.3 -07.4953 26243.5
 20 03 2013  09 23  -21.0488 26019.1 -03423.3 -07.4952 26243.3
 20 03 2013  09 24  -21.0493 26019.0 -03423.3 -07.4953 26243.3
 20 03 2013  09 25  -21.0498 26019.0 -03423.4 -07.4955 26243.2
 20 03 2013  09 26  -21.0500 26018.8 -03423.4 -07.4955 26243.0
 20 03 2013  09 27  -21.0503 26018.9 -03423.4 -07.4956 26243.1
 20 03 2013  09 28  -21.0507 26018.9 -03423.5 -07.4957 26243.1
 20 03 2013  09 29  -21.0508 26018.7 -03423.4 -07.4957 26243.0
 20 03 2013  09 30  -21.0510 26018.5 -03423.4 -07.4956 26242.7
 20 03 2013  09 31  -21.0516 26018.3 -03423.4 -07.4956 26242.6
 20 03 2013  09 32  -21.0522 26018.3 -03423.4 -07.4958 26242.5
 20 03 2013  09 33  -21.0524 26018.1 -03423.4 -07.4957 26242.4
 20 03 2013  09 34  -21.0531 26018.0 -03423.4 -07.4958 26242.3
 20 03 2013  09 35  -21.0538 26018.1 -03423.4 -07.4959 26242.4
 20 03 2013  09 36  -21.0542 26018.1 -03423.5 -07.4959 26242.4
 20 03 2013  09 37  -21.0545 26018.0 -03423.4 -07.4959 26242.3
 20 03 2013  09 38  -21.0544 26017.8 -03423.3 -07.4957 26242.1
 20 03 2013  09 39  -21.0546 26018.0 -03423.4 -07.4957 26242.3
 20 03 2013  09 40  -21.0550 26018.0 -03423.4 -07.4958 26242.3
 20 03 2013  09 41  -21.0552 26017.9 -03423.3 -07.4957 26242.2
 20 03 2013  09 42  -21.0554 26017.7 -03423.2 -07.4955 26241.9
 20 03 2013  09 43  -21.0562 26017.7 -03423.3 -07.4956 26242.0
 20 03 2013  09 44  -21.0570 26017.8 -03423.3 -07.4956 26242.0
 20 03 2013  09 45  -21.0579 26018.1 -03423.4 -07.4958 26242.3
 20 03 2013  09 46  -21.0584 26018.3 -03423.4 -07.4958 26242.6
 20 03 2013  09 47  -21.0581 26018.2 -03423.3 -07.4956 26242.5
 20 03 2013  09 48  -21.0578 26018.3 -03423.3 -07.4955 26242.5
 20 03 2013  09 49  -21.0577 26018.4 -03423.3 -07.4955 26242.7
 20 03 2013  09 50  -21.0575 26018.5 -03423.3 -07.4955 26242.7
 20 03 2013  09 51  -21.0572 26018.4 -03423.3 -07.4954 26242.6
 20 03 2013  09 52  -21.0574 26018.3 -03423.2 -07.4953 26242.5
 20 03 2013  09 53  -21.0578 26018.3 -03423.3 -07.4954 26242.5
 20 03 2013  09 54  -21.0581 26018.2 -03423.3 -07.4955 26242.4
 20 03 2013  09 55  -21.0586 26018.3 -03423.3 -07.4955 26242.5
 20 03 2013  09 56  -21.0589 26018.4 -03423.4 -07.4957 26242.7
 20 03 2013  09 57  -21.0592 26018.6 -03423.4 -07.4957 26242.8
 20 03 2013  09 58  -21.0598 26018.7 -03423.5 -07.4958 26243.0
 20 03 2013  09 59  -21.0606 26018.9 -03423.5 -07.4958 26243.2
 20 03 2013  10 00  -21.0610 26019.0 -03423.5 -07.4957 26243.2
 20 03 2013  10 01  -21.0614 26018.8 -03423.3 -07.4954 26243.0
 20 03 2013  10 02  -21.0620 26018.9 -03423.3 -07.4953 26243.1
 20 03 2013  10 03  -21.0622 26019.0 -03423.2 -07.4951 26243.2
 20 03 2013  10 04  -21.0621 26019.1 -03423.2 -07.4951 26243.3
 20 03 2013  10 05  -21.0621 26019.6 -03423.4 -07.4953 26243.8
 20 03 2013  10 06  -21.0623 26020.2 -03423.6 -07.4956 26244.5
 20 03 2013  10 07  -21.0629 26020.7 -03423.8 -07.4958 26245.0
 20 03 2013  10 08  -21.0635 26021.1 -03423.8 -07.4958 26245.4
 20 03 2013  10 09  -21.0635 26021.3 -03423.8 -07.4957 26245.5
 20 03 2013  10 10  -21.0631 26021.3 -03423.7 -07.4954 26245.6
 20 03 2013  10 11  -21.0629 26021.6 -03423.7 -07.4953 26245.8
 20 03 2013  10 12  -21.0629 26022.0 -03423.7 -07.4953 26246.2
 20 03 2013  10 13  -21.0629 26022.3 -03423.7 -07.4952 26246.6
 20 03 2013  10 14  -21.0632 26022.7 -03423.8 -07.4952 26246.9
 20 03 2013  10 15  -21.0632 26022.7 -03423.7 -07.4952 26247.0
 20 03 2013  10 16  -21.0634 26022.5 -03423.6 -07.4949 26246.7
 20 03 2013  10 17  -21.0637 26022.2 -03423.5 -07.4948 26246.4
 20 03 2013  10 18  -21.0643 26022.0 -03423.5 -07.4949 26246.3
 20 03 2013  10 19  -21.0645 26021.9 -03423.5 -07.4950 26246.1
 20 03 2013  10 20  -21.0644 26022.0 -03423.6 -07.4951 26246.2
 20 03 2013  10 21  -21.0639 26022.0 -03423.7 -07.4952 26246.3
 20 03 2013  10 22  -21.0634 26022.1 -03423.7 -07.4953 26246.3
 20 03 2013  10 23  -21.0633 26022.1 -03423.7 -07.4953 26246.4
 20 03 2013  10 24  -21.0639 26022.2 -03423.7 -07.4953 26246.4
 20 03 2013  10 25  -21.0650 26022.0 -03423.6 -07.4952 26246.2
 20 03 2013  10 26  -21.0663 26022.0 -03423.7 -07.4952 26246.2
 20 03 2013  10 27  -21.0671 26022.1 -03423.7 -07.4953 26246.3
 20 03 2013  10 28  -21.0677 26022.0 -03423.6 -07.4952 26246.2
 20 03 2013  10 29  -21.0680 26022.0 -03423.6 -07.4951 26246.2
 20 03 2013  10 30  -21.0679 26022.2 -03423.7 -07.4952 26246.5
 20 03 2013  10 31  -21.0679 26022.4 -03423.7 -07.4951 26246.6
 20 03 2013  10 32  -21.0683 26022.6 -03423.7 -07.4951 26246.8
 20 03 2013  10 33  -21.0685 26022.7 -03423.7 -07.4951 26246.9
 20 03 2013  10 34  -21.0687 26022.6 -03423.7 -07.4951 26246.9
 20 03 2013  10 35  -21.0693 26022.7 -03423.7 -07.4950 26246.9
 20 03 2013  10 36  -21.0703 26022.8 -03423.7 -07.4951 26247.1
 20 03 2013  10 37  -21.0707 26022.9 -03423.7 -07.4951 26247.2
 20 03 2013  10 38  -21.0709 26022.9 -03423.7 -07.4951 26247.1
 20 03 2013  10 39  -21.0715 26023.0 -03423.8 -07.4952 26247.2
 20 03 2013  10 40  -21.0720 26023.2 -03423.9 -07.4953 26247.5
 20 03 2013  10 41  -21.0724 26023.6 -03424.0 -07.4955 26247.9
 20 03 2013  10 42  -21.0725 26023.8 -03424.0 -07.4955 26248.1
 20 03 2013  10 43  -21.0724 26023.8 -03424.0 -07.4954 26248.1
 20 03 2013  10 44  -21.0725 26023.9 -03424.0 -07.4954 26248.2
 20 03 2013  10 45  -21.0731 26024.0 -03424.0 -07.4954 26248.3
 20 03 2013  10 46  -21.0736 26024.1 -03424.0 -07.4954 26248.4
 20 03 2013  10 47  -21.0742 26024.0 -03424.0 -07.4954 26248.3
 20 03 2013  10 48  -21.0746 26024.0 -03424.0 -07.4954 26248.3
 20 03 2013  10 49  -21.0750 26024.1 -03424.1 -07.4956 26248.4
 20 03 2013  10 50  -21.0752 26024.2 -03424.1 -07.4956 26248.5
 20 03 2013  10 51  -21.0752 26024.3 -03424.1 -07.4956 26248.6
 20 03 2013  10 52  -21.0750 26024.5 -03424.2 -07.4956 26248.8
 20 03 2013  10 53  -21.0749 26024.6 -03424.1 -07.4955 26248.9
 20 03 2013  10 54  -21.0753 26024.7 -03424.2 -07.4955 26249.0
 20 03 2013  10 55  -21.0759 26024.9 -03424.2 -07.4956 26249.2
 20 03 2013  10 56  -21.0763 26025.2 -03424.3 -07.4957 26249.5
 20 03 2013  10 57  -21.0768 26025.5 -03424.4 -07.4958 26249.9
 20 03 2013  10 58  -21.0770 26025.8 -03424.4 -07.4958 26250.1
 20 03 2013  10 59  -21.0772 26025.9 -03424.4 -07.4957 26250.2
 20 03 2013  11 00  -21.0773 26026.2 -03424.4 -07.4955 26250.5
 20 03 2013  11 01  -21.0775 26026.4 -03424.3 -07.4954 26250.8
 20 03 2013  11 02  -21.0777 26026.7 -03424.2 -07.4951 26251.0
 20 03 2013  11 03  -21.0778 26026.8 -03424.2 -07.4949 26251.1
 20 03 2013  11 04  -21.0781 26027.0 -03424.1 -07.4948 26251.3
 20 03 2013  11 05  -21.0781 26027.2 -03424.1 -07.4947 26251.5
 20 03 2013  11 06  -21.0782 26027.4 -03424.1 -07.4946 26251.6
 20 03 2013  11 07  -21.0782 26027.5 -03424.0 -07.4943 26251.8
 20 03 2013  11 08  -21.0782 26027.8 -03423.9 -07.4942 26252.0
 20 03 2013  11 09  -21.0781 26028.0 -03423.8 -07.4939 26252.2
 20 03 2013  11 10  -21.0780 26027.9 -03423.7 -07.4935 26252.1
 20 03 2013  11 11  -21.0780 26027.9 -03423.5 -07.4932 26252.1
 20 03 2013  11 12  -21.0779 26028.0 -03423.5 -07.4931 26252.2
 20 03 2013  11 13  -21.0780 26028.1 -03423.4 -07.4929 26252.3
 20 03 2013  11 14  -21.0781 26028.3 -03423.3 -07.4928 26252.5
 20 03 2013  11 15  -21.0785 26028.4 -03423.3 -07.4926 26252.6
 20 03 2013  11 16  -21.0787 26028.3 -03423.2 -07.4924 26252.5
 20 03 2013  11 17  -21.0788 26028.3 -03423.1 -07.4923 26252.5
 20 03 2013  11 18  -21.0789 26028.4 -03423.1 -07.4921 26252.5
 20 03 2013  11 19  -21.0789 26028.5 -03423.0 -07.4921 26252.6
 20 03 2013  11 20  -21.0791 26028.6 -03423.0 -07.4920 26252.8
 20 03 2013  11 21  -21.0794 26028.8 -03423.0 -07.4919 26253.0
 20 03 2013  11 22  -21.0797 26029.1 -03423.1 -07.4919 26253.2
 20 03 2013  11 23  -21.0799 26029.3 -03423.1 -07.4919 26253.4
 20 03 2013  11 24  -21.0806 26029.4 -03423.0 -07.4918 26253.5
 20 03 2013  11 25  -21.0812 26029.6 -03423.0 -07.4917 26253.7
 20 03 2013  11 26  -21.0814 26030.0 -03423.1 -07.4917 26254.1
 20 03 2013  11 27  -21.0815 26030.3 -03423.1 -07.4916 26254.4
 20 03 2013  11 28  -21.0818 26030.7 -03423.1 -07.4916 26254.8
 20 03 2013  11 29  -21.0821 26030.8 -03423.0 -07.4914 26254.9
 20 03 2013  11 30  -21.0822 26031.0 -03423.0 -07.4912 26255.1
 20 03 2013  11 31  -21.0822 26031.2 -03422.9 -07.4910 26255.3
 20 03 2013  11 32  -21.0824 26031.4 -03422.9 -07.4909 26255.5
 20 03 2013  11 33  -21.0826 26031.6 -03422.8 -07.4907 26255.7
 20 03 2013  11 34  -21.0829 26031.6 -03422.7 -07.4904 26255.7
 20 03 2013  11 35  -21.0833 26031.6 -03422.6 -07.4902 26255.7
 20 03 2013  11 36  -21.0838 26031.6 -03422.5 -07.4900 26255.6
 20 03 2013  11 37  -21.0841 26031.7 -03422.5 -07.4899 26255.7
 20 03 2013  11 38  -21.0844 26031.8 -03422.4 -07.4897 26255.8
 20 03 2013  11 39  -21.0845 26032.0 -03422.3 -07.4895 26256.0
 20 03 2013  11 40  -21.0845 26032.3 -03422.3 -07.4893 26256.2
 20 03 2013  11 41  -21.0845 26032.4 -03422.2 -07.4891 26256.4
 20 03 2013  11 42  -21.0846 26032.8 -03422.2 -07.4889 26256.7
 20 03 2013  11 43  -21.0849 26033.0 -03422.1 -07.4886 26257.0
 20 03 2013  11 44  -21.0853 26033.1 -03421.9 -07.4882 26257.0
 20 03 2013  11 45  -21.0856 26033.1 -03421.7 -07.4879 26257.0
 20 03 2013  11 46  -21.0858 26033.2 -03421.6 -07.4876 26257.0
 20 03 2013  11 47  -21.0859 26033.2 -03421.5 -07.4874 26257.1
 20 03 2013  11 48  -21.0861 26033.3 -03421.5 -07.4872 26257.1
 20 03 2013  11 49  -21.0864 26033.2 -03421.3 -07.4870 26257.1
 20 03 2013  11 50  -21.0869 26033.4 -03421.3 -07.4869 26257.2
 20 03 2013  11 51  -21.0878 26033.4 -03421.3 -07.4868 26257.3
 20 03 2013  11 52  -21.0884 26033.9 -03421.4 -07.4869 26257.7
 20 03 2013  11 53  -21.0888 26034.5 -03421.5 -07.4870 26258.4
 20 03 2013  11 54  -21.0885 26035.1 -03421.6 -07.4870 26259.0
 20 03 2013  11 55  -21.0881 26035.5 -03421.5 -07.4867 26259.3
 20 03 2013  11 56  -21.0881 26035.4 -03421.3 -07.4862 26259.2
 20 03 2013  11 57  -21.0885 26035.2 -03421.0 -07.4858 26259.0
 20 03 2013  11 58  -21.0886 26035.0 -03420.9 -07.4855 26258.8
 20 03 2013  11 59  -21.0878 26035.7 -03421.1 -07.4859 26259.5
 20 03 2013  12 00  -21.0865 26036.7 -03421.6 -07.4865 26260.5
 20 03 2013  12 01  -21.0851 26037.6 -03421.9 -07.4871 26261.5
 20 03 2013  12 02  -21.0839 26038.3 -03422.2 -07.4874 26262.2
 20 03 2013  12 03  -21.0829 26039.2 -03422.4 -07.4875 26263.1
 20 03 2013  12 04  -21.0826 26039.8 -03422.5 -07.4876 26263.8
 20 03 2013  12 05  -21.0829 26040.4 -03422.5 -07.4876 26264.3
 20 03 2013  12 06  -21.0833 26041.1 -03422.6 -07.4875 26265.1
 20 03 2013  12 07  -21.0838 26041.8 -03422.7 -07.4875 26265.7
 20 03 2013  12 08  -21.0840 26042.6 -03422.8 -07.4875 26266.5
 20 03 2013  12 09  -21.0841 26043.3 -03422.8 -07.4874 26267.2
 20 03 2013  12 10  -21.0844 26043.5 -03422.7 -07.4869 26267.5
 20 03 2013  12 11  -21.0848 26043.5 -03422.3 -07.4862 26267.4
 20 03 2013  12 12  -21.0852 26043.8 -03422.2 -07.4859 26267.7
 20 03 2013  12 13  -21.0853 26044.2 -03422.3 -07.4859 26268.1
 20 03 2013  12 14  -21.0848 26044.4 -03422.2 -07.4856 26268.3
 20 03 2013  12 15  -21.0845 26044.7 -03422.2 -07.4856 26268.6
 20 03 2013  12 16  -21.0841 26044.9 -03422.2 -07.4855 26268.7
 20 03 2013  12 17  -21.0835 26045.1 -03422.2 -07.4854 26268.9
 20 03 2013  12 18  -21.0830 26045.5 -03422.2 -07.4854 26269.4
 20 03 2013  12 19  -21.0827 26045.8 -03422.3 -07.4855 26269.7
 20 03 2013  12 20  -21.0825 26046.1 -03422.3 -07.4854 26270.0
 20 03 2013  12 21  -21.0824 26046.4 -03422.3 -07.4853 26270.2
 20 03 2013  12 22  -21.0822 26047.2 -03422.5 -07.4855 26271.1
 20 03 2013  12 23  -21.0821 26048.2 -03422.7 -07.4857 26272.1
 20 03 2013  12 24  -21.0818 26048.9 -03422.7 -07.4855 26272.8
 20 03 2013  12 25  -21.0812 26049.6 -03422.7 -07.4852 26273.5
 20 03 2013  12 26  -21.0807 26050.2 -03422.6 -07.4850 26274.1
 20 03 2013  12 27  -21.0800 26050.7 -03422.6 -07.4847 26274.5
 20 03 2013  12 28  -21.0800 26051.0 -03422.5 -07.4844 26274.8
 20 03 2013  12 29  -21.0801 26051.5 -03422.5 -07.4843 26275.3
 20 03 2013  12 30  -21.0803 26052.0 -03422.5 -07.4841 26275.8
 20 03 2013  12 31  -21.0802 26053.0 -03422.5 -07.4840 26276.8
 20 03 2013  12 32  -21.0800 26054.4 -03422.8 -07.4841 26278.3
 20 03 2013  12 33  -21.0798 26054.9 -03422.6 -07.4836 26278.7
 20 03 2013  12 34  -21.0799 26054.2 -03422.0 -07.4825 26278.0
 20 03 2013  12 35  -21.0803 26054.1 -03421.8 -07.4820 26277.8
 20 03 2013  12 36  -21.0810 26054.8 -03422.0 -07.4822 26278.6
 20 03 2013  12 37  -21.0815 26055.3 -03421.9 -07.4820 26279.0
 20 03 2013  12 38  -21.0819 26055.7 -03421.8 -07.4817 26279.4
 20 03 2013  12 39  -21.0823 26055.4 -03421.5 -07.4810 26279.1
 20 03 2013  12 40  -21.0830 26055.5 -03421.3 -07.4807 26279.1
 20 03 2013  12 41  -21.0837 26055.4 -03421.2 -07.4803 26279.0
 20 03 2013  12 42  -21.0847 26055.2 -03421.0 -07.4800 26278.8
 20 03 2013  12 43  -21.0858 26055.0 -03420.8 -07.4797 26278.6
 20 03 2013  12 44  -21.0871 26054.6 -03420.6 -07.4794 26278.2
 20 03 2013  12 45  -21.0880 26053.9 -03420.4 -07.4790 26277.4
 20 03 2013  12 46  -21.0885 26053.3 -03420.2 -07.4787 26276.9
 20 03 2013  12 47  -21.0886 26053.1 -03420.1 -07.4787 26276.6
 20 03 2013  12 48  -21.0884 26052.5 -03419.9 -07.4785 26276.0
 20 03 2013  12 49  -21.0878 26052.1 -03419.8 -07.4783 26275.6
 20 03 2013  12 50  -21.0875 26052.0 -03419.8 -07.4784 26275.5
 20 03 2013  12 51  -21.0878 26051.7 -03419.7 -07.4782 26275.2
 20 03 2013  12 52  -21.0880 26051.5 -03419.6 -07.4780 26275.0
 20 03 2013  12 53  -21.0884 26052.2 -03419.8 -07.4782 26275.7
 20 03 2013  12 54  -21.0886 26052.5 -03419.7 -07.4781 26276.0
 20 03 2013  12 55  -21.0883 26052.1 -03419.4 -07.4775 26275.6
 20 03 2013  12 56  -21.0880 26051.7 -03419.2 -07.4770 26275.1
 20 03 2013  12 57  -21.0881 26051.3 -03419.1 -07.4770 26274.7
 20 03 2013  12 58  -21.0883 26051.3 -03419.2 -07.4773 26274.7
 20 03 2013  12 59  -21.0886 26051.3 -03419.3 -07.4775 26274.7
 20 03 2013  13 00  -21.0888 26051.5 -03419.4 -07.4776 26274.9
 20 03 2013  13 01  -21.0888 26051.7 -03419.6 -07.4779 26275.2
 20 03 2013  13 02  -21.0888 26051.7 -03419.5 -07.4778 26275.2
 20 03 2013  13 03  -21.0881 26051.4 -03419.3 -07.4775 26274.9
 20 03 2013  13 04  -21.0873 26051.5 -03419.3 -07.4775 26274.9
 20 03 2013  13 05  -21.0867 26051.6 -03419.3 -07.4775 26275.0
 20 03 2013  13 06  -21.0864 26051.8 -03419.3 -07.4774 26275.2
 20 03 2013  13 07  -21.0861 26052.1 -03419.2 -07.4771 26275.5
 20 03 2013  13 08  -21.0851 26052.8 -03419.2 -07.4769 26276.2
 20 03 2013  13 09  -21.0841 26053.8 -03419.3 -07.4769 26277.2
 20 03 2013  13 10  -21.0834 26054.7 -03419.4 -07.4767 26278.1
 20 03 2013  13 11  -21.0824 26055.7 -03419.3 -07.4763 26279.1
 20 03 2013  13 12  -21.0818 26056.6 -03419.3 -07.4760 26280.0
 20 03 2013  13 13  -21.0815 26057.1 -03419.1 -07.4755 26280.4
 20 03 2013  13 14  -21.0812 26057.6 -03419.0 -07.4750 26281.0
 20 03 2013  13 15  -21.0807 26058.1 -03418.8 -07.4745 26281.4
 20 03 2013  13 16  -21.0806 26058.5 -03418.6 -07.4740 26281.8
 20 03 2013  13 17  -21.0814 26058.8 -03418.5 -07.4737 26282.1
 20 03 2013  13 18  -21.0819 26058.8 -03418.2 -07.4730 26282.1
 20 03 2013  13 19  -21.0830 26059.5 -03418.3 -07.4730 26282.7
 20 03 2013  13 20  -21.0848 26061.0 -03418.8 -07.4737 26284.3
 20 03 2013  13 21  -21.0860 26061.2 -03418.7 -07.4733 26284.5
 20 03 2013  13 22  -21.0857 26060.9 -03418.2 -07.4723 26284.1
 20 03 2013  13 23  -21.0850 26060.4 -03417.8 -07.4715 26283.6
 20 03 2013  13 24  -21.0851 26060.4 -03417.6 -07.4712 26283.6
 20 03 2013  13 25  -21.0854 26061.1 -03417.7 -07.4713 26284.3
 20 03 2013  13 26  -21.0852 26061.2 -03417.5 -07.4708 26284.3
 20 03 2013  13 27  -21.0847 26060.3 -03416.9 -07.4697 26283.4
 20 03 2013  13 28  -21.0848 26060.1 -03416.6 -07.4692 26283.1
 20 03 2013  13 29  -21.0849 26059.5 -03416.4 -07.4688 26282.5
 20 03 2013  13 30  -21.0850 26059.7 -03416.4 -07.4688 26282.7
 20 03 2013  13 31  -21.0848 26060.3 -03416.5 -07.4688 26283.3
 20 03 2013  13 32  -21.0846 26061.8 -03417.0 -07.4695 26284.8
 20 03 2013  13 33  -21.0843 26062.3 -03416.9 -07.4692 26285.4
 20 03 2013  13 34  -21.0839 26062.1 -03416.6 -07.4685 26285.1
 20 03 2013  13 35  -21.0833 26062.4 -03416.5 -07.4682 26285.3
 20 03 2013  13 36  -21.0829 26062.2 -03416.3 -07.4678 26285.2
 20 03 2013  13 37  -21.0824 26061.5 -03415.9 -07.4672 26284.4
 20 03 2013  13 38  -21.0825 26061.5 -03415.9 -07.4673 26284.4
 20 03 2013  13 39  -21.0833 26061.5 -03416.0 -07.4675 26284.4
 20 03 2013  13 40  -21.0838 26061.9 -03416.1 -07.4675 26284.8
 20 03 2013  13 41  -21.0846 26061.8 -03415.9 -07.4670 26284.7
 20 03 2013  13 42  -21.0855 26062.2 -03415.8 -07.4667 26285.0
 20 03 2013  13 43  -21.0864 26062.7 -03415.8 -07.4666 26285.5
 20 03 2013  13 44  -21.0871 26062.7 -03415.6 -07.4661 26285.6
 20 03 2013  13 45  -21.0881 26062.7 -03415.4 -07.4657 26285.5
 20 03 2013  13 48  -21.0936 26060.5 -03414.4 -07.4642 26283.3
 20 03 2013  13 49  -21.0950 26060.3 -03414.5 -07.4644 26283.0
 20 03 2013  13 50  -21.0953 26060.4 -03414.5 -07.4644 26283.1
 20 03 2013  13 51  -21.0956 26060.1 -03414.3 -07.4642 26282.8
 20 03 2013  13 52  -21.0956 26059.8 -03414.1 -07.4637 26282.5
 20 03 2013  13 53  -21.0952 26060.4 -03414.2 -07.4638 26283.1
 20 03 2013  13 54  -21.0952 26061.3 -03414.4 -07.4640 26284.0
 20 03 2013  13 55  -21.0944 26060.9 -03414.1 -07.4634 26283.6
 20 03 2013  13 56  -21.0939 26060.0 -03413.7 -07.4629 26282.6
 20 03 2013  13 57  -21.0939 26059.2 -03413.6 -07.4629 26281.8
 20 03 2013  13 58  -21.0940 26059.1 -03413.7 -07.4632 26281.8
 20 03 2013  13 59  -21.0943 26059.7 -03414.1 -07.4638 26282.4
 20 03 2013  14 00  -21.0937 26060.0 -03414.2 -07.4639 26282.7
 20 03 2013  14 01  -21.0935 26059.8 -03414.1 -07.4638 26282.5
 20 03 2013  14 02  -21.0935 26060.2 -03414.3 -07.4641 26282.9
 20 03 2013  14 03  -21.0936 26060.9 -03414.6 -07.4646 26283.6
 20 03 2013  14 04  -21.0938 26061.4 -03414.8 -07.4648 26284.1
 20 03 2013  14 05  -21.0937 26061.7 -03414.8 -07.4647 26284.5
 20 03 2013  14 06  -21.0935 26062.5 -03414.9 -07.4648 26285.3
 20 03 2013  14 07  -21.0937 26063.9 -03415.3 -07.4652 26286.7
 20 03 2013  14 08  -21.0933 26064.8 -03415.4 -07.4652 26287.6
 20 03 2013  14 09  -21.0936 26065.0 -03415.3 -07.4648 26287.8
 20 03 2013  14 10  -21.0926 26064.3 -03414.6 -07.4637 26287.0
 20 03 2013  14 11  -21.0922 26063.8 -03414.0 -07.4625 26286.4
 20 03 2013  14 12  -21.0919 26063.4 -03413.6 -07.4616 26286.0
 20 03 2013  14 13  -21.0922 26063.1 -03413.3 -07.4611 26285.6
 20 03 2013  14 14  -21.0934 26062.8 -03413.2 -07.4611 26285.3
 20 03 2013  14 15  -21.0945 26062.5 -03413.2 -07.4612 26285.0
 20 03 2013  14 16  -21.0943 26061.2 -03412.8 -07.4606 26283.7
 20 03 2013  14 17  -21.0948 26060.9 -03412.9 -07.4610 26283.4
 20 03 2013  14 18  -21.0949 26061.0 -03413.2 -07.4616 26283.5
 20 03 2013  14 19  -21.0945 26061.0 -03413.5 -07.4621 26283.6
 20 03 2013  14 20  -21.0944 26061.2 -03413.7 -07.4627 26283.8
 20 03 2013  14 21  -21.0946 26062.0 -03414.1 -07.4633 26284.6
 20 03 2013  14 22  -21.0951 26062.8 -03414.5 -07.4638 26285.5
 20 03 2013  14 23  -21.0948 26062.9 -03414.5 -07.4638 26285.6
 20 03 2013  14 24  -21.0947 26062.6 -03414.4 -07.4637 26285.3
 20 03 2013  14 25  -21.0956 26063.0 -03414.6 -07.4640 26285.7
 20 03 2013  14 26  -21.0959 26063.5 -03414.9 -07.4644 26286.3
 20 03 2013  14 27  -21.0966 26064.8 -03415.3 -07.4650 26287.6
 20 03 2013  14 28  -21.0974 26066.5 -03415.7 -07.4653 26289.4
 20 03 2013  14 29  -21.0979 26067.2 -03415.6 -07.4649 26290.0
 20 03 2013  14 30  -21.0977 26067.3 -03415.2 -07.4641 26290.1
 20 03 2013  14 31  -21.0975 26067.6 -03415.1 -07.4636 26290.4
 20 03 2013  14 32  -21.0966 26068.5 -03415.1 -07.4636 26291.2
 20 03 2013  14 33  -21.0955 26068.7 -03415.0 -07.4632 26291.4
 20 03 2013  14 34  -21.0943 26068.9 -03415.0 -07.4631 26291.6
 20 03 2013  14 35  -21.0930 26068.8 -03414.9 -07.4629 26291.5
 20 03 2013  14 36  -21.0922 26069.5 -03415.1 -07.4633 26292.2
 20 03 2013  14 37  -21.0924 26070.6 -03415.6 -07.4639 26293.3
 20 03 2013  14 38  -21.0930 26071.6 -03415.8 -07.4641 26294.4
 20 03 2013  14 39  -21.0928 26072.1 -03415.8 -07.4639 26294.9
 20 03 2013  14 40  -21.0925 26072.7 -03415.7 -07.4637 26295.5
 20 03 2013  14 41  -21.0926 26072.7 -03415.5 -07.4632 26295.5
 20 03 2013  14 42  -21.0920 26072.2 -03415.0 -07.4622 26294.9
 20 03 2013  14 43  -21.0908 26071.8 -03414.7 -07.4616 26294.5
 20 03 2013  14 44  -21.0904 26071.7 -03414.6 -07.4615 26294.3
 20 03 2013  14 45  -21.0904 26071.4 -03414.5 -07.4614 26294.1
 20 03 2013  14 46  -21.0905 26072.0 -03414.8 -07.4620 26294.7
 20 03 2013  14 47  -21.0909 26072.6 -03415.1 -07.4623 26295.3
 20 03 2013  14 48  -21.0909 26072.8 -03415.0 -07.4622 26295.5
 20 03 2013  14 49  -21.0899 26072.1 -03414.8 -07.4618 26294.8
 20 03 2013  14 50  -21.0894 26071.5 -03414.7 -07.4617 26294.2
 20 03 2013  14 51  -21.0894 26070.7 -03414.7 -07.4620 26293.4
 20 03 2013  14 52  -21.0896 26070.1 -03414.8 -07.4623 26292.8
 20 03 2013  14 53  -21.0901 26069.8 -03415.0 -07.4629 26292.5
 20 03 2013  14 54  -21.0912 26069.8 -03415.4 -07.4637 26292.6
 20 03 2013  14 55  -21.0923 26069.9 -03415.7 -07.4644 26292.8
 20 03 2013  14 56  -21.0929 26069.9 -03415.8 -07.4646 26292.7
 20 03 2013  14 57  -21.0935 26069.7 -03415.8 -07.4646 26292.5
 20 03 2013  14 58  -21.0943 26070.3 -03416.1 -07.4651 26293.1
 20 03 2013  14 59  -21.0946 26070.2 -03416.0 -07.4650 26293.0
 20 03 2013  15 00  -21.0949 26069.8 -03415.8 -07.4648 26292.6
 20 03 2013  15 01  -21.0953 26069.5 -03415.8 -07.4647 26292.3
 20 03 2013  15 02  -21.0959 26069.4 -03415.9 -07.4650 26292.3
 20 03 2013  15 03  -21.0962 26070.0 -03416.3 -07.4657 26292.9
 20 03 2013  15 04  -21.0970 26070.6 -03416.7 -07.4664 26293.5
 20 03 2013  15 05  -21.0975 26071.1 -03417.0 -07.4668 26294.1
 20 03 2013  15 06  -21.0978 26071.4 -03417.0 -07.4668 26294.4
 20 03 2013  15 07  -21.0983 26071.1 -03416.8 -07.4665 26294.1
 20 03 2013  15 08  -21.0989 26070.4 -03416.4 -07.4657 26293.3
 20 03 2013  15 09  -21.0998 26070.0 -03416.1 -07.4652 26292.9
 20 03 2013  15 10  -21.1003 26069.4 -03415.8 -07.4648 26292.2
 20 03 2013  15 11  -21.1011 26067.8 -03415.2 -07.4639 26290.6
 20 03 2013  15 12  -21.1016 26065.9 -03414.5 -07.4630 26288.6
 20 03 2013  15 13  -21.1011 26064.3 -03414.3 -07.4629 26287.0
 20 03 2013  15 14  -21.1004 26063.4 -03414.6 -07.4639 26286.1
 20 03 2013  15 15  -21.1007 26062.9 -03415.1 -07.4650 26285.7
 20 03 2013  15 16  -21.1015 26062.8 -03415.6 -07.4662 26285.6
 20 03 2013  15 17  -21.1026 26062.7 -03416.0 -07.4671 26285.6
 20 03 2013  15 18  -21.1037 26063.1 -03416.4 -07.4678 26286.0
 20 03 2013  15 19  -21.1050 26063.4 -03416.7 -07.4684 26286.4
 20 03 2013  15 20  -21.1067 26063.5 -03416.7 -07.4684 26286.5
 20 03 2013  15 21  -21.1083 26064.5 -03416.9 -07.4686 26287.5
 20 03 2013  15 22  -21.1095 26065.3 -03417.1 -07.4687 26288.4
 20 03 2013  15 23  -21.1096 26065.3 -03416.8 -07.4681 26288.3
 20 03 2013  15 24  -21.1100 26065.4 -03416.7 -07.4679 26288.4
 20 03 2013  15 25  -21.1104 26065.7 -03416.7 -07.4678 26288.6
 20 03 2013  15 26  -21.1110 26066.2 -03416.8 -07.4679 26289.2
 20 03 2013  15 27  -21.1121 26066.5 -03416.9 -07.4679 26289.5
 20 03 2013  15 28  -21.1132 26066.7 -03416.9 -07.4678 26289.7
 20 03 2013  15 29  -21.1143 26066.8 -03416.8 -07.4677 26289.8
 20 03 2013  15 30  -21.1154 26067.0 -03416.7 -07.4675 26289.9
 20 03 2013  15 31  -21.1167 26067.3 -03416.8 -07.4675 26290.2
 20 03 2013  15 32  -21.1180 26067.6 -03416.8 -07.4674 26290.6
 20 03 2013  15 33  -21.1192 26067.7 -03416.7 -07.4673 26290.7
 20 03 2013  15 34  -21.1207 26068.0 -03416.7 -07.4672 26291.0
 20 03 2013  15 35  -21.1229 26068.6 -03416.8 -07.4671 26291.6
 20 03 2013  15 36  -21.1258 26069.8 -03416.9 -07.4671 26292.8
 20 03 2013  15 37  -21.1282 26071.0 -03416.8 -07.4664 26293.9
 20 03 2013  15 38  -21.1288 26071.7 -03416.3 -07.4652 26294.6
 20 03 2013  15 39  -21.1291 26072.2 -03415.7 -07.4637 26295.0
 20 03 2013  15 40  -21.1284 26072.5 -03415.1 -07.4624 26295.2
 20 03 2013  15 41  -21.1284 26072.6 -03414.6 -07.4612 26295.3
 20 03 2013  15 42  -21.1284 26073.1 -03414.4 -07.4607 26295.7
 20 03 2013  15 43  -21.1289 26073.1 -03414.1 -07.4601 26295.7
 20 03 2013  15 44  -21.1294 26073.5 -03414.0 -07.4598 26296.1
 20 03 2013  15 45  -21.1300 26074.6 -03414.1 -07.4597 26297.1
 20 03 2013  15 46  -21.1307 26074.2 -03413.6 -07.4587 26296.8
 20 03 2013  15 47  -21.1309 26074.1 -03413.3 -07.4580 26296.6
 20 03 2013  15 48  -21.1314 26074.1 -03413.1 -07.4576 26296.5
 20 03 2013  15 49  -21.1320 26074.5 -03413.1 -07.4574 26297.0
 20 03 2013  15 50  -21.1328 26074.3 -03412.7 -07.4567 26296.7
 20 03 2013  15 51  -21.1335 26074.3 -03412.5 -07.4563 26296.7
 20 03 2013  15 52  -21.1337 26074.2 -03412.3 -07.4558 26296.6
 20 03 2013  15 53  -21.1344 26074.0 -03412.0 -07.4553 26296.3
 20 03 2013  15 54  -21.1351 26073.5 -03411.7 -07.4548 26295.8
 20 03 2013  15 55  -21.1363 26073.1 -03411.6 -07.4546 26295.4
 20 03 2013  15 56  -21.1366 26073.2 -03411.6 -07.4547 26295.4
 20 03 2013  15 57  -21.1372 26073.3 -03411.8 -07.4550 26295.6
 20 03 2013  15 58  -21.1378 26073.3 -03411.8 -07.4551 26295.6
 20 03 2013  15 59  -21.1373 26072.6 -03411.6 -07.4548 26294.9
 20 03 2013  16 00  -21.1373 26072.2 -03411.5 -07.4546 26294.4
 20 03 2013  16 01  -21.1375 26071.9 -03411.4 -07.4545 26294.2
 20 03 2013  16 02  -21.1382 26071.3 -03411.2 -07.4542 26293.5
 20 03 2013  16 03  -21.1393 26070.9 -03411.0 -07.4540 26293.1
 20 03 2013  16 04  -21.1406 26070.6 -03410.9 -07.4539 26292.8
 20 03 2013  16 05  -21.1412 26069.6 -03410.6 -07.4535 26291.7
 20 03 2013  16 06  -21.1414 26068.9 -03410.4 -07.4533 26291.1
 20 03 2013  16 07  -21.1420 26068.4 -03410.5 -07.4535 26290.6
 20 03 2013  16 08  -21.1431 26068.7 -03410.8 -07.4541 26290.9
 20 03 2013  16 09  -21.1444 26069.4 -03411.1 -07.4547 26291.6
 20 03 2013  16 10  -21.1453 26069.4 -03411.1 -07.4546 26291.6
 20 03 2013  16 11  -21.1472 26069.7 -03411.2 -07.4547 26291.9
 20 03 2013  16 12  -21.1484 26069.6 -03411.0 -07.4543 26291.8
 20 03 2013  16 13  -21.1492 26069.5 -03410.8 -07.4539 26291.6
 20 03 2013  16 14  -21.1508 26069.8 -03410.8 -07.4538 26292.0
 20 03 2013  16 15  -21.1526 26070.4 -03410.8 -07.4538 26292.6
 20 03 2013  16 16  -21.1538 26070.7 -03410.7 -07.4533 26292.9
 20 03 2013  16 17  -21.1549 26071.4 -03410.6 -07.4530 26293.6
 20 03 2013  16 18  -21.1552 26072.0 -03410.5 -07.4525 26294.1
 20 03 2013  16 19  -21.1554 26072.7 -03410.3 -07.4520 26294.8
 20 03 2013  16 20  -21.1554 26073.0 -03410.1 -07.4514 26295.1
 20 03 2013  16 21  -21.1546 26073.0 -03409.6 -07.4504 26295.0
 20 03 2013  16 22  -21.1529 26073.5 -03409.4 -07.4497 26295.5
 20 03 2013  16 23  -21.1518 26074.1 -03409.1 -07.4490 26296.1
 20 03 2013  16 24  -21.1513 26074.4 -03408.9 -07.4484 26296.3
 20 03 2013  16 25  -21.1501 26073.5 -03408.1 -07.4470 26295.3
 20 03 2013  16 26  -21.1499 26073.5 -03408.0 -07.4467 26295.3
 20 03 2013  16 27  -21.1500 26073.5 -03407.8 -07.4464 26295.2
 20 03 2013  16 28  -21.1503 26072.8 -03407.5 -07.4458 26294.5
 20 03 2013  16 29  -21.1510 26072.5 -03407.4 -07.4457 26294.2
 20 03 2013  16 30  -21.1508 26071.9 -03407.2 -07.4456 26293.6
 20 03 2013  16 31  -21.1504 26071.0 -03407.1 -07.4455 26292.6
 20 03 2013  16 32  -21.1505 26069.8 -03406.9 -07.4453 26291.5
 20 03 2013  16 33  -21.1506 26068.5 -03406.8 -07.4455 26290.2
 20 03 2013  16 34  -21.1507 26067.4 -03406.7 -07.4457 26289.1
 20 03 2013  16 35  -21.1509 26066.5 -03406.9 -07.4463 26288.2
 20 03 2013  16 36  -21.1512 26065.8 -03407.0 -07.4468 26287.5
 20 03 2013  16 37  -21.1514 26065.0 -03407.1 -07.4473 26286.7
 20 03 2013  16 38  -21.1514 26064.7 -03407.4 -07.4480 26286.5
 20 03 2013  16 39  -21.1518 26064.5 -03407.7 -07.4487 26286.3
 20 03 2013  16 40  -21.1519 26064.6 -03408.0 -07.4494 26286.4
 20 03 2013  16 41  -21.1525 26064.6 -03408.3 -07.4499 26286.5
 20 03 2013  16 42  -21.1530 26064.6 -03408.4 -07.4502 26286.5
 20 03 2013  16 43  -21.1536 26064.2 -03408.5 -07.4504 26286.2
 20 03 2013  16 44  -21.1543 26064.0 -03408.5 -07.4506 26286.0
 20 03 2013  16 45  -21.1550 26064.0 -03408.7 -07.4510 26286.0
 20 03 2013  16 46  -21.1554 26063.9 -03408.8 -07.4512 26285.9
 20 03 2013  16 47  -21.1560 26064.2 -03409.0 -07.4515 26286.2
 20 03 2013  16 48  -21.1567 26064.1 -03409.0 -07.4515 26286.1
 20 03 2013  16 49  -21.1579 26064.0 -03408.9 -07.4515 26286.0
 20 03 2013  16 50  -21.1591 26063.7 -03408.8 -07.4513 26285.7
 20 03 2013  16 51  -21.1602 26063.3 -03408.7 -07.4511 26285.2
 20 03 2013  16 52  -21.1609 26063.0 -03408.5 -07.4508 26284.9
 20 03 2013  16 53  -21.1620 26063.4 -03408.6 -07.4510 26285.4
 20 03 2013  16 54  -21.1625 26064.3 -03408.8 -07.4512 26286.2
 20 03 2013  16 55  -21.1630 26064.4 -03408.7 -07.4509 26286.4
 20 03 2013  16 56  -21.1634 26064.3 -03408.4 -07.4503 26286.2
 20 03 2013  16 57  -21.1643 26064.7 -03408.4 -07.4502 26286.6
 20 03 2013  16 58  -21.1652 26064.9 -03408.4 -07.4500 26286.8
 20 03 2013  16 59  -21.1657 26064.9 -03408.1 -07.4493 26286.7
 20 03 2013  17 00  -21.1660 26065.0 -03407.9 -07.4489 26286.8
 20 03 2013  17 01  -21.1669 26065.2 -03407.8 -07.4486 26287.0
 20 03 2013  17 02  -21.1675 26064.8 -03407.4 -07.4479 26286.5
 20 03 2013  17 03  -21.1683 26064.6 -03407.2 -07.4475 26286.3
 20 03 2013  17 04  -21.1687 26064.6 -03407.1 -07.4472 26286.4
 20 03 2013  17 05  -21.1691 26065.0 -03407.0 -07.4470 26286.7
 20 03 2013  17 06  -21.1692 26064.4 -03406.6 -07.4463 26286.1
 20 03 2013  17 07  -21.1696 26064.0 -03406.3 -07.4457 26285.6
 20 03 2013  17 08  -21.1699 26063.7 -03406.2 -07.4456 26285.4
 20 03 2013  17 09  -21.1701 26063.3 -03406.0 -07.4452 26284.9
 20 03 2013  17 10  -21.1698 26063.0 -03405.7 -07.4449 26284.5
 20 03 2013  17 11  -21.1699 26062.9 -03405.7 -07.4449 26284.4
 20 03 2013  17 12  -21.1702 26062.9 -03405.8 -07.4449 26284.5
 20 03 2013  17 13  -21.1710 26063.3 -03405.9 -07.4451 26284.9
 20 03 2013  17 14  -21.1717 26063.5 -03405.8 -07.4448 26285.1
 20 03 2013  17 15  -21.1717 26063.3 -03405.5 -07.4442 26284.8
 20 03 2013  17 16  -21.1722 26063.3 -03405.4 -07.4439 26284.8
 20 03 2013  17 17  -21.1729 26063.4 -03405.3 -07.4438 26284.9
 20 03 2013  17 18  -21.1734 26063.9 -03405.4 -07.4438 26285.4
 20 03 2013  17 19  -21.1743 26064.9 -03405.6 -07.4440 26286.5
 20 03 2013  17 20  -21.1748 26065.5 -03405.5 -07.4436 26287.0
 20 03 2013  17 21  -21.1741 26066.7 -03405.7 -07.4436 26288.3
 20 03 2013  17 22  -21.1737 26068.6 -03406.1 -07.4440 26290.1
 20 03 2013  17 23  -21.1745 26071.0 -03406.6 -07.4444 26292.6
 20 03 2013  17 24  -21.1748 26073.4 -03406.9 -07.4444 26295.1
 20 03 2013  17 25  -21.1752 26074.3 -03406.5 -07.4434 26295.9
 20 03 2013  17 26  -21.1736 26073.0 -03405.2 -07.4409 26294.4
 20 03 2013  17 27  -21.1717 26071.1 -03404.0 -07.4389 26292.4
 20 03 2013  17 28  -21.1704 26068.9 -03403.1 -07.4374 26290.1
 20 03 2013  17 29  -21.1681 26066.1 -03402.1 -07.4361 26287.2
 20 03 2013  17 30  -21.1656 26064.2 -03401.7 -07.4359 26285.3
 20 03 2013  17 31  -21.1643 26063.0 -03401.8 -07.4363 26284.1
 20 03 2013  17 32  -21.1629 26060.9 -03401.4 -07.4361 26281.9
 20 03 2013  17 33  -21.1603 26060.0 -03401.6 -07.4367 26281.1
 20 03 2013  17 34  -21.1601 26061.7 -03403.1 -07.4396 26282.9
 20 03 2013  17 35  -21.1597 26063.3 -03404.3 -07.4415 26284.7
 20 03 2013  17 36  -21.1602 26064.8 -03405.0 -07.4428 26286.3
 20 03 2013  17 37  -21.1602 26065.5 -03405.3 -07.4431 26287.0
 20 03 2013  17 38  -21.1598 26065.3 -03405.0 -07.4426 26286.7
 20 03 2013  17 39  -21.1588 26063.9 -03404.4 -07.4416 26285.3
 20 03 2013  17 40  -21.1575 26062.8 -03404.1 -07.4414 26284.2
 20 03 2013  17 41  -21.1569 26062.1 -03404.0 -07.4414 26283.5
 20 03 2013  17 42  -21.1564 26062.4 -03404.3 -07.4419 26283.8
 20 03 2013  17 43  -21.1565 26062.9 -03404.5 -07.4422 26284.3
 20 03 2013  17 44  -21.1572 26063.0 -03404.4 -07.4419 26284.4
 20 03 2013  17 45  -21.1567 26063.3 -03404.3 -07.4416 26284.6
 20 03 2013  17 46  -21.1565 26062.8 -03404.0 -07.4411 26284.2
 20 03 2013  17 47  -21.1562 26062.5 -03403.7 -07.4405 26283.9
 20 03 2013  17 48  -21.1553 26062.0 -03403.4 -07.4400 26283.2
 20 03 2013  17 49  -21.1544 26060.5 -03402.7 -07.4389 26281.7
 20 03 2013  17 50  -21.1530 26059.3 -03402.2 -07.4381 26280.4
 20 03 2013  17 51  -21.1515 26058.8 -03402.0 -07.4378 26280.0
 20 03 2013  17 52  -21.1498 26058.8 -03402.1 -07.4381 26279.9
 20 03 2013  17 53  -21.1488 26059.1 -03402.2 -07.4382 26280.2
 20 03 2013  17 54  -21.1480 26059.3 -03402.2 -07.4382 26280.5
 20 03 2013  17 55  -21.1471 26059.6 -03402.2 -07.4381 26280.8
 20 03 2013  17 56  -21.1460 26058.9 -03401.8 -07.4375 26280.0
 20 03 2013  17 57  -21.1451 26057.7 -03401.2 -07.4365 26278.8
 20 03 2013  17 58  -21.1449 26057.2 -03401.0 -07.4363 26278.2
 20 03 2013  17 59  -21.1445 26056.9 -03400.9 -07.4362 26277.9
 20 03 2013  18 00  -21.1437 26056.8 -03400.9 -07.4362 26277.8
 20 03 2013  18 01  -21.1426 26056.9 -03400.9 -07.4361 26277.9
 20 03 2013  18 02  -21.1412 26056.7 -03400.8 -07.4359 26277.7
 20 03 2013  18 03  -21.1401 26056.5 -03400.7 -07.4357 26277.5
 20 03 2013  18 04  -21.1390 26056.4 -03400.6 -07.4355 26277.3
 20 03 2013  18 05  -21.1378 26056.2 -03400.5 -07.4355 26277.1
 20 03 2013  18 06  -21.1367 26056.0 -03400.5 -07.4355 26276.9
 20 03 2013  18 07  -21.1355 26055.6 -03400.4 -07.4353 26276.6
 20 03 2013  18 08  -21.1342 26055.5 -03400.4 -07.4353 26276.4
 20 03 2013  18 09  -21.1329 26055.4 -03400.4 -07.4355 26276.4
 20 03 2013  18 10  -21.1322 26055.2 -03400.4 -07.4355 26276.1
 20 03 2013  18 11  -21.1314 26055.3 -03400.5 -07.4356 26276.2
 20 03 2013  18 12  -21.1303 26055.0 -03400.4 -07.4356 26276.0
 20 03 2013  18 13  -21.1289 26054.8 -03400.4 -07.4356 26275.8
 20 03 2013  18 14  -21.1278 26054.8 -03400.4 -07.4355 26275.7
 20 03 2013  18 15  -21.1269 26054.8 -03400.4 -07.4356 26275.8
 20 03 2013  18 16  -21.1257 26054.8 -03400.4 -07.4356 26275.7
 20 03 2013  18 17  -21.1245 26054.3 -03400.2 -07.4354 26275.3
 20 03 2013  18 18  -21.1234 26054.0 -03400.2 -07.4354 26274.9
 20 03 2013  18 19  -21.1225 26054.1 -03400.3 -07.4356 26275.0
 20 03 2013  18 20  -21.1218 26054.0 -03400.3 -07.4357 26274.9
 20 03 2013  18 21  -21.1209 26053.7 -03400.2 -07.4355 26274.7
 20 03 2013  18 22  -21.1197 26053.5 -03400.1 -07.4354 26274.4
 20 03 2013  18 23  -21.1184 26053.2 -03400.0 -07.4352 26274.1
 20 03 2013  18 24  -21.1171 26053.0 -03400.0 -07.4352 26273.9
 20 03 2013  18 25  -21.1157 26052.9 -03399.9 -07.4352 26273.8
 20 03 2013  18 26  -21.1141 26052.5 -03399.8 -07.4350 26273.3
 20 03 2013  18 27  -21.1126 26052.1 -03399.7 -07.4348 26273.0
 20 03 2013  18 28  -21.1109 26051.7 -03399.6 -07.4347 26272.6
 20 03 2013  18 29  -21.1094 26051.5 -03399.6 -07.4348 26272.4
 20 03 2013  18 30  -21.1080 26051.5 -03399.7 -07.4349 26272.4
 20 03 2013  18 31  -21.1066 26051.4 -03399.6 -07.4349 26272.2
 20 03 2013  18 32  -21.1053 26051.4 -03399.7 -07.4350 26272.3
 20 03 2013  18 33  -21.1043 26051.4 -03399.8 -07.4352 26272.3
 20 03 2013  18 34  -21.1029 26051.2 -03399.7 -07.4351 26272.0
 20 03 2013  18 35  -21.1015 26050.9 -03399.6 -07.4350 26271.7
 20 03 2013  18 36  -21.1003 26050.7 -03399.6 -07.4351 26271.6
 20 03 2013  18 37  -21.0991 26050.8 -03399.7 -07.4353 26271.7
 20 03 2013  18 38  -21.0984 26050.9 -03399.8 -07.4355 26271.8
 20 03 2013  18 39  -21.0976 26051.2 -03400.0 -07.4358 26272.1
 20 03 2013  18 40  -21.0968 26051.5 -03400.1 -07.4359 26272.5
 20 03 2013  18 41  -21.0960 26051.8 -03400.2 -07.4361 26272.7
 20 03 2013  18 42  -21.0953 26052.0 -03400.3 -07.4362 26272.9
 20 03 2013  18 43  -21.0944 26052.0 -03400.3 -07.4362 26272.9
 20 03 2013  18 44  -21.0935 26052.0 -03400.3 -07.4362 26272.9
 20 03 2013  18 45  -21.0922 26051.7 -03400.2 -07.4361 26272.6
 20 03 2013  18 46  -21.0911 26051.3 -03400.1 -07.4359 26272.2
 20 03 2013  18 47  -21.0901 26051.0 -03400.0 -07.4359 26271.9
 20 03 2013  18 48  -21.0890 26050.7 -03400.0 -07.4359 26271.6
 20 03 2013  18 49  -21.0878 26050.3 -03399.9 -07.4358 26271.3
 20 03 2013  18 50  -21.0867 26050.1 -03399.9 -07.4359 26271.1
 20 03 2013  18 51  -21.0857 26050.0 -03399.9 -07.4360 26270.9
 20 03 2013  18 52  -21.0851 26049.7 -03399.9 -07.4360 26270.6
 20 03 2013  18 53  -21.0842 26049.2 -03399.8 -07.4360 26270.1
 20 03 2013  18 54  -21.0830 26048.8 -03399.8 -07.4360 26269.7
 20 03 2013  18 55  -21.0819 26048.5 -03399.9 -07.4362 26269.4
 20 03 2013  18 56  -21.0807 26048.9 -03400.1 -07.4366 26269.8
 20 03 2013  18 57  -21.0802 26049.6 -03400.7 -07.4376 26270.6
 20 03 2013  18 58  -21.0796 26050.2 -03401.0 -07.4383 26271.3
 20 03 2013  18 59  -21.0785 26050.4 -03401.3 -07.4387 26271.5
 20 03 2013  19 00  -21.0776 26050.6 -03401.5 -07.4392 26271.7
 20 03 2013  19 01  -21.0768 26050.4 -03401.6 -07.4394 26271.5
 20 03 2013  19 02  -21.0758 26050.1 -03401.6 -07.4396 26271.2
 20 03 2013  19 03  -21.0748 26049.6 -03401.6 -07.4398 26270.7
 20 03 2013  19 04  -21.0737 26048.9 -03401.6 -07.4398 26270.0
 20 03 2013  19 05  -21.0727 26048.5 -03401.6 -07.4400 26269.6
 20 03 2013  19 06  -21.0720 26048.2 -03401.8 -07.4405 26269.4
 20 03 2013  19 07  -21.0712 26048.3 -03402.1 -07.4411 26269.5
 20 03 2013  19 08  -21.0704 26048.5 -03402.5 -07.4419 26269.8
 20 03 2013  19 09  -21.0697 26048.7 -03402.8 -07.4426 26270.0
 20 03 2013  19 10  -21.0691 26048.4 -03403.0 -07.4430 26269.8
 20 03 2013  19 11  -21.0686 26048.3 -03403.2 -07.4435 26269.7
 20 03 2013  19 12  -21.0684 26047.7 -03403.2 -07.4437 26269.0
 20 03 2013  19 13  -21.0674 26047.2 -03403.3 -07.4440 26268.6
 20 03 2013  19 14  -21.0668 26046.8 -03403.4 -07.4444 26268.2
 20 03 2013  19 15  -21.0663 26046.4 -03403.6 -07.4449 26267.8
 20 03 2013  19 16  -21.0659 26046.5 -03404.0 -07.4457 26267.9
 20 03 2013  19 17  -21.0659 26046.4 -03404.3 -07.4464 26268.0
 20 03 2013  19 18  -21.0655 26045.8 -03404.3 -07.4466 26267.4
 20 03 2013  19 19  -21.0654 26045.2 -03404.3 -07.4468 26266.7
 20 03 2013  19 20  -21.0650 26045.1 -03404.6 -07.4474 26266.6
 20 03 2013  19 21  -21.0649 26045.9 -03405.3 -07.4487 26267.6
 20 03 2013  19 22  -21.0650 26047.6 -03406.4 -07.4505 26269.4
 20 03 2013  19 23  -21.0651 26049.2 -03407.3 -07.4521 26271.1
 20 03 2013  19 24  -21.0657 26049.9 -03407.8 -07.4530 26271.9
 20 03 2013  19 25  -21.0658 26049.5 -03407.6 -07.4527 26271.4
 20 03 2013  19 26  -21.0657 26047.8 -03406.9 -07.4517 26269.7
 20 03 2013  19 27  -21.0650 26045.5 -03406.0 -07.4502 26267.2
 20 03 2013  19 28  -21.0639 26043.5 -03405.2 -07.4493 26265.1
 20 03 2013  19 29  -21.0633 26042.2 -03405.0 -07.4492 26263.8
 20 03 2013  19 30  -21.0625 26042.6 -03405.5 -07.4502 26264.3
 20 03 2013  19 31  -21.0625 26044.1 -03406.7 -07.4522 26266.0
 20 03 2013  19 32  -21.0631 26045.0 -03407.4 -07.4535 26266.9
 20 03 2013  19 33  -21.0632 26045.9 -03407.9 -07.4543 26267.9
 20 03 2013  19 34  -21.0635 26046.2 -03408.2 -07.4550 26268.2
 20 03 2013  19 35  -21.0635 26045.9 -03408.3 -07.4551 26267.9
 20 03 2013  19 36  -21.0632 26045.4 -03408.2 -07.4552 26267.4
 20 03 2013  19 37  -21.0631 26044.9 -03408.2 -07.4553 26266.9
 20 03 2013  19 38  -21.0631 26044.9 -03408.4 -07.4557 26267.0
 20 03 2013  19 39  -21.0631 26047.6 -03409.9 -07.4581 26269.9
 20 03 2013  19 40  -21.0631 26049.0 -03410.8 -07.4596 26271.4
 20 03 2013  19 41  -21.0629 26051.1 -03411.8 -07.4613 26273.6
 20 03 2013  19 42  -21.0633 26052.9 -03412.8 -07.4629 26275.5
 20 03 2013  19 43  -21.0635 26053.5 -03413.0 -07.4632 26276.1
 20 03 2013  19 44  -21.0626 26055.5 -03413.8 -07.4644 26278.2
 20 03 2013  19 45  -21.0622 26058.5 -03415.3 -07.4667 26281.3
 20 03 2013  19 46  -21.0619 26060.1 -03416.1 -07.4680 26283.1
 20 03 2013  19 47  -21.0616 26060.1 -03415.9 -07.4677 26283.0
 20 03 2013  19 48  -21.0609 26059.1 -03415.3 -07.4666 26281.9
 20 03 2013  19 49  -21.0600 26057.0 -03414.2 -07.4649 26279.7
 20 03 2013  19 50  -21.0591 26055.9 -03413.7 -07.4641 26278.6
 20 03 2013  19 51  -21.0589 26056.0 -03413.8 -07.4643 26278.6
 20 03 2013  19 52  -21.0587 26055.9 -03413.9 -07.4645 26278.6
 20 03 2013  19 53  -21.0582 26055.6 -03413.9 -07.4645 26278.3
 20 03 2013  19 54  -21.0573 26055.3 -03413.9 -07.4646 26278.0
 20 03 2013  19 55  -21.0564 26054.7 -03413.8 -07.4647 26277.4
 20 03 2013  19 56  -21.0557 26054.2 -03413.8 -07.4648 26276.9
 20 03 2013  19 57  -21.0556 26053.8 -03413.9 -07.4651 26276.5
 20 03 2013  19 58  -21.0560 26053.5 -03414.0 -07.4654 26276.2
 20 03 2013  19 59  -21.0562 26052.4 -03413.7 -07.4651 26275.1
 20 03 2013  20 00  -21.0561 26051.3 -03413.3 -07.4645 26274.0
 20 03 2013  20 01  -21.0569 26050.2 -03413.0 -07.4641 26272.9
 20 03 2013  20 02  -21.0571 26048.8 -03412.5 -07.4634 26271.4
 20 03 2013  20 03  -21.0566 26047.9 -03412.1 -07.4630 26270.4
 20 03 2013  20 04  -21.0570 26048.3 -03412.6 -07.4639 26270.9
 20 03 2013  20 05  -21.0594 26048.9 -03413.1 -07.4648 26271.5
 20 03 2013  20 06  -21.0603 26047.9 -03412.8 -07.4644 26270.6
 20 03 2013  20 07  -21.0614 26047.8 -03412.8 -07.4645 26270.4
 20 03 2013  20 08  -21.0623 26047.1 -03412.8 -07.4646 26269.7
 20 03 2013  20 09  -21.0623 26046.2 -03412.5 -07.4641 26268.8
 20 03 2013  20 10  -21.0624 26044.9 -03412.2 -07.4638 26267.5
 20 03 2013  20 11  -21.0624 26043.8 -03411.8 -07.4633 26266.3
 20 03 2013  20 12  -21.0620 26043.6 -03411.8 -07.4635 26266.2
 20 03 2013  20 13  -21.0620 26044.3 -03412.4 -07.4646 26266.9
 20 03 2013  20 14  -21.0626 26045.1 -03413.1 -07.4658 26267.8
 20 03 2013  20 15  -21.0638 26045.6 -03413.6 -07.4667 26268.3
 20 03 2013  20 16  -21.0647 26044.6 -03413.2 -07.4661 26267.3
 20 03 2013  20 17  -21.0649 26042.9 -03412.4 -07.4650 26265.6
 20 03 2013  20 18  -21.0646 26041.4 -03411.7 -07.4638 26263.9
 20 03 2013  20 19  -21.0644 26040.7 -03411.5 -07.4636 26263.3
 20 03 2013  20 20  -21.0655 26041.4 -03412.1 -07.4647 26264.0
 20 03 2013  20 21  -21.0660 26041.4 -03412.4 -07.4653 26264.1
 20 03 2013  20 22  -21.0662 26040.4 -03412.1 -07.4649 26262.9
 20 03 2013  20 23  -21.0654 26039.1 -03411.6 -07.4643 26261.7
 20 03 2013  20 24  -21.0646 26038.5 -03411.6 -07.4644 26261.0
 20 03 2013  20 25  -21.0637 26037.8 -03411.6 -07.4646 26260.3
 20 03 2013  20 26  -21.0630 26037.5 -03411.8 -07.4652 26260.1
 20 03 2013  20 27  -21.0623 26037.7 -03412.2 -07.4659 26260.4
 20 03 2013  20 28  -21.0619 26037.9 -03412.6 -07.4667 26260.5
 20 03 2013  20 29  -21.0617 26038.2 -03413.0 -07.4676 26261.0
 20 03 2013  20 30  -21.0618 26038.4 -03413.3 -07.4682 26261.2
 20 03 2013  20 31  -21.0623 26038.5 -03413.6 -07.4687 26261.3
 20 03 2013  20 32  -21.0628 26038.3 -03413.7 -07.4690 26261.1
 20 03 2013  20 33  -21.0637 26038.2 -03413.8 -07.4694 26261.0
 20 03 2013  20 34  -21.0647 26038.2 -03414.0 -07.4698 26261.1
 20 03 2013  20 35  -21.0662 26038.5 -03414.3 -07.4703 26261.4
 20 03 2013  20 36  -21.0673 26038.0 -03414.2 -07.4702 26260.9
 20 03 2013  20 37  -21.0685 26037.1 -03413.8 -07.4696 26259.9
 20 03 2013  20 38  -21.0697 26036.1 -03413.4 -07.4690 26258.9
 20 03 2013  20 39  -21.0701 26035.2 -03413.0 -07.4685 26257.9
 20 03 2013  20 40  -21.0701 26034.4 -03412.8 -07.4682 26257.1
 20 03 2013  20 41  -21.0695 26033.5 -03412.5 -07.4677 26256.2
 20 03 2013  20 42  -21.0686 26032.6 -03412.1 -07.4673 26255.3
 20 03 2013  20 43  -21.0679 26032.2 -03412.1 -07.4672 26254.9
 20 03 2013  20 44  -21.0673 26032.3 -03412.3 -07.4677 26255.0
 20 03 2013  20 45  -21.0663 26032.4 -03412.5 -07.4681 26255.1
 20 03 2013  20 46  -21.0656 26032.2 -03412.6 -07.4685 26255.0
 20 03 2013  20 47  -21.0653 26032.3 -03412.9 -07.4690 26255.1
 20 03 2013  20 48  -21.0650 26032.4 -03413.1 -07.4695 26255.2
 20 03 2013  20 49  -21.0648 26032.6 -03413.4 -07.4700 26255.4
 20 03 2013  20 50  -21.0649 26032.8 -03413.7 -07.4707 26255.7
 20 03 2013  20 51  -21.0652 26032.5 -03413.8 -07.4708 26255.4
 20 03 2013  20 52  -21.0655 26032.3 -03413.9 -07.4711 26255.2
 20 03 2013  20 53  -21.0658 26032.5 -03414.1 -07.4716 26255.5
 20 03 2013  20 54  -21.0660 26032.7 -03414.4 -07.4721 26255.6
 20 03 2013  20 55  -21.0666 26032.5 -03414.4 -07.4723 26255.5
 20 03 2013  20 56  -21.0673 26032.0 -03414.3 -07.4722 26255.0
 20 03 2013  20 57  -21.0681 26031.4 -03414.2 -07.4721 26254.4
 20 03 2013  20 58  -21.0683 26030.8 -03414.0 -07.4719 26253.7
 20 03 2013  20 59  -21.0684 26030.0 -03413.7 -07.4714 26252.9
 20 03 2013  21 00  -21.0684 26029.4 -03413.5 -07.4712 26252.2
 20 03 2013  21 01  -21.0686 26028.9 -03413.4 -07.4711 26251.8
 20 03 2013  21 02  -21.0677 26028.9 -03413.4 -07.4711 26251.8
 20 03 2013  21 03  -21.0665 26029.8 -03413.9 -07.4719 26252.7
 20 03 2013  21 04  -21.0659 26029.9 -03414.2 -07.4724 26252.9
 20 03 2013  21 05  -21.0654 26029.9 -03414.2 -07.4725 26252.8
 20 03 2013  21 06  -21.0649 26029.8 -03414.3 -07.4728 26252.8
 20 03 2013  21 07  -21.0648 26029.5 -03414.3 -07.4728 26252.5
 20 03 2013  21 08  -21.0648 26029.3 -03414.3 -07.4730 26252.3
 20 03 2013  21 09  -21.0647 26029.0 -03414.4 -07.4731 26252.0
 20 03 2013  21 10  -21.0646 26028.3 -03414.2 -07.4729 26251.3
 20 03 2013  21 11  -21.0642 26027.2 -03413.8 -07.4725 26250.1
 20 03 2013  21 12  -21.0639 26026.1 -03413.5 -07.4722 26249.0
 20 03 2013  21 13  -21.0637 26024.9 -03413.3 -07.4719 26247.8
 20 03 2013  21 14  -21.0629 26024.4 -03413.3 -07.4721 26247.2
 20 03 2013  21 15  -21.0619 26024.2 -03413.5 -07.4725 26247.1
 20 03 2013  21 16  -21.0616 26024.3 -03413.8 -07.4731 26247.3
 20 03 2013  21 17  -21.0617 26024.2 -03414.1 -07.4738 26247.2
 20 03 2013  21 18  -21.0619 26023.8 -03414.2 -07.4741 26246.8
 20 03 2013  21 19  -21.0623 26022.9 -03414.0 -07.4741 26245.9
 20 03 2013  21 20  -21.0628 26022.4 -03414.0 -07.4742 26245.4
 20 03 2013  21 21  -21.0630 26022.3 -03414.3 -07.4748 26245.4
 20 03 2013  21 22  -21.0632 26022.3 -03414.5 -07.4752 26245.4
 20 03 2013  21 23  -21.0632 26022.3 -03414.7 -07.4757 26245.4
 20 03 2013  21 24  -21.0632 26022.3 -03414.9 -07.4762 26245.4
 20 03 2013  21 25  -21.0633 26022.0 -03415.0 -07.4764 26245.1
 20 03 2013  21 26  -21.0633 26021.8 -03415.1 -07.4767 26244.9
 20 03 2013  21 27  -21.0636 26021.2 -03415.0 -07.4767 26244.4
 20 03 2013  21 28  -21.0636 26020.7 -03414.9 -07.4766 26243.8
 20 03 2013  21 29  -21.0638 26020.5 -03415.0 -07.4768 26243.6
 20 03 2013  21 30  -21.0642 26020.4 -03415.1 -07.4772 26243.6
 20 03 2013  21 31  -21.0645 26020.2 -03415.2 -07.4774 26243.3
 20 03 2013  21 32  -21.0650 26019.8 -03415.1 -07.4773 26243.0
 20 03 2013  21 33  -21.0651 26019.7 -03415.2 -07.4776 26242.9
 20 03 2013  21 34  -21.0654 26019.7 -03415.4 -07.4780 26242.9
 20 03 2013  21 35  -21.0657 26019.9 -03415.6 -07.4783 26243.1
 20 03 2013  21 36  -21.0662 26019.5 -03415.7 -07.4786 26242.7
 20 03 2013  21 37  -21.0668 26019.0 -03415.6 -07.4786 26242.2
 20 03 2013  21 38  -21.0671 26018.6 -03415.6 -07.4787 26241.8
 20 03 2013  21 39  -21.0670 26018.5 -03415.6 -07.4788 26241.7
 20 03 2013  21 40  -21.0675 26017.9 -03415.6 -07.4789 26241.1
 20 03 2013  21 41  -21.0685 26016.9 -03415.2 -07.4784 26240.1
 20 03 2013  21 42  -21.0690 26016.1 -03415.0 -07.4782 26239.3
 20 03 2013  21 43  -21.0690 26015.7 -03414.8 -07.4779 26238.8
 20 03 2013  21 44  -21.0691 26015.0 -03414.7 -07.4778 26238.2
 20 03 2013  21 45  -21.0693 26014.4 -03414.6 -07.4778 26237.5
 20 03 2013  21 46  -21.0697 26013.9 -03414.6 -07.4778 26237.0
 20 03 2013  21 47  -21.0702 26013.1 -03414.4 -07.4777 26236.2
 20 03 2013  21 48  -21.0704 26012.6 -03414.3 -07.4776 26235.7
 20 03 2013  21 49  -21.0705 26012.4 -03414.3 -07.4778 26235.5
 20 03 2013  21 50  -21.0710 26011.8 -03414.3 -07.4778 26234.9
 20 03 2013  21 51  -21.0716 26011.4 -03414.3 -07.4779 26234.5
 20 03 2013  21 52  -21.0720 26010.9 -03414.2 -07.4779 26234.0
 20 03 2013  21 53  -21.0718 26010.6 -03414.2 -07.4780 26233.7
 20 03 2013  21 54  -21.0719 26010.5 -03414.3 -07.4782 26233.7
 20 03 2013  21 55  -21.0721 26010.6 -03414.5 -07.4787 26233.8
 20 03 2013  21 56  -21.0718 26010.7 -03414.7 -07.4790 26233.8
 20 03 2013  21 57  -21.0716 26010.8 -03414.8 -07.4792 26234.0
 20 03 2013  21 58  -21.0715 26011.0 -03415.1 -07.4798 26234.2
 20 03 2013  21 59  -21.0715 26011.2 -03415.3 -07.4803 26234.5
 20 03 2013  22 00  -21.0717 26011.3 -03415.6 -07.4807 26234.6
 20 03 2013  22 01  -21.0720 26011.2 -03415.6 -07.4809 26234.5
 20 03 2013  22 02  -21.0720 26011.2 -03415.8 -07.4812 26234.5
 20 03 2013  22 03  -21.0718 26011.3 -03415.9 -07.4814 26234.6
 20 03 2013  22 04  -21.0717 26011.3 -03416.0 -07.4817 26234.7
 20 03 2013  22 05  -21.0715 26011.4 -03416.1 -07.4818 26234.8
 20 03 2013  22 06  -21.0717 26011.5 -03416.2 -07.4821 26234.9
 20 03 2013  22 07  -21.0720 26011.4 -03416.2 -07.4821 26234.7
 20 03 2013  22 08  -21.0725 26011.3 -03416.2 -07.4822 26234.7
 20 03 2013  22 09  -21.0731 26011.1 -03416.3 -07.4823 26234.5
 20 03 2013  22 10  -21.0738 26010.9 -03416.2 -07.4822 26234.2
 20 03 2013  22 11  -21.0743 26010.5 -03416.1 -07.4821 26233.9
 20 03 2013  22 12  -21.0745 26010.1 -03415.9 -07.4818 26233.4
 20 03 2013  22 13  -21.0745 26009.7 -03415.7 -07.4815 26233.0
 20 03 2013  22 14  -21.0744 26009.3 -03415.6 -07.4813 26232.6
 20 03 2013  22 15  -21.0743 26008.9 -03415.5 -07.4812 26232.2
 20 03 2013  22 16  -21.0744 26008.7 -03415.5 -07.4813 26232.0
 20 03 2013  22 17  -21.0745 26008.6 -03415.6 -07.4815 26232.0
 20 03 2013  22 18  -21.0745 26008.6 -03415.6 -07.4816 26231.9
 20 03 2013  22 19  -21.0745 26008.5 -03415.7 -07.4817 26231.8
 20 03 2013  22 20  -21.0747 26008.4 -03415.7 -07.4818 26231.7
 20 03 2013  22 21  -21.0748 26008.2 -03415.8 -07.4821 26231.6
 20 03 2013  22 22  -21.0750 26008.1 -03415.8 -07.4821 26231.4
 20 03 2013  22 23  -21.0754 26008.0 -03415.9 -07.4823 26231.4
 20 03 2013  22 24  -21.0757 26007.9 -03415.9 -07.4824 26231.3
 20 03 2013  22 25  -21.0760 26007.6 -03415.8 -07.4824 26231.0
 20 03 2013  22 26  -21.0761 26007.6 -03415.9 -07.4825 26231.0
 20 03 2013  22 27  -21.0761 26007.4 -03415.9 -07.4826 26230.8
 20 03 2013  22 28  -21.0760 26007.4 -03415.9 -07.4826 26230.8
 20 03 2013  22 29  -21.0760 26007.3 -03416.0 -07.4827 26230.7
 20 03 2013  22 30  -21.0761 26007.2 -03416.0 -07.4829 26230.6
 20 03 2013  22 31  -21.0763 26007.2 -03416.1 -07.4831 26230.6
 20 03 2013  22 32  -21.0765 26007.0 -03416.2 -07.4833 26230.4
 20 03 2013  22 33  -21.0767 26006.9 -03416.2 -07.4833 26230.3
 20 03 2013  22 34  -21.0767 26006.9 -03416.2 -07.4834 26230.3
 20 03 2013  22 35  -21.0766 26006.9 -03416.3 -07.4836 26230.3
 20 03 2013  22 36  -21.0764 26006.9 -03416.3 -07.4836 26230.3
 20 03 2013  22 37  -21.0762 26006.9 -03416.4 -07.4838 26230.3
 20 03 2013  22 38  -21.0762 26007.0 -03416.5 -07.4840 26230.5
 20 03 2013  22 39  -21.0764 26007.2 -03416.7 -07.4843 26230.7
 20 03 2013  22 40  -21.0765 26007.4 -03416.9 -07.4847 26230.9
 20 03 2013  22 41  -21.0767 26007.6 -03417.0 -07.4850 26231.1
 20 03 2013  22 42  -21.0768 26007.7 -03417.2 -07.4852 26231.2
 20 03 2013  22 43  -21.0769 26007.6 -03417.2 -07.4852 26231.1
 20 03 2013  22 44  -21.0771 26007.6 -03417.2 -07.4854 26231.1
 20 03 2013  22 45  -21.0770 26007.4 -03417.2 -07.4853 26231.0
 20 03 2013  22 46  -21.0769 26007.0 -03417.0 -07.4850 26230.5
 20 03 2013  22 47  -21.0770 26006.6 -03416.9 -07.4849 26230.1
 20 03 2013  22 48  -21.0769 26006.2 -03416.7 -07.4847 26229.7
 20 03 2013  22 49  -21.0768 26005.6 -03416.5 -07.4844 26229.1
 20 03 2013  22 50  -21.0769 26005.1 -03416.4 -07.4842 26228.6
 20 03 2013  22 51  -21.0771 26004.6 -03416.2 -07.4840 26228.0
 20 03 2013  22 52  -21.0772 26004.2 -03416.2 -07.4841 26227.7
 20 03 2013  22 53  -21.0774 26002.8 -03415.7 -07.4834 26226.1
 20 03 2013  22 54  -21.0774 26001.2 -03415.0 -07.4824 26224.5
 20 03 2013  22 55  -21.0771 25999.7 -03414.4 -07.4815 26222.9
 20 03 2013  22 56  -21.0769 25998.5 -03414.0 -07.4810 26221.7
 20 03 2013  22 57  -21.0768 25997.7 -03413.8 -07.4809 26220.8
 20 03 2013  22 58  -21.0768 25997.5 -03414.0 -07.4813 26220.7
 20 03 2013  22 59  -21.0768 25997.5 -03414.3 -07.4819 26220.8
 20 03 2013  23 00  -21.0770 25997.7 -03414.6 -07.4825 26221.0
 20 03 2013  23 01  -21.0773 25997.8 -03414.9 -07.4831 26221.1
 20 03 2013  23 02  -21.0773 25998.0 -03415.2 -07.4836 26221.4
 20 03 2013  23 03  -21.0772 25998.4 -03415.5 -07.4842 26221.8
 20 03 2013  23 04  -21.0770 25998.9 -03415.9 -07.4849 26222.3
 20 03 2013  23 05  -21.0769 25999.3 -03416.2 -07.4856 26222.8
 20 03 2013  23 06  -21.0770 25999.7 -03416.5 -07.4862 26223.2
 20 03 2013  23 07  -21.0769 26000.0 -03416.9 -07.4867 26223.6
 20 03 2013  23 08  -21.0766 26000.1 -03417.0 -07.4870 26223.6
 20 03 2013  23 09  -21.0761 26000.1 -03417.0 -07.4871 26223.7
 20 03 2013  23 10  -21.0758 25999.9 -03417.1 -07.4873 26223.5
 20 03 2013  23 11  -21.0758 25999.8 -03417.1 -07.4874 26223.4
 20 03 2013  23 12  -21.0761 25999.9 -03417.3 -07.4876 26223.5
 20 03 2013  23 13  -21.0762 25999.9 -03417.4 -07.4878 26223.6
 20 03 2013  23 14  -21.0766 25999.8 -03417.4 -07.4880 26223.5
 20 03 2013  23 15  -21.0770 25999.7 -03417.4 -07.4881 26223.3
 20 03 2013  23 16  -21.0772 25999.7 -03417.5 -07.4882 26223.3
 20 03 2013  23 17  -21.0769 26000.3 -03417.9 -07.4889 26224.0
 20 03 2013  23 18  -21.0767 26000.5 -03418.1 -07.4892 26224.2
 20 03 2013  23 19  -21.0764 26000.8 -03418.3 -07.4896 26224.5
 20 03 2013  23 20  -21.0763 26000.6 -03418.3 -07.4897 26224.4
 20 03 2013  23 21  -21.0765 26000.4 -03418.2 -07.4896 26224.2
 20 03 2013  23 22  -21.0771 26000.2 -03418.2 -07.4896 26223.9
 20 03 2013  23 23  -21.0784 25999.3 -03417.8 -07.4891 26223.0
 20 03 2013  23 24  -21.0797 25998.5 -03417.6 -07.4887 26222.2
 20 03 2013  23 25  -21.0811 25997.7 -03417.2 -07.4881 26221.3
 20 03 2013  23 26  -21.0817 25997.5 -03417.0 -07.4878 26221.1
 20 03 2013  23 27  -21.0822 25997.4 -03417.0 -07.4878 26220.9
 20 03 2013  23 28  -21.0830 25997.5 -03417.2 -07.4881 26221.2
 20 03 2013  23 29  -21.0838 25997.5 -03417.2 -07.4883 26221.2
 20 03 2013  23 30  -21.0845 25997.5 -03417.4 -07.4886 26221.2
 20 03 2013  23 31  -21.0855 25997.8 -03417.6 -07.4889 26221.5
 20 03 2013  23 32  -21.0870 25998.0 -03417.8 -07.4893 26221.7
 20 03 2013  23 33  -21.0886 25997.8 -03417.7 -07.4892 26221.5
 20 03 2013  23 34  -21.0896 25997.9 -03417.6 -07.4891 26221.6
 20 03 2013  23 35  -21.0901 25997.9 -03417.6 -07.4889 26221.6
 20 03 2013  23 36  -21.0905 25997.8 -03417.5 -07.4888 26221.5
 20 03 2013  23 37  -21.0908 25997.7 -03417.4 -07.4886 26221.4
 20 03 2013  23 38  -21.0908 25997.6 -03417.3 -07.4885 26221.3
 20 03 2013  23 39  -21.0911 25997.4 -03417.2 -07.4883 26221.0
 20 03 2013  23 40  -21.0911 25997.4 -03417.1 -07.4881 26221.0
 20 03 2013  23 41  -21.0910 25997.6 -03417.3 -07.4883 26221.2
 20 03 2013  23 42  -21.0904 25997.9 -03417.3 -07.4884 26221.5
 20 03 2013  23 43  -21.0900 25998.3 -03417.5 -07.4886 26221.9
 20 03 2013  23 44  -21.0895 25998.5 -03417.6 -07.4888 26222.2
 20 03 2013  23 45  -21.0892 25998.7 -03417.7 -07.4889 26222.3
 20 03 2013  23 46  -21.0890 25998.7 -03417.7 -07.4890 26222.4
 20 03 2013  23 47  -21.0892 25998.5 -03417.7 -07.4889 26222.2
 20 03 2013  23 48  -21.0893 25998.4 -03417.7 -07.4889 26222.1
 20 03 2013  23 49  -21.0894 25998.5 -03417.7 -07.4890 26222.2
 20 03 2013  23 50  -21.0894 25998.7 -03417.7 -07.4890 26222.4
 20 03 2013  23 51  -21.0896 25998.8 -03417.8 -07.4892 26222.5
 20 03 2013  23 52  -21.0893 25998.7 -03417.8 -07.4891 26222.4
 20 03 2013  23 53  -21.0886 25998.7 -03417.7 -07.4889 26222.4
 20 03 2013  23 54  -21.0879 25998.6 -03417.7 -07.4889 26222.3
 20 03 2013  23 55  -21.0873 25998.7 -03417.7 -07.4889 26222.4
 20 03 2013  23 56  -21.0866 25998.8 -03417.7 -07.4889 26222.5
 20 03 2013  23 57  -21.0860 25998.7 -03417.7 -07.4890 26222.4
