SAO LUIS EMBRACE-03 <297> 1 Min. Reported data

 DD MM YYYY  HH MM   D(Deg)  H(nT)   Z(nT)   I(Deg)   F(nT)

 24 10 2013  00 00  -21.0009 26024.5 -03498.2 -07.6557 26258.6
 24 10 2013  00 01  -21.0010 26024.5 -03498.2 -07.6558 26258.6
 24 10 2013  00 02  -21.0009 26024.5 -03498.2 -07.6557 26258.5
 24 10 2013  00 03  -21.0008 26024.4 -03498.1 -07.6556 26258.5
 24 10 2013  00 04  -21.0008 26024.4 -03498.2 -07.6557 26258.5
 24 10 2013  00 05  -21.0007 26024.5 -03498.2 -07.6558 26258.5
 24 10 2013  00 06  -21.0007 26024.4 -03498.2 -07.6558 26258.5
 24 10 2013  00 07  -21.0008 26024.5 -03498.2 -07.6558 26258.5
 24 10 2013  00 08  -21.0008 26024.5 -03498.2 -07.6558 26258.6
 24 10 2013  00 09  -21.0007 26024.5 -03498.3 -07.6559 26258.6
 24 10 2013  00 10  -21.0008 26024.5 -03498.3 -07.6560 26258.6
 24 10 2013  00 11  -21.0009 26024.5 -03498.3 -07.6560 26258.6
 24 10 2013  00 12  -21.0010 26024.5 -03498.3 -07.6560 26258.6
 24 10 2013  00 13  -21.0011 26024.5 -03498.3 -07.6560 26258.6
 24 10 2013  00 14  -21.0010 26024.5 -03498.3 -07.6559 26258.5
 24 10 2013  00 15  -21.0010 26024.5 -03498.3 -07.6559 26258.5
 24 10 2013  00 16  -21.0009 26024.5 -03498.3 -07.6559 26258.5
 24 10 2013  00 17  -21.0008 26024.6 -03498.3 -07.6560 26258.7
 24 10 2013  00 18  -21.0007 26024.6 -03498.4 -07.6561 26258.7
 24 10 2013  00 19  -21.0006 26024.7 -03498.4 -07.6561 26258.8
 24 10 2013  00 20  -21.0005 26024.6 -03498.4 -07.6562 26258.7
 24 10 2013  00 21  -21.0004 26024.5 -03498.4 -07.6562 26258.6
 24 10 2013  00 22  -21.0003 26024.6 -03498.4 -07.6562 26258.7
 24 10 2013  00 23  -21.0003 26024.6 -03498.4 -07.6562 26258.7
 24 10 2013  00 24  -21.0004 26024.6 -03498.5 -07.6563 26258.7
 24 10 2013  00 25  -21.0002 26024.7 -03498.5 -07.6564 26258.8
 24 10 2013  00 26  -21.0002 26024.7 -03498.5 -07.6564 26258.8
 24 10 2013  00 27  -21.0002 26024.8 -03498.6 -07.6565 26258.9
 24 10 2013  00 28  -21.0004 26024.9 -03498.7 -07.6567 26259.1
 24 10 2013  00 29  -21.0005 26025.0 -03498.8 -07.6568 26259.2
 24 10 2013  00 30  -21.0006 26025.1 -03498.8 -07.6568 26259.2
 24 10 2013  00 31  -21.0006 26025.2 -03498.8 -07.6569 26259.3
 24 10 2013  00 32  -21.0007 26025.2 -03498.8 -07.6570 26259.4
 24 10 2013  00 33  -21.0007 26025.2 -03498.8 -07.6569 26259.3
 24 10 2013  00 34  -21.0009 26025.2 -03498.8 -07.6569 26259.3
 24 10 2013  00 35  -21.0008 26025.1 -03498.8 -07.6568 26259.2
 24 10 2013  00 36  -21.0007 26025.1 -03498.7 -07.6568 26259.2
 24 10 2013  00 37  -21.0005 26025.1 -03498.7 -07.6567 26259.2
 24 10 2013  00 38  -21.0004 26025.0 -03498.7 -07.6567 26259.2
 24 10 2013  00 39  -21.0003 26025.1 -03498.7 -07.6567 26259.2
 24 10 2013  00 40  -21.0003 26025.1 -03498.8 -07.6568 26259.3
 24 10 2013  00 41  -21.0004 26025.2 -03498.8 -07.6568 26259.3
 24 10 2013  00 42  -21.0005 26025.2 -03498.8 -07.6569 26259.3
 24 10 2013  00 43  -21.0004 26025.1 -03498.8 -07.6568 26259.2
 24 10 2013  00 44  -21.0004 26025.1 -03498.8 -07.6568 26259.2
 24 10 2013  00 45  -21.0003 26025.0 -03498.7 -07.6568 26259.2
 24 10 2013  00 46  -21.0003 26025.0 -03498.7 -07.6567 26259.1
 24 10 2013  00 47  -21.0002 26024.9 -03498.7 -07.6566 26259.0
 24 10 2013  00 48  -21.0001 26024.8 -03498.6 -07.6565 26258.9
 24 10 2013  00 49  -21.0001 26024.8 -03498.6 -07.6565 26258.9
 24 10 2013  00 50  -20.9999 26024.6 -03498.5 -07.6564 26258.7
 24 10 2013  00 51  -20.9997 26024.6 -03498.5 -07.6563 26258.7
 24 10 2013  00 52  -20.9996 26024.5 -03498.4 -07.6563 26258.6
 24 10 2013  00 53  -20.9993 26024.4 -03498.4 -07.6562 26258.5
 24 10 2013  00 54  -20.9991 26024.4 -03498.4 -07.6562 26258.5
 24 10 2013  00 55  -20.9990 26024.3 -03498.4 -07.6562 26258.4
 24 10 2013  00 56  -20.9990 26024.3 -03498.5 -07.6564 26258.4
 24 10 2013  00 57  -20.9990 26024.4 -03498.5 -07.6564 26258.5
 24 10 2013  00 58  -20.9991 26024.4 -03498.5 -07.6565 26258.5
 24 10 2013  00 59  -20.9992 26024.4 -03498.5 -07.6565 26258.5
 24 10 2013  01 00  -20.9991 26024.4 -03498.5 -07.6565 26258.5
 24 10 2013  01 01  -20.9992 26024.3 -03498.5 -07.6565 26258.4
 24 10 2013  01 02  -20.9993 26024.2 -03498.5 -07.6565 26258.3
 24 10 2013  01 03  -20.9993 26024.1 -03498.5 -07.6564 26258.2
 24 10 2013  01 04  -20.9991 26024.0 -03498.4 -07.6563 26258.1
 24 10 2013  01 05  -20.9990 26023.9 -03498.3 -07.6562 26258.0
 24 10 2013  01 06  -20.9988 26023.9 -03498.3 -07.6562 26258.0
 24 10 2013  01 07  -20.9988 26024.0 -03498.4 -07.6563 26258.1
 24 10 2013  01 08  -20.9988 26024.1 -03498.4 -07.6564 26258.2
 24 10 2013  01 09  -20.9987 26024.2 -03498.5 -07.6565 26258.3
 24 10 2013  01 10  -20.9989 26024.2 -03498.5 -07.6566 26258.4
 24 10 2013  01 11  -20.9989 26024.3 -03498.6 -07.6566 26258.4
 24 10 2013  01 12  -20.9990 26024.3 -03498.6 -07.6566 26258.4
 24 10 2013  01 13  -20.9991 26024.3 -03498.6 -07.6566 26258.4
 24 10 2013  01 14  -20.9991 26024.3 -03498.6 -07.6566 26258.4
 24 10 2013  01 15  -20.9990 26024.3 -03498.5 -07.6566 26258.4
 24 10 2013  01 16  -20.9989 26024.3 -03498.6 -07.6566 26258.4
 24 10 2013  01 17  -20.9987 26024.3 -03498.5 -07.6566 26258.4
 24 10 2013  01 18  -20.9986 26024.3 -03498.5 -07.6565 26258.4
 24 10 2013  01 19  -20.9985 26024.3 -03498.5 -07.6565 26258.4
 24 10 2013  01 20  -20.9983 26024.2 -03498.5 -07.6564 26258.3
 24 10 2013  01 21  -20.9982 26024.2 -03498.5 -07.6564 26258.3
 24 10 2013  01 22  -20.9980 26024.4 -03498.6 -07.6565 26258.5
 24 10 2013  01 23  -20.9982 26024.3 -03498.5 -07.6566 26258.4
 24 10 2013  01 24  -20.9983 26023.9 -03498.4 -07.6563 26258.0
 24 10 2013  01 25  -20.9980 26024.1 -03498.5 -07.6565 26258.2
 24 10 2013  01 26  -20.9981 26023.6 -03498.3 -07.6562 26257.7
 24 10 2013  01 27  -20.9982 26024.0 -03498.4 -07.6564 26258.1
 24 10 2013  01 28  -20.9984 26023.9 -03498.4 -07.6565 26258.0
 24 10 2013  01 29  -20.9987 26023.8 -03498.4 -07.6565 26257.9
 24 10 2013  01 30  -20.9986 26023.7 -03498.4 -07.6565 26257.8
 24 10 2013  01 31  -20.9988 26023.6 -03498.4 -07.6564 26257.7
 24 10 2013  01 32  -20.9986 26024.0 -03498.5 -07.6566 26258.1
 24 10 2013  01 33  -20.9986 26023.8 -03498.5 -07.6566 26257.9
 24 10 2013  01 34  -20.9987 26023.8 -03498.6 -07.6567 26258.0
 24 10 2013  01 35  -20.9990 26024.4 -03498.9 -07.6573 26258.6
 24 10 2013  01 36  -20.9998 26024.3 -03498.9 -07.6573 26258.5
 24 10 2013  01 37  -20.9999 26024.3 -03498.9 -07.6574 26258.4
 24 10 2013  01 38  -21.0000 26023.8 -03498.7 -07.6570 26258.0
 24 10 2013  01 39  -20.9997 26023.6 -03498.5 -07.6566 26257.7
 24 10 2013  01 40  -20.9997 26023.5 -03498.5 -07.6566 26257.6
 24 10 2013  01 41  -20.9997 26023.2 -03498.3 -07.6564 26257.3
 24 10 2013  01 42  -20.9995 26022.7 -03498.1 -07.6560 26256.8
 24 10 2013  01 43  -20.9997 26022.6 -03498.1 -07.6561 26256.7
 24 10 2013  01 44  -21.0000 26022.5 -03498.1 -07.6561 26256.6
 24 10 2013  01 45  -21.0004 26022.6 -03498.2 -07.6564 26256.7
 24 10 2013  01 46  -21.0007 26022.5 -03498.2 -07.6564 26256.6
 24 10 2013  01 47  -21.0009 26022.7 -03498.4 -07.6567 26256.8
 24 10 2013  01 48  -21.0010 26022.5 -03498.3 -07.6567 26256.6
 24 10 2013  01 49  -21.0008 26022.3 -03498.3 -07.6566 26256.4
 24 10 2013  01 50  -21.0008 26022.5 -03498.4 -07.6567 26256.6
 24 10 2013  01 51  -21.0009 26022.7 -03498.5 -07.6570 26256.9
 24 10 2013  01 52  -21.0010 26022.8 -03498.6 -07.6571 26256.9
 24 10 2013  01 53  -21.0011 26023.0 -03498.8 -07.6574 26257.2
 24 10 2013  01 54  -21.0012 26023.3 -03498.9 -07.6576 26257.4
 24 10 2013  01 55  -21.0011 26023.4 -03499.0 -07.6578 26257.6
 24 10 2013  01 56  -21.0012 26023.4 -03499.0 -07.6578 26257.6
 24 10 2013  01 57  -21.0012 26023.4 -03499.0 -07.6578 26257.6
 24 10 2013  01 58  -21.0009 26023.2 -03498.9 -07.6576 26257.3
 24 10 2013  01 59  -21.0007 26023.1 -03498.8 -07.6575 26257.2
 24 10 2013  02 00  -21.0005 26023.0 -03498.8 -07.6575 26257.2
 24 10 2013  02 01  -21.0003 26023.1 -03498.8 -07.6576 26257.2
 24 10 2013  02 02  -21.0000 26022.9 -03498.7 -07.6574 26257.0
 24 10 2013  02 03  -20.9999 26022.9 -03498.8 -07.6575 26257.1
 24 10 2013  02 04  -20.9996 26023.1 -03498.9 -07.6577 26257.3
 24 10 2013  02 05  -20.9996 26022.9 -03498.8 -07.6576 26257.1
 24 10 2013  02 06  -20.9994 26023.0 -03499.0 -07.6578 26257.1
 24 10 2013  02 07  -20.9993 26022.8 -03498.9 -07.6578 26257.0
 24 10 2013  02 08  -20.9992 26022.8 -03498.9 -07.6578 26257.0
 24 10 2013  02 09  -20.9990 26022.8 -03498.9 -07.6578 26256.9
 24 10 2013  02 10  -20.9991 26022.6 -03498.9 -07.6578 26256.7
 24 10 2013  02 11  -20.9991 26022.5 -03498.9 -07.6578 26256.7
 24 10 2013  02 12  -20.9992 26022.3 -03498.8 -07.6577 26256.5
 24 10 2013  02 13  -20.9993 26022.5 -03498.9 -07.6578 26256.6
 24 10 2013  02 14  -20.9991 26022.6 -03499.0 -07.6580 26256.8
 24 10 2013  02 15  -20.9994 26021.9 -03498.7 -07.6576 26256.1
 24 10 2013  02 16  -20.9993 26022.2 -03498.8 -07.6576 26256.4
 24 10 2013  02 17  -20.9991 26022.5 -03499.0 -07.6580 26256.7
 24 10 2013  02 18  -20.9992 26022.2 -03498.9 -07.6579 26256.4
 24 10 2013  02 19  -20.9992 26022.3 -03498.9 -07.6579 26256.5
 24 10 2013  02 20  -20.9993 26022.5 -03499.0 -07.6581 26256.7
 24 10 2013  02 21  -20.9991 26022.9 -03499.2 -07.6584 26257.1
 24 10 2013  02 22  -20.9990 26022.7 -03499.2 -07.6584 26256.9
 24 10 2013  02 23  -20.9989 26022.6 -03499.1 -07.6582 26256.8
 24 10 2013  02 24  -20.9986 26022.9 -03499.2 -07.6584 26257.1
 24 10 2013  02 25  -20.9984 26023.0 -03499.3 -07.6585 26257.2
 24 10 2013  02 26  -20.9984 26023.0 -03499.3 -07.6586 26257.2
 24 10 2013  02 27  -20.9984 26023.1 -03499.4 -07.6588 26257.4
 24 10 2013  02 28  -20.9985 26023.0 -03499.4 -07.6588 26257.3
 24 10 2013  02 29  -20.9985 26022.9 -03499.3 -07.6586 26257.2
 24 10 2013  02 30  -20.9983 26023.2 -03499.4 -07.6588 26257.4
 24 10 2013  02 31  -20.9983 26022.9 -03499.3 -07.6586 26257.1
 24 10 2013  02 32  -20.9984 26023.0 -03499.3 -07.6586 26257.2
 24 10 2013  02 33  -20.9984 26023.0 -03499.3 -07.6586 26257.2
 24 10 2013  02 34  -20.9983 26023.0 -03499.3 -07.6586 26257.3
 24 10 2013  02 35  -20.9983 26022.7 -03499.2 -07.6584 26256.9
 24 10 2013  02 36  -20.9985 26022.5 -03499.1 -07.6583 26256.7
 24 10 2013  02 37  -20.9985 26022.4 -03499.0 -07.6582 26256.6
 24 10 2013  02 38  -20.9987 26022.4 -03499.0 -07.6582 26256.6
 24 10 2013  02 39  -20.9989 26022.3 -03499.0 -07.6581 26256.5
 24 10 2013  02 40  -20.9992 26022.4 -03499.0 -07.6581 26256.5
 24 10 2013  02 41  -20.9992 26022.4 -03499.1 -07.6582 26256.6
 24 10 2013  02 42  -20.9992 26022.4 -03499.0 -07.6582 26256.6
 24 10 2013  02 43  -20.9990 26022.5 -03499.1 -07.6582 26256.7
 24 10 2013  02 44  -20.9989 26022.3 -03499.0 -07.6581 26256.5
 24 10 2013  02 45  -20.9990 26022.2 -03498.9 -07.6579 26256.3
 24 10 2013  02 46  -20.9990 26022.3 -03499.0 -07.6580 26256.5
 24 10 2013  02 47  -20.9992 26022.2 -03498.9 -07.6580 26256.4
 24 10 2013  02 48  -20.9994 26022.0 -03498.8 -07.6579 26256.2
 24 10 2013  02 49  -20.9995 26021.7 -03498.7 -07.6576 26255.9
 24 10 2013  02 50  -20.9994 26021.6 -03498.6 -07.6576 26255.7
 24 10 2013  02 51  -20.9997 26021.5 -03498.6 -07.6575 26255.7
 24 10 2013  02 52  -20.9997 26021.8 -03498.8 -07.6578 26256.0
 24 10 2013  02 53  -20.9997 26022.0 -03498.9 -07.6580 26256.2
 24 10 2013  02 54  -20.9996 26022.2 -03499.0 -07.6582 26256.4
 24 10 2013  02 55  -20.9996 26022.4 -03499.1 -07.6584 26256.6
 24 10 2013  02 56  -20.9992 26022.6 -03499.2 -07.6585 26256.8
 24 10 2013  02 57  -20.9988 26022.9 -03499.3 -07.6587 26257.1
 24 10 2013  02 58  -20.9991 26023.4 -03499.6 -07.6590 26257.6
 24 10 2013  02 59  -20.9987 26024.3 -03500.0 -07.6597 26258.6
 24 10 2013  03 00  -20.9987 26024.9 -03500.3 -07.6602 26259.3
 24 10 2013  03 01  -20.9984 26025.4 -03500.4 -07.6604 26259.7
 24 10 2013  03 02  -20.9978 26025.4 -03500.4 -07.6603 26259.8
 24 10 2013  03 03  -20.9975 26025.2 -03500.3 -07.6600 26259.5
 24 10 2013  03 04  -20.9974 26024.9 -03500.1 -07.6597 26259.3
 24 10 2013  03 05  -20.9973 26025.0 -03500.0 -07.6595 26259.3
 24 10 2013  03 06  -20.9973 26025.3 -03500.1 -07.6598 26259.6
 24 10 2013  03 07  -20.9971 26025.5 -03500.3 -07.6599 26259.9
 24 10 2013  03 08  -20.9968 26025.8 -03500.4 -07.6600 26260.2
 24 10 2013  03 09  -20.9964 26026.1 -03500.5 -07.6602 26260.5
 24 10 2013  03 10  -20.9960 26026.4 -03500.5 -07.6603 26260.7
 24 10 2013  03 11  -20.9957 26026.3 -03500.5 -07.6603 26260.7
 24 10 2013  03 12  -20.9953 26026.0 -03500.3 -07.6599 26260.3
 24 10 2013  03 13  -20.9953 26025.3 -03499.9 -07.6593 26259.6
 24 10 2013  03 14  -20.9954 26024.3 -03499.5 -07.6585 26258.6
 24 10 2013  03 15  -20.9959 26023.5 -03499.1 -07.6579 26257.7
 24 10 2013  03 16  -20.9966 26023.3 -03499.0 -07.6577 26257.5
 24 10 2013  03 17  -20.9972 26023.7 -03499.2 -07.6582 26257.9
 24 10 2013  03 18  -20.9976 26024.2 -03499.5 -07.6587 26258.4
 24 10 2013  03 19  -20.9980 26024.6 -03499.8 -07.6591 26258.9
 24 10 2013  03 20  -20.9978 26025.1 -03500.0 -07.6594 26259.4
 24 10 2013  03 21  -20.9978 26025.0 -03499.9 -07.6593 26259.2
 24 10 2013  03 22  -20.9976 26024.4 -03499.5 -07.6587 26258.6
 24 10 2013  03 23  -20.9982 26023.7 -03499.2 -07.6581 26257.9
 24 10 2013  03 24  -20.9985 26023.2 -03498.9 -07.6577 26257.4
 24 10 2013  03 25  -20.9988 26023.1 -03498.8 -07.6575 26257.2
 24 10 2013  03 26  -20.9993 26022.9 -03498.8 -07.6574 26257.0
 24 10 2013  03 27  -20.9998 26023.0 -03498.8 -07.6575 26257.1
 24 10 2013  03 28  -21.0000 26023.0 -03498.9 -07.6576 26257.2
 24 10 2013  03 29  -21.0001 26023.2 -03498.9 -07.6576 26257.3
 24 10 2013  03 30  -21.0006 26023.3 -03498.9 -07.6577 26257.4
 24 10 2013  03 31  -21.0008 26023.3 -03498.9 -07.6577 26257.4
 24 10 2013  03 32  -21.0008 26023.1 -03498.8 -07.6575 26257.3
 24 10 2013  03 33  -21.0007 26023.1 -03498.8 -07.6574 26257.2
 24 10 2013  03 34  -21.0009 26023.0 -03498.7 -07.6573 26257.1
 24 10 2013  03 35  -21.0009 26023.1 -03498.8 -07.6574 26257.3
 24 10 2013  03 36  -21.0010 26023.3 -03498.8 -07.6575 26257.5
 24 10 2013  03 37  -21.0010 26023.4 -03498.9 -07.6576 26257.6
 24 10 2013  03 38  -21.0008 26023.4 -03498.8 -07.6575 26257.6
 24 10 2013  03 39  -21.0009 26023.4 -03498.8 -07.6575 26257.5
 24 10 2013  03 40  -21.0010 26023.4 -03498.8 -07.6574 26257.5
 24 10 2013  03 41  -21.0010 26023.4 -03498.8 -07.6575 26257.5
 24 10 2013  03 42  -21.0010 26023.5 -03498.9 -07.6575 26257.6
 24 10 2013  03 43  -21.0009 26023.6 -03498.9 -07.6575 26257.7
 24 10 2013  03 44  -21.0010 26023.6 -03498.9 -07.6576 26257.8
 24 10 2013  03 45  -21.0009 26023.7 -03498.9 -07.6576 26257.9
 24 10 2013  03 46  -21.0008 26023.8 -03499.0 -07.6576 26257.9
 24 10 2013  03 47  -21.0009 26023.8 -03499.0 -07.6576 26257.9
 24 10 2013  03 48  -21.0008 26023.8 -03498.9 -07.6576 26257.9
 24 10 2013  03 49  -21.0008 26023.7 -03498.9 -07.6576 26257.9
 24 10 2013  03 50  -21.0008 26023.7 -03498.9 -07.6576 26257.8
 24 10 2013  03 51  -21.0009 26023.7 -03498.9 -07.6576 26257.8
 24 10 2013  03 52  -21.0009 26023.7 -03498.9 -07.6576 26257.9
 24 10 2013  03 53  -21.0008 26023.7 -03499.0 -07.6577 26257.9
 24 10 2013  03 54  -21.0008 26023.7 -03499.0 -07.6577 26257.9
 24 10 2013  03 55  -21.0010 26023.7 -03499.0 -07.6577 26257.9
 24 10 2013  03 56  -21.0010 26023.8 -03499.0 -07.6577 26257.9
 24 10 2013  03 57  -21.0010 26023.8 -03499.1 -07.6578 26258.0
 24 10 2013  03 58  -21.0009 26023.9 -03499.1 -07.6579 26258.1
 24 10 2013  03 59  -21.0010 26023.9 -03499.1 -07.6580 26258.1
 24 10 2013  04 00  -21.0011 26023.9 -03499.1 -07.6580 26258.0
 24 10 2013  04 01  -21.0010 26023.8 -03499.1 -07.6580 26258.0
 24 10 2013  04 02  -21.0010 26023.8 -03499.1 -07.6580 26258.0
 24 10 2013  04 03  -21.0011 26023.9 -03499.2 -07.6580 26258.0
 24 10 2013  04 04  -21.0012 26023.9 -03499.2 -07.6581 26258.1
 24 10 2013  04 05  -21.0013 26023.9 -03499.2 -07.6582 26258.1
 24 10 2013  04 06  -21.0015 26024.0 -03499.3 -07.6583 26258.2
 24 10 2013  04 07  -21.0017 26024.1 -03499.4 -07.6584 26258.3
 24 10 2013  04 08  -21.0018 26024.1 -03499.4 -07.6585 26258.4
 24 10 2013  04 09  -21.0019 26024.3 -03499.5 -07.6585 26258.5
 24 10 2013  04 10  -21.0019 26024.4 -03499.5 -07.6587 26258.6
 24 10 2013  04 11  -21.0019 26024.4 -03499.5 -07.6586 26258.6
 24 10 2013  04 12  -21.0019 26024.4 -03499.5 -07.6586 26258.6
 24 10 2013  04 13  -21.0019 26024.4 -03499.5 -07.6586 26258.6
 24 10 2013  04 14  -21.0019 26024.4 -03499.5 -07.6586 26258.6
 24 10 2013  04 15  -21.0019 26024.5 -03499.5 -07.6586 26258.7
 24 10 2013  04 16  -21.0020 26024.6 -03499.6 -07.6588 26258.8
 24 10 2013  04 17  -21.0021 26024.6 -03499.7 -07.6589 26258.9
 24 10 2013  04 18  -21.0021 26024.7 -03499.6 -07.6588 26258.9
 24 10 2013  04 19  -21.0021 26024.7 -03499.7 -07.6589 26258.9
 24 10 2013  04 20  -21.0020 26024.6 -03499.6 -07.6588 26258.9
 24 10 2013  04 21  -21.0020 26024.6 -03499.6 -07.6588 26258.8
 24 10 2013  04 22  -21.0019 26024.6 -03499.6 -07.6587 26258.8
 24 10 2013  04 23  -21.0019 26024.5 -03499.6 -07.6588 26258.8
 24 10 2013  04 24  -21.0021 26024.5 -03499.6 -07.6588 26258.7
 24 10 2013  04 25  -21.0020 26024.4 -03499.6 -07.6588 26258.7
 24 10 2013  04 26  -21.0020 26024.3 -03499.5 -07.6587 26258.6
 24 10 2013  04 27  -21.0021 26024.3 -03499.5 -07.6587 26258.5
 24 10 2013  04 28  -21.0021 26024.3 -03499.4 -07.6585 26258.5
 24 10 2013  04 29  -21.0022 26024.2 -03499.4 -07.6585 26258.4
 24 10 2013  04 30  -21.0023 26024.1 -03499.4 -07.6584 26258.3
 24 10 2013  04 31  -21.0025 26024.0 -03499.4 -07.6584 26258.3
 24 10 2013  04 32  -21.0025 26023.9 -03499.3 -07.6583 26258.1
 24 10 2013  04 33  -21.0025 26023.8 -03499.2 -07.6582 26258.0
 24 10 2013  04 34  -21.0026 26023.7 -03499.2 -07.6582 26257.9
 24 10 2013  04 35  -21.0026 26023.7 -03499.2 -07.6581 26257.9
 24 10 2013  04 36  -21.0025 26023.6 -03499.1 -07.6581 26257.7
 24 10 2013  04 37  -21.0026 26023.4 -03499.0 -07.6579 26257.5
 24 10 2013  04 38  -21.0028 26023.2 -03499.0 -07.6579 26257.4
 24 10 2013  04 39  -21.0029 26023.1 -03499.0 -07.6578 26257.3
 24 10 2013  04 40  -21.0031 26023.0 -03498.9 -07.6577 26257.2
 24 10 2013  04 41  -21.0034 26023.2 -03499.0 -07.6579 26257.3
 24 10 2013  04 42  -21.0034 26023.4 -03499.1 -07.6581 26257.6
 24 10 2013  04 43  -21.0033 26023.8 -03499.3 -07.6584 26258.0
 24 10 2013  04 44  -21.0031 26024.2 -03499.5 -07.6587 26258.4
 24 10 2013  04 45  -21.0026 26024.9 -03499.8 -07.6592 26259.2
 24 10 2013  04 46  -21.0021 26025.6 -03500.2 -07.6597 26259.9
 24 10 2013  04 47  -21.0016 26025.9 -03500.3 -07.6598 26260.2
 24 10 2013  04 48  -21.0014 26026.0 -03500.3 -07.6599 26260.3
 24 10 2013  04 49  -21.0009 26026.0 -03500.2 -07.6597 26260.3
 24 10 2013  04 50  -21.0005 26025.8 -03500.1 -07.6595 26260.1
 24 10 2013  04 51  -21.0000 26025.7 -03500.0 -07.6594 26260.0
 24 10 2013  04 52  -20.9998 26025.6 -03500.0 -07.6593 26259.9
 24 10 2013  04 53  -20.9997 26025.5 -03499.9 -07.6591 26259.8
 24 10 2013  04 54  -20.9994 26025.5 -03499.9 -07.6592 26259.8
 24 10 2013  04 55  -20.9992 26025.6 -03499.9 -07.6592 26259.9
 24 10 2013  04 56  -20.9990 26025.7 -03500.0 -07.6593 26260.0
 24 10 2013  04 57  -20.9989 26025.7 -03500.1 -07.6594 26260.0
 24 10 2013  04 58  -20.9988 26025.6 -03500.0 -07.6593 26259.9
 24 10 2013  04 59  -20.9988 26025.3 -03499.9 -07.6591 26259.5
 24 10 2013  05 00  -20.9990 26024.7 -03499.6 -07.6587 26259.0
 24 10 2013  05 01  -20.9989 26024.2 -03499.3 -07.6583 26258.5
 24 10 2013  05 02  -20.9991 26024.0 -03499.2 -07.6581 26258.2
 24 10 2013  05 03  -20.9992 26024.0 -03499.3 -07.6582 26258.2
 24 10 2013  05 04  -20.9994 26024.1 -03499.4 -07.6584 26258.4
 24 10 2013  05 05  -20.9997 26024.3 -03499.5 -07.6586 26258.5
 24 10 2013  05 06  -20.9999 26024.4 -03499.6 -07.6587 26258.6
 24 10 2013  05 07  -21.0001 26024.5 -03499.6 -07.6588 26258.7
 24 10 2013  05 08  -21.0003 26024.7 -03499.7 -07.6589 26258.9
 24 10 2013  05 09  -21.0005 26025.1 -03499.9 -07.6592 26259.4
 24 10 2013  05 10  -21.0002 26025.6 -03500.1 -07.6595 26259.9
 24 10 2013  05 11  -20.9997 26025.8 -03500.2 -07.6597 26260.1
 24 10 2013  05 12  -20.9994 26025.8 -03500.2 -07.6596 26260.1
 24 10 2013  05 13  -20.9991 26025.8 -03500.1 -07.6595 26260.1
 24 10 2013  05 14  -20.9987 26025.9 -03500.1 -07.6595 26260.2
 24 10 2013  05 15  -20.9983 26026.0 -03500.1 -07.6595 26260.3
 24 10 2013  05 16  -20.9980 26026.0 -03500.2 -07.6596 26260.3
 24 10 2013  05 17  -20.9978 26026.4 -03500.3 -07.6598 26260.7
 24 10 2013  05 18  -20.9977 26026.7 -03500.5 -07.6601 26261.1
 24 10 2013  05 19  -20.9974 26027.1 -03500.7 -07.6605 26261.5
 24 10 2013  05 20  -20.9972 26027.1 -03500.8 -07.6605 26261.5
 24 10 2013  05 21  -20.9971 26027.1 -03500.7 -07.6604 26261.4
 24 10 2013  05 22  -20.9969 26027.0 -03500.6 -07.6603 26261.4
 24 10 2013  05 23  -20.9968 26026.8 -03500.5 -07.6601 26261.1
 24 10 2013  05 24  -20.9969 26026.5 -03500.4 -07.6599 26260.8
 24 10 2013  05 25  -20.9968 26026.3 -03500.3 -07.6598 26260.7
 24 10 2013  05 26  -20.9967 26026.3 -03500.2 -07.6597 26260.6
 24 10 2013  05 27  -20.9966 26026.5 -03500.4 -07.6599 26260.9
 24 10 2013  05 28  -20.9966 26026.8 -03500.5 -07.6601 26261.1
 24 10 2013  05 29  -20.9967 26026.8 -03500.6 -07.6603 26261.2
 24 10 2013  05 30  -20.9968 26027.0 -03500.7 -07.6604 26261.3
 24 10 2013  05 31  -20.9967 26027.1 -03500.7 -07.6604 26261.5
 24 10 2013  05 32  -20.9968 26027.2 -03500.8 -07.6605 26261.5
 24 10 2013  05 33  -20.9967 26027.1 -03500.8 -07.6605 26261.5
 24 10 2013  05 34  -20.9967 26027.0 -03500.7 -07.6604 26261.4
 24 10 2013  05 35  -20.9966 26027.1 -03500.7 -07.6604 26261.5
 24 10 2013  05 36  -20.9963 26027.0 -03500.6 -07.6603 26261.3
 24 10 2013  05 37  -20.9963 26026.7 -03500.5 -07.6601 26261.0
 24 10 2013  05 38  -20.9963 26026.6 -03500.5 -07.6600 26261.0
 24 10 2013  05 39  -20.9964 26026.5 -03500.4 -07.6600 26260.9
 24 10 2013  05 40  -20.9965 26026.5 -03500.5 -07.6601 26260.9
 24 10 2013  05 41  -20.9966 26026.7 -03500.5 -07.6601 26261.0
 24 10 2013  05 42  -20.9967 26026.8 -03500.6 -07.6603 26261.1
 24 10 2013  05 43  -20.9967 26026.9 -03500.7 -07.6604 26261.3
 24 10 2013  05 44  -20.9969 26027.1 -03500.8 -07.6607 26261.5
 24 10 2013  05 45  -20.9970 26027.4 -03501.0 -07.6609 26261.8
 24 10 2013  05 46  -20.9970 26027.7 -03501.1 -07.6610 26262.1
 24 10 2013  05 47  -20.9969 26027.8 -03501.2 -07.6612 26262.3
 24 10 2013  05 48  -20.9969 26027.9 -03501.2 -07.6612 26262.3
 24 10 2013  05 49  -20.9968 26027.6 -03501.0 -07.6610 26262.0
 24 10 2013  05 50  -20.9967 26027.4 -03500.9 -07.6607 26261.8
 24 10 2013  05 51  -20.9966 26027.0 -03500.7 -07.6604 26261.4
 24 10 2013  05 52  -20.9967 26026.8 -03500.5 -07.6601 26261.1
 24 10 2013  05 53  -20.9967 26026.6 -03500.4 -07.6600 26261.0
 24 10 2013  05 54  -20.9967 26026.5 -03500.4 -07.6598 26260.8
 24 10 2013  05 55  -20.9969 26026.6 -03500.4 -07.6600 26260.9
 24 10 2013  05 56  -20.9969 26026.7 -03500.5 -07.6601 26261.0
 24 10 2013  05 57  -20.9970 26026.9 -03500.6 -07.6603 26261.2
 24 10 2013  05 58  -20.9971 26027.1 -03500.8 -07.6605 26261.5
 24 10 2013  05 59  -20.9970 26027.3 -03500.8 -07.6606 26261.6
 24 10 2013  06 00  -20.9970 26027.4 -03500.8 -07.6606 26261.7
 24 10 2013  06 01  -20.9970 26027.5 -03500.9 -07.6607 26261.8
 24 10 2013  06 02  -20.9970 26027.4 -03500.8 -07.6606 26261.8
 24 10 2013  06 03  -20.9969 26027.5 -03500.9 -07.6607 26261.9
 24 10 2013  06 04  -20.9968 26027.5 -03500.9 -07.6607 26261.9
 24 10 2013  06 05  -20.9967 26027.5 -03500.9 -07.6607 26261.9
 24 10 2013  06 06  -20.9966 26027.5 -03500.8 -07.6606 26261.8
 24 10 2013  06 07  -20.9966 26027.5 -03500.8 -07.6606 26261.9
 24 10 2013  06 08  -20.9965 26027.5 -03500.9 -07.6606 26261.9
 24 10 2013  06 09  -20.9965 26027.6 -03500.9 -07.6606 26261.9
 24 10 2013  06 10  -20.9965 26027.6 -03500.9 -07.6606 26262.0
 24 10 2013  06 11  -20.9966 26027.6 -03500.9 -07.6607 26262.0
 24 10 2013  06 12  -20.9966 26027.5 -03500.8 -07.6606 26261.9
 24 10 2013  06 13  -20.9966 26027.5 -03500.8 -07.6606 26261.9
 24 10 2013  06 14  -20.9966 26027.5 -03500.8 -07.6606 26261.9
 24 10 2013  06 15  -20.9967 26027.6 -03500.8 -07.6605 26261.9
 24 10 2013  06 16  -20.9967 26027.6 -03500.9 -07.6606 26262.0
 24 10 2013  06 17  -20.9968 26027.7 -03500.9 -07.6606 26262.0
 24 10 2013  06 18  -20.9968 26027.7 -03500.9 -07.6606 26262.1
 24 10 2013  06 19  -20.9969 26027.7 -03500.9 -07.6606 26262.1
 24 10 2013  06 20  -20.9969 26027.7 -03500.9 -07.6607 26262.1
 24 10 2013  06 21  -20.9970 26027.7 -03500.8 -07.6605 26262.1
 24 10 2013  06 22  -20.9970 26027.7 -03500.8 -07.6605 26262.1
 24 10 2013  06 23  -20.9970 26027.8 -03500.8 -07.6605 26262.1
 24 10 2013  06 24  -20.9971 26027.7 -03500.8 -07.6605 26262.1
 24 10 2013  06 25  -20.9970 26027.7 -03500.8 -07.6604 26262.1
 24 10 2013  06 26  -20.9971 26027.7 -03500.8 -07.6604 26262.0
 24 10 2013  06 27  -20.9971 26027.6 -03500.7 -07.6603 26262.0
 24 10 2013  06 28  -20.9971 26027.6 -03500.7 -07.6602 26261.9
 24 10 2013  06 29  -20.9972 26027.5 -03500.6 -07.6602 26261.9
 24 10 2013  06 30  -20.9971 26027.5 -03500.7 -07.6602 26261.9
 24 10 2013  06 31  -20.9970 26027.4 -03500.6 -07.6601 26261.8
 24 10 2013  06 32  -20.9971 26027.4 -03500.5 -07.6599 26261.7
 24 10 2013  06 33  -20.9972 26027.3 -03500.5 -07.6599 26261.7
 24 10 2013  06 34  -20.9973 26027.3 -03500.5 -07.6599 26261.6
 24 10 2013  06 35  -20.9974 26027.4 -03500.6 -07.6600 26261.7
 24 10 2013  06 36  -20.9974 26027.4 -03500.6 -07.6600 26261.8
 24 10 2013  06 37  -20.9974 26027.4 -03500.5 -07.6600 26261.8
 24 10 2013  06 38  -20.9974 26027.4 -03500.5 -07.6600 26261.7
 24 10 2013  06 39  -20.9974 26027.3 -03500.5 -07.6599 26261.7
 24 10 2013  06 40  -20.9975 26027.2 -03500.5 -07.6599 26261.6
 24 10 2013  06 41  -20.9976 26027.2 -03500.4 -07.6598 26261.5
 24 10 2013  06 42  -20.9977 26027.1 -03500.4 -07.6598 26261.5
 24 10 2013  06 43  -20.9978 26027.1 -03500.4 -07.6597 26261.4
 24 10 2013  06 44  -20.9978 26027.1 -03500.4 -07.6597 26261.4
 24 10 2013  06 45  -20.9979 26027.0 -03500.4 -07.6597 26261.4
 24 10 2013  06 46  -20.9979 26026.9 -03500.3 -07.6597 26261.3
 24 10 2013  06 47  -20.9980 26026.8 -03500.3 -07.6595 26261.1
 24 10 2013  06 48  -20.9981 26026.7 -03500.2 -07.6594 26261.1
 24 10 2013  06 49  -20.9982 26026.7 -03500.2 -07.6595 26261.0
 24 10 2013  06 50  -20.9983 26026.8 -03500.2 -07.6595 26261.1
 24 10 2013  06 51  -20.9984 26026.8 -03500.3 -07.6596 26261.1
 24 10 2013  06 52  -20.9985 26026.8 -03500.3 -07.6596 26261.1
 24 10 2013  06 53  -20.9986 26026.9 -03500.4 -07.6597 26261.2
 24 10 2013  06 54  -20.9986 26026.8 -03500.3 -07.6597 26261.1
 24 10 2013  06 55  -20.9987 26026.8 -03500.3 -07.6596 26261.1
 24 10 2013  06 56  -20.9988 26026.8 -03500.3 -07.6596 26261.1
 24 10 2013  06 57  -20.9988 26026.6 -03500.2 -07.6595 26261.0
 24 10 2013  06 58  -20.9988 26026.5 -03500.2 -07.6595 26260.9
 24 10 2013  06 59  -20.9990 26026.6 -03500.2 -07.6596 26260.9
 24 10 2013  07 00  -20.9990 26026.6 -03500.3 -07.6596 26260.9
 24 10 2013  07 01  -20.9991 26026.7 -03500.4 -07.6598 26261.1
 24 10 2013  07 02  -20.9991 26026.8 -03500.4 -07.6598 26261.1
 24 10 2013  07 03  -20.9991 26026.8 -03500.4 -07.6598 26261.1
 24 10 2013  07 04  -20.9991 26026.5 -03500.3 -07.6597 26260.9
 24 10 2013  07 05  -20.9995 26026.5 -03500.3 -07.6596 26260.8
 24 10 2013  07 06  -20.9995 26026.6 -03500.3 -07.6597 26260.9
 24 10 2013  07 07  -20.9993 26026.6 -03500.3 -07.6597 26260.9
 24 10 2013  07 08  -20.9992 26026.7 -03500.4 -07.6598 26261.0
 24 10 2013  07 09  -20.9991 26026.8 -03500.4 -07.6599 26261.1
 24 10 2013  07 10  -20.9991 26026.8 -03500.5 -07.6600 26261.2
 24 10 2013  07 11  -20.9990 26026.9 -03500.6 -07.6601 26261.3
 24 10 2013  07 12  -20.9988 26026.9 -03500.5 -07.6601 26261.2
 24 10 2013  07 13  -20.9987 26026.9 -03500.5 -07.6601 26261.2
 24 10 2013  07 14  -20.9986 26026.9 -03500.5 -07.6601 26261.3
 24 10 2013  07 15  -20.9985 26027.0 -03500.6 -07.6602 26261.3
 24 10 2013  07 16  -20.9983 26027.0 -03500.6 -07.6603 26261.4
 24 10 2013  07 17  -20.9984 26027.1 -03500.7 -07.6604 26261.5
 24 10 2013  07 18  -20.9983 26027.2 -03500.8 -07.6605 26261.6
 24 10 2013  07 19  -20.9982 26027.3 -03500.8 -07.6606 26261.6
 24 10 2013  07 20  -20.9981 26027.3 -03500.8 -07.6606 26261.6
 24 10 2013  07 21  -20.9981 26027.1 -03500.7 -07.6605 26261.5
 24 10 2013  07 22  -20.9982 26027.0 -03500.7 -07.6604 26261.4
 24 10 2013  07 23  -20.9983 26027.1 -03500.7 -07.6604 26261.4
 24 10 2013  07 24  -20.9983 26027.1 -03500.7 -07.6605 26261.5
 24 10 2013  07 25  -20.9982 26027.2 -03500.8 -07.6605 26261.5
 24 10 2013  07 26  -20.9981 26027.0 -03500.7 -07.6605 26261.4
 24 10 2013  07 27  -20.9980 26027.0 -03500.7 -07.6604 26261.4
 24 10 2013  07 28  -20.9981 26027.0 -03500.7 -07.6605 26261.3
 24 10 2013  07 29  -20.9982 26027.0 -03500.7 -07.6605 26261.4
 24 10 2013  07 30  -20.9982 26027.0 -03500.8 -07.6606 26261.4
 24 10 2013  07 31  -20.9981 26027.0 -03500.8 -07.6606 26261.4
 24 10 2013  07 32  -20.9980 26027.0 -03500.8 -07.6606 26261.4
 24 10 2013  07 33  -20.9979 26027.1 -03500.8 -07.6607 26261.5
 24 10 2013  07 34  -20.9978 26027.1 -03500.9 -07.6607 26261.5
 24 10 2013  07 35  -20.9977 26027.1 -03500.9 -07.6608 26261.5
 24 10 2013  07 36  -20.9977 26027.1 -03500.9 -07.6608 26261.5
 24 10 2013  07 37  -20.9978 26027.0 -03500.9 -07.6608 26261.4
 24 10 2013  07 38  -20.9978 26027.0 -03500.9 -07.6608 26261.4
 24 10 2013  07 39  -20.9978 26027.0 -03500.9 -07.6608 26261.4
 24 10 2013  07 40  -20.9978 26027.0 -03500.9 -07.6609 26261.4
 24 10 2013  07 41  -20.9977 26026.9 -03500.9 -07.6608 26261.3
 24 10 2013  07 42  -20.9978 26026.9 -03500.9 -07.6608 26261.3
 24 10 2013  07 43  -20.9977 26027.0 -03501.0 -07.6610 26261.4
 24 10 2013  07 44  -20.9976 26027.0 -03501.0 -07.6611 26261.4
 24 10 2013  07 45  -20.9977 26027.1 -03501.0 -07.6611 26261.5
 24 10 2013  07 46  -20.9977 26027.1 -03501.1 -07.6612 26261.5
 24 10 2013  07 47  -20.9976 26027.1 -03501.1 -07.6613 26261.6
 24 10 2013  07 48  -20.9975 26027.1 -03501.1 -07.6614 26261.6
 24 10 2013  07 49  -20.9973 26027.1 -03501.2 -07.6615 26261.6
 24 10 2013  07 50  -20.9972 26027.1 -03501.2 -07.6614 26261.6
 24 10 2013  07 51  -20.9973 26027.1 -03501.2 -07.6616 26261.5
 24 10 2013  07 52  -20.9972 26027.0 -03501.2 -07.6615 26261.5
 24 10 2013  07 53  -20.9970 26026.9 -03501.2 -07.6615 26261.3
 24 10 2013  07 54  -20.9970 26026.9 -03501.2 -07.6616 26261.4
 24 10 2013  07 55  -20.9970 26027.0 -03501.3 -07.6618 26261.5
 24 10 2013  07 56  -20.9967 26027.0 -03501.3 -07.6618 26261.5
 24 10 2013  07 57  -20.9967 26027.2 -03501.5 -07.6621 26261.6
 24 10 2013  07 58  -20.9964 26027.3 -03501.6 -07.6622 26261.8
 24 10 2013  07 59  -20.9964 26027.3 -03501.6 -07.6624 26261.8
 24 10 2013  08 00  -20.9965 26027.5 -03501.8 -07.6626 26262.0
 24 10 2013  08 01  -20.9964 26027.5 -03501.9 -07.6628 26262.1
 24 10 2013  08 02  -20.9963 26027.5 -03501.9 -07.6628 26262.1
 24 10 2013  08 03  -20.9963 26027.6 -03501.9 -07.6629 26262.1
 24 10 2013  08 04  -20.9962 26027.6 -03501.9 -07.6629 26262.1
 24 10 2013  08 05  -20.9960 26027.5 -03501.9 -07.6629 26262.1
 24 10 2013  08 06  -20.9959 26027.4 -03501.8 -07.6628 26261.9
 24 10 2013  08 07  -20.9959 26027.3 -03501.8 -07.6628 26261.8
 24 10 2013  08 08  -20.9961 26027.3 -03501.8 -07.6628 26261.8
 24 10 2013  08 09  -20.9960 26027.1 -03501.8 -07.6627 26261.6
 24 10 2013  08 10  -20.9963 26026.9 -03501.8 -07.6627 26261.5
 24 10 2013  08 11  -20.9962 26026.8 -03501.7 -07.6627 26261.4
 24 10 2013  08 12  -20.9961 26026.7 -03501.6 -07.6625 26261.2
 24 10 2013  08 13  -20.9963 26026.7 -03501.6 -07.6626 26261.2
 24 10 2013  08 14  -20.9963 26026.9 -03501.7 -07.6627 26261.5
 24 10 2013  08 15  -20.9960 26026.9 -03501.8 -07.6628 26261.4
 24 10 2013  08 16  -20.9959 26026.8 -03501.7 -07.6627 26261.3
 24 10 2013  08 17  -20.9959 26026.7 -03501.7 -07.6627 26261.2
 24 10 2013  08 18  -20.9959 26026.7 -03501.7 -07.6627 26261.2
 24 10 2013  08 19  -20.9959 26026.9 -03501.8 -07.6628 26261.4
 24 10 2013  08 20  -20.9955 26027.1 -03501.8 -07.6629 26261.6
 24 10 2013  08 21  -20.9951 26027.1 -03501.8 -07.6629 26261.7
 24 10 2013  08 22  -20.9949 26027.1 -03501.8 -07.6628 26261.6
 24 10 2013  08 23  -20.9948 26027.1 -03501.8 -07.6628 26261.7
 24 10 2013  08 24  -20.9944 26027.1 -03501.7 -07.6627 26261.6
 24 10 2013  08 25  -20.9941 26027.0 -03501.7 -07.6626 26261.5
 24 10 2013  08 26  -20.9938 26026.9 -03501.6 -07.6625 26261.4
 24 10 2013  08 27  -20.9936 26026.8 -03501.6 -07.6625 26261.3
 24 10 2013  08 28  -20.9932 26026.8 -03501.7 -07.6626 26261.3
 24 10 2013  08 29  -20.9924 26026.5 -03501.6 -07.6625 26261.0
 24 10 2013  08 30  -20.9923 26026.1 -03501.5 -07.6624 26260.6
 24 10 2013  08 31  -20.9921 26025.8 -03501.5 -07.6625 26260.3
 24 10 2013  08 32  -20.9921 26025.3 -03501.4 -07.6624 26259.8
 24 10 2013  08 33  -20.9925 26025.2 -03501.4 -07.6626 26259.7
 24 10 2013  08 34  -20.9924 26025.0 -03501.5 -07.6628 26259.5
 24 10 2013  08 35  -20.9920 26024.7 -03501.6 -07.6630 26259.2
 24 10 2013  08 36  -20.9918 26024.6 -03501.7 -07.6632 26259.2
 24 10 2013  08 37  -20.9914 26024.6 -03501.8 -07.6636 26259.1
 24 10 2013  08 38  -20.9908 26024.6 -03502.0 -07.6640 26259.2
 24 10 2013  08 39  -20.9905 26024.7 -03502.3 -07.6645 26259.3
 24 10 2013  08 40  -20.9904 26024.8 -03502.5 -07.6651 26259.4
 24 10 2013  08 41  -20.9903 26024.9 -03502.8 -07.6656 26259.5
 24 10 2013  08 42  -20.9902 26025.0 -03503.0 -07.6661 26259.7
 24 10 2013  08 43  -20.9900 26025.1 -03503.2 -07.6665 26259.8
 24 10 2013  08 44  -20.9897 26025.1 -03503.4 -07.6668 26259.9
 24 10 2013  08 45  -20.9899 26025.2 -03503.5 -07.6671 26260.0
 24 10 2013  08 46  -20.9902 26025.3 -03503.8 -07.6677 26260.1
 24 10 2013  08 47  -20.9907 26025.5 -03504.0 -07.6681 26260.3
 24 10 2013  08 48  -20.9912 26025.5 -03504.1 -07.6683 26260.3
 24 10 2013  08 49  -20.9918 26025.5 -03504.3 -07.6686 26260.4
 24 10 2013  08 50  -20.9923 26025.6 -03504.4 -07.6689 26260.5
 24 10 2013  08 51  -20.9928 26025.6 -03504.5 -07.6691 26260.5
 24 10 2013  08 52  -20.9933 26025.7 -03504.7 -07.6694 26260.6
 24 10 2013  08 53  -20.9938 26025.7 -03504.7 -07.6696 26260.6
 24 10 2013  08 54  -20.9945 26025.5 -03504.8 -07.6698 26260.4
 24 10 2013  08 55  -20.9954 26025.4 -03504.8 -07.6697 26260.3
 24 10 2013  08 56  -20.9962 26025.2 -03504.8 -07.6698 26260.2
 24 10 2013  08 57  -20.9974 26025.3 -03504.9 -07.6701 26260.2
 24 10 2013  08 58  -20.9986 26025.3 -03505.0 -07.6702 26260.3
 24 10 2013  08 59  -20.9994 26025.4 -03505.0 -07.6703 26260.3
 24 10 2013  09 00  -20.9998 26025.1 -03505.0 -07.6703 26260.1
 24 10 2013  09 01  -21.0001 26024.8 -03504.8 -07.6700 26259.8
 24 10 2013  09 02  -21.0008 26024.6 -03504.8 -07.6701 26259.5
 24 10 2013  09 03  -21.0015 26024.5 -03504.9 -07.6703 26259.5
 24 10 2013  09 04  -21.0020 26024.4 -03505.0 -07.6705 26259.4
 24 10 2013  09 05  -21.0023 26024.4 -03505.1 -07.6707 26259.4
 24 10 2013  09 06  -21.0031 26024.5 -03505.2 -07.6710 26259.5
 24 10 2013  09 07  -21.0044 26024.8 -03505.4 -07.6712 26259.8
 24 10 2013  09 08  -21.0054 26025.1 -03505.5 -07.6714 26260.1
 24 10 2013  09 09  -21.0056 26025.1 -03505.6 -07.6715 26260.1
 24 10 2013  09 10  -21.0061 26025.2 -03505.6 -07.6716 26260.2
 24 10 2013  09 11  -21.0065 26025.2 -03505.7 -07.6718 26260.3
 24 10 2013  09 12  -21.0071 26025.2 -03505.7 -07.6718 26260.2
 24 10 2013  09 13  -21.0078 26025.0 -03505.6 -07.6716 26260.0
 24 10 2013  09 14  -21.0090 26025.1 -03505.5 -07.6714 26260.2
 24 10 2013  09 15  -21.0105 26025.1 -03505.6 -07.6716 26260.1
 24 10 2013  09 16  -21.0121 26025.3 -03505.7 -07.6717 26260.4
 24 10 2013  09 17  -21.0127 26025.4 -03505.6 -07.6716 26260.4
 24 10 2013  09 18  -21.0134 26025.4 -03505.6 -07.6715 26260.5
 24 10 2013  09 19  -21.0136 26025.6 -03505.7 -07.6717 26260.7
 24 10 2013  09 20  -21.0140 26025.9 -03505.8 -07.6718 26261.0
 24 10 2013  09 21  -21.0145 26026.1 -03505.9 -07.6719 26261.2
 24 10 2013  09 22  -21.0149 26026.4 -03506.0 -07.6721 26261.5
 24 10 2013  09 23  -21.0149 26026.3 -03506.0 -07.6720 26261.4
 24 10 2013  09 24  -21.0155 26026.2 -03505.9 -07.6718 26261.3
 24 10 2013  09 25  -21.0174 26026.6 -03506.0 -07.6719 26261.7
 24 10 2013  09 26  -21.0186 26027.3 -03506.3 -07.6725 26262.4
 24 10 2013  09 27  -21.0175 26027.4 -03506.3 -07.6725 26262.5
 24 10 2013  09 28  -21.0165 26027.6 -03506.4 -07.6725 26262.7
 24 10 2013  09 29  -21.0165 26028.1 -03506.7 -07.6730 26263.2
 24 10 2013  09 30  -21.0168 26028.5 -03506.8 -07.6733 26263.6
 24 10 2013  09 31  -21.0175 26028.7 -03506.9 -07.6734 26263.9
 24 10 2013  09 32  -21.0182 26028.9 -03506.9 -07.6733 26264.0
 24 10 2013  09 33  -21.0200 26029.3 -03506.9 -07.6733 26264.5
 24 10 2013  09 34  -21.0217 26030.1 -03507.1 -07.6734 26265.3
 24 10 2013  09 35  -21.0220 26030.2 -03506.9 -07.6730 26265.3
 24 10 2013  09 36  -21.0222 26029.9 -03506.6 -07.6725 26265.0
 24 10 2013  09 37  -21.0231 26029.8 -03506.5 -07.6721 26264.9
 24 10 2013  09 38  -21.0239 26029.7 -03506.3 -07.6718 26264.8
 24 10 2013  09 39  -21.0247 26029.5 -03506.2 -07.6716 26264.6
 24 10 2013  09 40  -21.0255 26029.5 -03506.2 -07.6715 26264.6
 24 10 2013  09 41  -21.0260 26029.5 -03506.1 -07.6714 26264.5
 24 10 2013  09 42  -21.0262 26029.4 -03506.0 -07.6713 26264.4
 24 10 2013  09 43  -21.0264 26029.5 -03506.0 -07.6712 26264.5
 24 10 2013  09 44  -21.0266 26029.5 -03506.0 -07.6712 26264.6
 24 10 2013  09 45  -21.0271 26029.7 -03506.0 -07.6712 26264.8
 24 10 2013  09 46  -21.0279 26029.9 -03506.1 -07.6712 26265.0
 24 10 2013  09 47  -21.0286 26030.1 -03506.1 -07.6711 26265.1
 24 10 2013  09 48  -21.0296 26030.2 -03506.0 -07.6709 26265.3
 24 10 2013  09 49  -21.0304 26030.2 -03505.9 -07.6707 26265.2
 24 10 2013  09 50  -21.0308 26030.0 -03505.6 -07.6702 26265.0
 24 10 2013  09 51  -21.0322 26030.3 -03505.7 -07.6702 26265.3
 24 10 2013  09 52  -21.0328 26030.3 -03505.6 -07.6700 26265.3
 24 10 2013  09 53  -21.0333 26030.3 -03505.4 -07.6696 26265.2
 24 10 2013  09 54  -21.0339 26030.3 -03505.3 -07.6694 26265.3
 24 10 2013  09 55  -21.0346 26030.7 -03505.3 -07.6693 26265.7
 24 10 2013  09 56  -21.0349 26031.1 -03505.4 -07.6693 26266.1
 24 10 2013  09 57  -21.0343 26031.4 -03505.3 -07.6692 26266.3
 24 10 2013  09 58  -21.0330 26031.4 -03505.3 -07.6691 26266.4
 24 10 2013  09 59  -21.0327 26031.9 -03505.4 -07.6691 26266.8
 24 10 2013  10 00  -21.0342 26032.8 -03505.7 -07.6695 26267.8
 24 10 2013  10 01  -21.0356 26033.4 -03505.7 -07.6694 26268.4
 24 10 2013  10 02  -21.0371 26033.9 -03505.6 -07.6690 26268.8
 24 10 2013  10 03  -21.0383 26034.3 -03505.5 -07.6686 26269.3
 24 10 2013  10 04  -21.0401 26034.7 -03505.3 -07.6681 26269.6
 24 10 2013  10 05  -21.0419 26034.3 -03504.8 -07.6673 26269.1
 24 10 2013  10 06  -21.0438 26033.7 -03504.4 -07.6666 26268.5
 24 10 2013  10 07  -21.0456 26032.5 -03503.8 -07.6656 26267.2
 24 10 2013  10 08  -21.0471 26031.4 -03503.4 -07.6650 26266.1
 24 10 2013  10 09  -21.0480 26029.7 -03502.6 -07.6639 26264.4
 24 10 2013  10 10  -21.0522 26028.8 -03502.4 -07.6636 26263.4
 24 10 2013  10 11  -21.0528 26027.2 -03502.0 -07.6632 26261.7
 24 10 2013  10 12  -21.0535 26026.2 -03501.9 -07.6633 26260.8
 24 10 2013  10 13  -21.0537 26025.5 -03502.0 -07.6636 26260.1
 24 10 2013  10 14  -21.0540 26025.4 -03502.3 -07.6643 26260.0
 24 10 2013  10 15  -21.0540 26025.7 -03502.6 -07.6648 26260.3
 24 10 2013  10 16  -21.0547 26026.2 -03502.8 -07.6652 26260.8
 24 10 2013  10 17  -21.0551 26026.4 -03502.9 -07.6654 26261.1
 24 10 2013  10 18  -21.0554 26026.9 -03503.0 -07.6655 26261.6
 24 10 2013  10 19  -21.0558 26027.4 -03503.1 -07.6655 26262.1
 24 10 2013  10 20  -21.0565 26027.9 -03503.1 -07.6654 26262.6
 24 10 2013  10 21  -21.0570 26028.4 -03503.1 -07.6653 26263.0
 24 10 2013  10 22  -21.0574 26028.9 -03503.1 -07.6650 26263.5
 24 10 2013  10 23  -21.0577 26029.3 -03503.0 -07.6647 26263.9
 24 10 2013  10 24  -21.0579 26029.5 -03502.8 -07.6643 26264.2
 24 10 2013  10 25  -21.0585 26029.9 -03502.7 -07.6639 26264.5
 24 10 2013  10 26  -21.0590 26030.1 -03502.5 -07.6635 26264.7
 24 10 2013  10 27  -21.0593 26030.3 -03502.4 -07.6631 26264.9
 24 10 2013  10 28  -21.0598 26030.6 -03502.3 -07.6628 26265.1
 24 10 2013  10 29  -21.0614 26031.6 -03502.6 -07.6631 26266.2
 24 10 2013  10 30  -21.0599 26032.0 -03502.5 -07.6628 26266.6
 24 10 2013  10 31  -21.0593 26032.2 -03502.3 -07.6624 26266.8
 24 10 2013  10 32  -21.0596 26032.7 -03502.3 -07.6623 26267.2
 24 10 2013  10 33  -21.0604 26032.8 -03502.2 -07.6621 26267.3
 24 10 2013  10 34  -21.0633 26032.1 -03502.0 -07.6618 26266.6
 24 10 2013  10 35  -21.0663 26031.1 -03501.8 -07.6617 26265.5
 24 10 2013  10 36  -21.0682 26031.8 -03502.3 -07.6624 26266.3
 24 10 2013  10 37  -21.0687 26033.5 -03502.8 -07.6632 26268.1
 24 10 2013  10 38  -21.0688 26035.0 -03503.0 -07.6631 26269.6
 24 10 2013  10 39  -21.0687 26036.1 -03502.9 -07.6625 26270.7
 24 10 2013  10 40  -21.0686 26036.8 -03502.6 -07.6616 26271.3
 24 10 2013  10 41  -21.0686 26037.2 -03502.2 -07.6607 26271.7
 24 10 2013  10 42  -21.0680 26037.7 -03501.9 -07.6599 26272.1
 24 10 2013  10 43  -21.0680 26038.2 -03501.6 -07.6592 26272.6
 24 10 2013  10 44  -21.0682 26038.5 -03501.3 -07.6585 26272.9
 24 10 2013  10 45  -21.0680 26039.0 -03501.1 -07.6578 26273.3
 24 10 2013  10 46  -21.0681 26039.3 -03500.8 -07.6570 26273.6
 24 10 2013  10 47  -21.0684 26039.5 -03500.4 -07.6562 26273.7
 24 10 2013  10 48  -21.0686 26039.6 -03500.1 -07.6555 26273.8
 24 10 2013  10 49  -21.0685 26039.7 -03499.8 -07.6549 26273.9
 24 10 2013  10 50  -21.0684 26039.6 -03499.5 -07.6543 26273.7
 24 10 2013  10 51  -21.0683 26039.4 -03499.2 -07.6537 26273.5
 24 10 2013  10 52  -21.0681 26039.4 -03499.0 -07.6532 26273.4
 24 10 2013  10 53  -21.0678 26039.3 -03498.9 -07.6529 26273.3
 24 10 2013  10 54  -21.0675 26039.3 -03498.7 -07.6527 26273.3
 24 10 2013  10 55  -21.0673 26039.3 -03498.6 -07.6524 26273.3
 24 10 2013  10 56  -21.0673 26039.3 -03498.5 -07.6522 26273.3
 24 10 2013  10 57  -21.0672 26039.4 -03498.5 -07.6520 26273.4
 24 10 2013  10 58  -21.0672 26039.7 -03498.4 -07.6518 26273.7
 24 10 2013  10 59  -21.0672 26039.9 -03498.3 -07.6516 26273.9
 24 10 2013  11 00  -21.0668 26040.0 -03498.2 -07.6513 26274.0
 24 10 2013  11 01  -21.0665 26040.2 -03498.1 -07.6510 26274.1
 24 10 2013  11 02  -21.0668 26040.6 -03498.0 -07.6507 26274.5
 24 10 2013  11 03  -21.0671 26040.9 -03497.9 -07.6504 26274.8
 24 10 2013  11 04  -21.0673 26041.2 -03497.8 -07.6500 26275.0
 24 10 2013  11 05  -21.0674 26041.5 -03497.7 -07.6497 26275.3
 24 10 2013  11 06  -21.0676 26041.8 -03497.5 -07.6493 26275.6
 24 10 2013  11 07  -21.0676 26042.1 -03497.4 -07.6489 26275.9
 24 10 2013  11 08  -21.0677 26042.4 -03497.2 -07.6484 26276.2
 24 10 2013  11 09  -21.0678 26042.8 -03497.1 -07.6480 26276.5
 24 10 2013  11 10  -21.0680 26043.0 -03496.8 -07.6474 26276.7
 24 10 2013  11 11  -21.0681 26043.3 -03496.6 -07.6469 26276.9
 24 10 2013  11 12  -21.0685 26043.7 -03496.5 -07.6465 26277.3
 24 10 2013  11 13  -21.0684 26044.0 -03496.4 -07.6461 26277.7
 24 10 2013  11 14  -21.0684 26044.5 -03496.2 -07.6457 26278.1
 24 10 2013  11 15  -21.0685 26044.9 -03496.1 -07.6453 26278.5
 24 10 2013  11 16  -21.0687 26045.2 -03495.9 -07.6448 26278.8
 24 10 2013  11 17  -21.0688 26045.4 -03495.7 -07.6442 26279.0
 24 10 2013  11 18  -21.0690 26045.7 -03495.5 -07.6438 26279.2
 24 10 2013  11 19  -21.0693 26046.0 -03495.4 -07.6434 26279.5
 24 10 2013  11 20  -21.0695 26046.3 -03495.3 -07.6431 26279.8
 24 10 2013  11 21  -21.0698 26046.5 -03495.1 -07.6427 26280.0
 24 10 2013  11 22  -21.0697 26046.7 -03495.0 -07.6423 26280.1
 24 10 2013  11 23  -21.0704 26047.1 -03494.9 -07.6420 26280.5
 24 10 2013  11 24  -21.0704 26047.3 -03494.8 -07.6417 26280.7
 24 10 2013  11 25  -21.0705 26047.8 -03494.7 -07.6415 26281.2
 24 10 2013  11 26  -21.0710 26048.1 -03494.6 -07.6412 26281.5
 24 10 2013  11 27  -21.0712 26048.4 -03494.5 -07.6408 26281.8
 24 10 2013  11 28  -21.0715 26048.8 -03494.4 -07.6405 26282.1
 24 10 2013  11 29  -21.0719 26049.1 -03494.3 -07.6401 26282.4
 24 10 2013  11 30  -21.0721 26049.5 -03494.2 -07.6398 26282.8
 24 10 2013  11 31  -21.0723 26049.8 -03494.0 -07.6393 26283.1
 24 10 2013  11 32  -21.0725 26050.0 -03493.8 -07.6388 26283.3
 24 10 2013  11 33  -21.0730 26050.3 -03493.7 -07.6386 26283.5
 24 10 2013  11 34  -21.0726 26050.9 -03493.7 -07.6384 26284.1
 24 10 2013  11 35  -21.0726 26051.4 -03493.6 -07.6381 26284.6
 24 10 2013  11 36  -21.0727 26051.7 -03493.5 -07.6376 26284.9
 24 10 2013  11 37  -21.0729 26052.2 -03493.4 -07.6373 26285.4
 24 10 2013  11 38  -21.0731 26052.6 -03493.2 -07.6369 26285.7
 24 10 2013  11 39  -21.0732 26053.0 -03493.0 -07.6364 26286.1
 24 10 2013  11 40  -21.0736 26053.5 -03492.9 -07.6360 26286.6
 24 10 2013  11 41  -21.0736 26053.9 -03492.8 -07.6355 26287.0
 24 10 2013  11 42  -21.0740 26054.3 -03492.6 -07.6351 26287.4
 24 10 2013  11 43  -21.0742 26054.6 -03492.4 -07.6345 26287.7
 24 10 2013  11 44  -21.0745 26054.8 -03492.2 -07.6340 26287.8
 24 10 2013  11 45  -21.0747 26055.1 -03492.0 -07.6334 26288.1
 24 10 2013  11 46  -21.0750 26055.3 -03491.8 -07.6329 26288.2
 24 10 2013  11 47  -21.0754 26055.5 -03491.6 -07.6324 26288.4
 24 10 2013  11 48  -21.0758 26055.9 -03491.5 -07.6321 26288.8
 24 10 2013  11 49  -21.0762 26056.2 -03491.4 -07.6318 26289.1
 24 10 2013  11 50  -21.0765 26056.4 -03491.2 -07.6314 26289.3
 24 10 2013  11 51  -21.0767 26056.8 -03491.1 -07.6310 26289.6
 24 10 2013  11 52  -21.0769 26057.1 -03490.9 -07.6306 26289.9
 24 10 2013  11 53  -21.0771 26057.2 -03490.8 -07.6302 26290.0
 24 10 2013  11 54  -21.0777 26057.3 -03490.6 -07.6298 26290.1
 24 10 2013  11 55  -21.0782 26057.7 -03490.6 -07.6298 26290.5
 24 10 2013  11 56  -21.0776 26058.9 -03490.9 -07.6301 26291.6
 24 10 2013  11 57  -21.0771 26059.9 -03491.1 -07.6301 26292.7
 24 10 2013  11 58  -21.0767 26060.6 -03491.1 -07.6299 26293.4
 24 10 2013  11 59  -21.0763 26061.3 -03491.0 -07.6295 26294.1
 24 10 2013  12 00  -21.0761 26062.0 -03490.9 -07.6291 26294.7
 24 10 2013  12 01  -21.0765 26062.6 -03490.8 -07.6287 26295.3
 24 10 2013  12 02  -21.0767 26063.1 -03490.7 -07.6283 26295.9
 24 10 2013  12 03  -21.0768 26063.6 -03490.5 -07.6277 26296.3
 24 10 2013  12 04  -21.0768 26063.9 -03490.2 -07.6270 26296.6
 24 10 2013  12 05  -21.0767 26064.3 -03489.9 -07.6263 26296.9
 24 10 2013  12 06  -21.0767 26064.6 -03489.7 -07.6257 26297.2
 24 10 2013  12 07  -21.0766 26064.7 -03489.3 -07.6249 26297.2
 24 10 2013  12 08  -21.0767 26064.8 -03489.0 -07.6242 26297.3
 24 10 2013  12 09  -21.0771 26064.8 -03488.7 -07.6235 26297.3
 24 10 2013  12 10  -21.0772 26064.8 -03488.3 -07.6227 26297.1
 24 10 2013  12 11  -21.0771 26065.2 -03488.2 -07.6224 26297.5
 24 10 2013  12 12  -21.0768 26065.7 -03488.1 -07.6220 26298.1
 24 10 2013  12 13  -21.0765 26066.0 -03487.9 -07.6215 26298.3
 24 10 2013  12 14  -21.0761 26066.4 -03487.7 -07.6210 26298.7
 24 10 2013  12 15  -21.0758 26066.8 -03487.5 -07.6204 26299.1
 24 10 2013  12 16  -21.0755 26067.2 -03487.3 -07.6199 26299.5
 24 10 2013  12 17  -21.0754 26067.4 -03487.0 -07.6191 26299.6
 24 10 2013  12 18  -21.0754 26067.3 -03486.6 -07.6183 26299.5
 24 10 2013  12 19  -21.0755 26067.5 -03486.4 -07.6177 26299.7
 24 10 2013  12 20  -21.0757 26067.9 -03486.2 -07.6173 26300.0
 24 10 2013  12 21  -21.0757 26068.4 -03486.1 -07.6169 26300.5
 24 10 2013  12 22  -21.0753 26068.8 -03485.9 -07.6163 26300.8
 24 10 2013  12 23  -21.0751 26069.1 -03485.6 -07.6157 26301.1
 24 10 2013  12 24  -21.0747 26069.3 -03485.4 -07.6151 26301.3
 24 10 2013  12 25  -21.0744 26069.6 -03485.2 -07.6145 26301.5
 24 10 2013  12 26  -21.0740 26069.6 -03484.8 -07.6138 26301.5
 24 10 2013  12 27  -21.0739 26069.8 -03484.6 -07.6133 26301.6
 24 10 2013  12 28  -21.0734 26070.1 -03484.5 -07.6129 26301.9
 24 10 2013  12 29  -21.0730 26070.0 -03484.1 -07.6121 26301.8
 24 10 2013  12 30  -21.0731 26069.1 -03483.5 -07.6111 26300.9
 24 10 2013  12 31  -21.0731 26068.6 -03483.2 -07.6105 26300.3
 24 10 2013  12 32  -21.0729 26068.5 -03483.1 -07.6104 26300.2
 24 10 2013  12 33  -21.0728 26068.6 -03483.1 -07.6103 26300.3
 24 10 2013  12 34  -21.0724 26069.0 -03483.2 -07.6104 26300.7
 24 10 2013  12 35  -21.0720 26069.6 -03483.3 -07.6105 26301.3
 24 10 2013  12 36  -21.0714 26069.9 -03483.3 -07.6105 26301.6
 24 10 2013  12 37  -21.0709 26071.0 -03483.7 -07.6109 26302.7
 24 10 2013  12 38  -21.0702 26072.3 -03484.0 -07.6112 26304.1
 24 10 2013  12 39  -21.0695 26073.2 -03484.0 -07.6110 26304.9
 24 10 2013  12 40  -21.0690 26073.7 -03483.8 -07.6105 26305.5
 24 10 2013  12 41  -21.0687 26074.2 -03483.7 -07.6100 26305.9
 24 10 2013  12 42  -21.0683 26074.5 -03483.5 -07.6094 26306.2
 24 10 2013  12 43  -21.0681 26074.8 -03483.2 -07.6088 26306.5
 24 10 2013  12 44  -21.0678 26075.3 -03483.1 -07.6084 26306.9
 24 10 2013  12 45  -21.0680 26075.1 -03482.6 -07.6074 26306.6
 24 10 2013  12 46  -21.0684 26074.3 -03482.0 -07.6063 26305.8
 24 10 2013  12 47  -21.0687 26074.2 -03481.7 -07.6058 26305.6
 24 10 2013  12 48  -21.0689 26074.3 -03481.6 -07.6054 26305.7
 24 10 2013  12 49  -21.0690 26074.2 -03481.3 -07.6049 26305.6
 24 10 2013  12 50  -21.0690 26074.0 -03481.1 -07.6044 26305.4
 24 10 2013  12 51  -21.0689 26074.3 -03481.0 -07.6042 26305.6
 24 10 2013  12 52  -21.0685 26075.3 -03481.2 -07.6043 26306.6
 24 10 2013  12 53  -21.0681 26075.1 -03480.8 -07.6034 26306.4
 24 10 2013  12 54  -21.0679 26073.9 -03480.0 -07.6022 26305.1
 24 10 2013  12 55  -21.0677 26073.2 -03479.6 -07.6016 26304.4
 24 10 2013  12 56  -21.0675 26073.7 -03479.9 -07.6019 26304.9
 24 10 2013  12 57  -21.0670 26074.4 -03480.0 -07.6020 26305.6
 24 10 2013  12 58  -21.0665 26074.7 -03480.0 -07.6018 26305.9
 24 10 2013  12 59  -21.0661 26074.9 -03479.9 -07.6016 26306.1
 24 10 2013  13 00  -21.0655 26075.1 -03479.8 -07.6013 26306.2
 24 10 2013  13 01  -21.0650 26075.2 -03479.7 -07.6011 26306.4
 24 10 2013  13 02  -21.0646 26075.7 -03479.8 -07.6011 26306.9
 24 10 2013  13 03  -21.0645 26076.3 -03479.8 -07.6011 26307.5
 24 10 2013  13 04  -21.0640 26076.7 -03479.7 -07.6007 26307.8
 24 10 2013  13 05  -21.0637 26077.0 -03479.6 -07.6004 26308.2
 24 10 2013  13 06  -21.0635 26077.6 -03479.6 -07.6001 26308.7
 24 10 2013  13 07  -21.0630 26078.0 -03479.4 -07.5997 26309.1
 24 10 2013  13 08  -21.0624 26078.2 -03479.3 -07.5993 26309.3
 24 10 2013  13 09  -21.0618 26078.4 -03479.1 -07.5990 26309.5
 24 10 2013  13 10  -21.0612 26078.6 -03479.0 -07.5986 26309.7
 24 10 2013  13 11  -21.0607 26079.0 -03479.0 -07.5984 26310.0
 24 10 2013  13 12  -21.0601 26079.3 -03478.9 -07.5981 26310.3
 24 10 2013  13 13  -21.0595 26079.5 -03478.8 -07.5978 26310.5
 24 10 2013  13 14  -21.0589 26079.7 -03478.6 -07.5975 26310.7
 24 10 2013  13 15  -21.0583 26080.2 -03478.6 -07.5973 26311.1
 24 10 2013  13 16  -21.0575 26080.2 -03478.3 -07.5968 26311.1
 24 10 2013  13 17  -21.0567 26079.8 -03478.0 -07.5962 26310.7
 24 10 2013  13 18  -21.0560 26079.8 -03478.0 -07.5961 26310.7
 24 10 2013  13 19  -21.0555 26079.9 -03477.9 -07.5960 26310.8
 24 10 2013  13 20  -21.0550 26080.2 -03478.0 -07.5961 26311.1
 24 10 2013  13 21  -21.0544 26080.2 -03477.9 -07.5959 26311.1
 24 10 2013  13 22  -21.0540 26080.1 -03477.9 -07.5958 26311.0
 24 10 2013  13 23  -21.0536 26080.5 -03478.0 -07.5960 26311.4
 24 10 2013  13 24  -21.0532 26080.9 -03478.2 -07.5962 26311.8
 24 10 2013  13 25  -21.0527 26081.4 -03478.4 -07.5964 26312.4
 24 10 2013  13 26  -21.0521 26082.4 -03478.7 -07.5968 26313.4
 24 10 2013  13 27  -21.0516 26083.5 -03479.0 -07.5972 26314.5
 24 10 2013  13 28  -21.0509 26084.2 -03479.0 -07.5971 26315.2
 24 10 2013  13 29  -21.0501 26084.6 -03478.9 -07.5967 26315.5
 24 10 2013  13 30  -21.0495 26084.6 -03478.7 -07.5963 26315.5
 24 10 2013  13 31  -21.0490 26084.7 -03478.6 -07.5960 26315.7
 24 10 2013  13 32  -21.0485 26084.9 -03478.5 -07.5956 26315.8
 24 10 2013  13 33  -21.0482 26084.9 -03478.3 -07.5953 26315.8
 24 10 2013  13 34  -21.0479 26084.9 -03478.2 -07.5950 26315.8
 24 10 2013  13 35  -21.0477 26085.1 -03478.1 -07.5947 26315.9
 24 10 2013  13 36  -21.0474 26085.2 -03478.0 -07.5945 26316.0
 24 10 2013  13 37  -21.0470 26085.1 -03477.8 -07.5942 26315.9
 24 10 2013  13 38  -21.0466 26084.9 -03477.6 -07.5939 26315.7
 24 10 2013  13 39  -21.0465 26085.0 -03477.6 -07.5937 26315.8
 24 10 2013  13 40  -21.0464 26085.1 -03477.5 -07.5936 26315.9
 24 10 2013  13 41  -21.0461 26085.2 -03477.5 -07.5934 26316.0
 24 10 2013  13 42  -21.0459 26085.3 -03477.3 -07.5931 26316.0
 24 10 2013  13 43  -21.0456 26085.0 -03477.1 -07.5927 26315.7
 24 10 2013  13 44  -21.0453 26084.7 -03476.9 -07.5924 26315.4
 24 10 2013  13 45  -21.0450 26084.8 -03477.0 -07.5924 26315.5
 24 10 2013  13 46  -21.0447 26084.9 -03476.9 -07.5923 26315.6
 24 10 2013  13 47  -21.0444 26084.8 -03476.8 -07.5921 26315.5
 24 10 2013  13 48  -21.0442 26084.4 -03476.7 -07.5919 26315.1
 24 10 2013  13 49  -21.0442 26084.5 -03476.7 -07.5920 26315.1
 24 10 2013  13 50  -21.0442 26084.6 -03476.8 -07.5922 26315.3
 24 10 2013  13 51  -21.0441 26084.8 -03476.9 -07.5923 26315.5
 24 10 2013  13 52  -21.0440 26085.0 -03477.0 -07.5924 26315.7
 24 10 2013  13 53  -21.0439 26085.1 -03477.0 -07.5924 26315.8
 24 10 2013  13 54  -21.0438 26085.3 -03477.0 -07.5925 26316.0
 24 10 2013  13 55  -21.0436 26085.6 -03477.1 -07.5925 26316.3
 24 10 2013  13 56  -21.0435 26085.8 -03477.1 -07.5925 26316.5
 24 10 2013  13 57  -21.0433 26086.1 -03477.1 -07.5924 26316.8
 24 10 2013  13 58  -21.0432 26086.2 -03477.1 -07.5922 26316.9
 24 10 2013  13 59  -21.0430 26086.2 -03476.9 -07.5919 26316.9
 24 10 2013  14 00  -21.0427 26086.2 -03476.8 -07.5917 26316.8
 24 10 2013  14 01  -21.0425 26086.2 -03476.7 -07.5915 26316.9
 24 10 2013  14 02  -21.0422 26086.0 -03476.5 -07.5911 26316.6
 24 10 2013  14 03  -21.0418 26085.9 -03476.3 -07.5908 26316.5
 24 10 2013  14 04  -21.0413 26085.9 -03476.3 -07.5907 26316.6
 24 10 2013  14 05  -21.0409 26086.1 -03476.3 -07.5906 26316.7
 24 10 2013  14 06  -21.0405 26086.3 -03476.3 -07.5905 26316.9
 24 10 2013  14 07  -21.0401 26086.6 -03476.3 -07.5904 26317.2
 24 10 2013  14 08  -21.0398 26087.0 -03476.3 -07.5905 26317.6
 24 10 2013  14 09  -21.0396 26087.5 -03476.4 -07.5904 26318.2
 24 10 2013  14 10  -21.0394 26087.9 -03476.3 -07.5901 26318.5
 24 10 2013  14 11  -21.0389 26088.0 -03476.1 -07.5897 26318.6
 24 10 2013  14 12  -21.0384 26088.1 -03476.0 -07.5893 26318.6
 24 10 2013  14 13  -21.0378 26088.2 -03475.8 -07.5890 26318.7
 24 10 2013  14 14  -21.0372 26088.2 -03475.7 -07.5886 26318.7
 24 10 2013  14 15  -21.0363 26088.0 -03475.5 -07.5884 26318.5
 24 10 2013  14 16  -21.0356 26088.3 -03475.6 -07.5884 26318.8
 24 10 2013  14 17  -21.0349 26088.6 -03475.6 -07.5884 26319.1
 24 10 2013  14 18  -21.0341 26088.5 -03475.5 -07.5882 26319.0
 24 10 2013  14 19  -21.0330 26088.5 -03475.4 -07.5880 26318.9
 24 10 2013  14 20  -21.0322 26088.8 -03475.6 -07.5883 26319.3
 24 10 2013  14 21  -21.0320 26089.3 -03475.7 -07.5884 26319.8
 24 10 2013  14 22  -21.0315 26088.8 -03475.4 -07.5879 26319.3
 24 10 2013  14 23  -21.0311 26088.6 -03475.3 -07.5877 26319.1
 24 10 2013  14 24  -21.0305 26088.4 -03475.1 -07.5875 26318.8
 24 10 2013  14 25  -21.0302 26089.0 -03475.4 -07.5879 26319.5
 24 10 2013  14 26  -21.0301 26089.7 -03475.6 -07.5880 26320.1
 24 10 2013  14 27  -21.0300 26090.0 -03475.5 -07.5878 26320.5
 24 10 2013  14 28  -21.0299 26090.4 -03475.4 -07.5875 26320.9
 24 10 2013  14 29  -21.0301 26090.2 -03475.1 -07.5868 26320.6
 24 10 2013  14 30  -21.0296 26089.3 -03474.5 -07.5858 26319.7
 24 10 2013  14 31  -21.0293 26089.0 -03474.3 -07.5855 26319.4
 24 10 2013  14 32  -21.0291 26089.1 -03474.3 -07.5854 26319.4
 24 10 2013  14 33  -21.0288 26089.1 -03474.2 -07.5853 26319.4
 24 10 2013  14 34  -21.0288 26089.5 -03474.4 -07.5855 26319.9
 24 10 2013  14 35  -21.0288 26089.9 -03474.4 -07.5854 26320.2
 24 10 2013  14 36  -21.0284 26089.5 -03474.1 -07.5848 26319.8
 24 10 2013  14 37  -21.0280 26089.3 -03473.8 -07.5844 26319.6
 24 10 2013  14 38  -21.0279 26089.5 -03473.8 -07.5843 26319.7
 24 10 2013  14 39  -21.0276 26089.2 -03473.6 -07.5839 26319.4
 24 10 2013  14 40  -21.0273 26088.8 -03473.3 -07.5835 26319.0
 24 10 2013  14 41  -21.0272 26088.8 -03473.3 -07.5835 26319.0
 24 10 2013  14 42  -21.0273 26089.1 -03473.4 -07.5836 26319.4
 24 10 2013  14 43  -21.0274 26089.9 -03473.6 -07.5838 26320.1
 24 10 2013  14 44  -21.0280 26090.4 -03473.7 -07.5838 26320.6
 24 10 2013  14 45  -21.0280 26089.7 -03473.1 -07.5828 26319.9
 24 10 2013  14 46  -21.0275 26089.0 -03472.6 -07.5819 26319.1
 24 10 2013  14 47  -21.0278 26088.3 -03472.2 -07.5812 26318.3
 24 10 2013  14 48  -21.0276 26087.5 -03471.8 -07.5805 26317.5
 24 10 2013  14 49  -21.0272 26086.3 -03471.4 -07.5799 26316.2
 24 10 2013  14 50  -21.0266 26085.4 -03471.1 -07.5796 26315.4
 24 10 2013  14 51  -21.0262 26085.2 -03471.2 -07.5798 26315.1
 24 10 2013  14 52  -21.0259 26085.1 -03471.3 -07.5800 26315.1
 24 10 2013  14 53  -21.0258 26085.1 -03471.4 -07.5803 26315.1
 24 10 2013  14 54  -21.0261 26085.5 -03471.6 -07.5807 26315.5
 24 10 2013  14 55  -21.0261 26085.6 -03471.7 -07.5808 26315.6
 24 10 2013  14 56  -21.0259 26085.8 -03471.7 -07.5808 26315.8
 24 10 2013  14 57  -21.0256 26085.8 -03471.7 -07.5808 26315.8
 24 10 2013  14 58  -21.0253 26086.5 -03472.0 -07.5813 26316.5
 24 10 2013  14 59  -21.0250 26086.8 -03472.1 -07.5813 26316.9
 24 10 2013  15 00  -21.0244 26087.1 -03472.1 -07.5812 26317.1
 24 10 2013  15 01  -21.0239 26087.4 -03472.1 -07.5812 26317.5
 24 10 2013  15 02  -21.0233 26087.0 -03471.8 -07.5807 26317.0
 24 10 2013  15 03  -21.0225 26085.9 -03471.3 -07.5798 26315.9
 24 10 2013  15 04  -21.0220 26085.1 -03470.9 -07.5794 26315.0
 24 10 2013  15 05  -21.0215 26084.4 -03470.7 -07.5791 26314.3
 24 10 2013  15 06  -21.0209 26083.8 -03470.6 -07.5790 26313.7
 24 10 2013  15 07  -21.0204 26083.4 -03470.6 -07.5791 26313.3
 24 10 2013  15 08  -21.0202 26083.2 -03470.7 -07.5793 26313.1
 24 10 2013  15 09  -21.0196 26082.8 -03470.6 -07.5793 26312.7
 24 10 2013  15 10  -21.0190 26082.3 -03470.5 -07.5793 26312.2
 24 10 2013  15 11  -21.0187 26082.3 -03470.6 -07.5795 26312.2
 24 10 2013  15 12  -21.0188 26082.4 -03470.8 -07.5798 26312.4
 24 10 2013  15 13  -21.0185 26082.5 -03470.8 -07.5798 26312.4
 24 10 2013  15 14  -21.0185 26082.1 -03470.6 -07.5795 26312.0
 24 10 2013  15 15  -21.0183 26081.7 -03470.4 -07.5792 26311.6
 24 10 2013  15 16  -21.0181 26081.4 -03470.4 -07.5792 26311.3
 24 10 2013  15 17  -21.0178 26080.8 -03470.2 -07.5790 26310.7
 24 10 2013  15 18  -21.0174 26080.1 -03470.0 -07.5789 26309.9
 24 10 2013  15 19  -21.0174 26079.8 -03470.1 -07.5790 26309.6
 24 10 2013  15 20  -21.0173 26079.5 -03470.1 -07.5792 26309.3
 24 10 2013  15 21  -21.0173 26079.4 -03470.3 -07.5796 26309.3
 24 10 2013  15 22  -21.0173 26079.4 -03470.4 -07.5799 26309.3
 24 10 2013  15 23  -21.0175 26079.6 -03470.5 -07.5801 26309.5
 24 10 2013  15 24  -21.0176 26079.5 -03470.5 -07.5801 26309.4
 24 10 2013  15 25  -21.0176 26079.3 -03470.5 -07.5800 26309.2
 24 10 2013  15 26  -21.0175 26079.2 -03470.5 -07.5800 26309.1
 24 10 2013  15 27  -21.0174 26079.1 -03470.5 -07.5800 26309.0
 24 10 2013  15 28  -21.0174 26078.8 -03470.3 -07.5798 26308.7
 24 10 2013  15 29  -21.0174 26078.4 -03470.2 -07.5796 26308.3
 24 10 2013  15 30  -21.0175 26078.1 -03470.1 -07.5795 26308.0
 24 10 2013  15 31  -21.0176 26077.7 -03470.0 -07.5794 26307.5
 24 10 2013  15 32  -21.0176 26077.2 -03469.9 -07.5793 26307.1
 24 10 2013  15 33  -21.0177 26076.9 -03469.8 -07.5792 26306.7
 24 10 2013  15 34  -21.0174 26076.3 -03469.6 -07.5790 26306.1
 24 10 2013  15 35  -21.0173 26075.9 -03469.6 -07.5792 26305.7
 24 10 2013  15 36  -21.0173 26075.8 -03469.7 -07.5795 26305.6
 24 10 2013  15 37  -21.0172 26075.6 -03469.8 -07.5796 26305.4
 24 10 2013  15 38  -21.0171 26075.5 -03469.8 -07.5797 26305.4
 24 10 2013  15 39  -21.0172 26075.5 -03470.0 -07.5800 26305.4
 24 10 2013  15 40  -21.0172 26075.3 -03470.0 -07.5801 26305.1
 24 10 2013  15 41  -21.0172 26074.9 -03470.0 -07.5802 26304.8
 24 10 2013  15 42  -21.0171 26074.8 -03470.1 -07.5804 26304.7
 24 10 2013  15 43  -21.0170 26074.6 -03470.1 -07.5806 26304.5
 24 10 2013  15 44  -21.0170 26074.2 -03470.1 -07.5807 26304.1
 24 10 2013  15 45  -21.0168 26073.9 -03470.1 -07.5809 26303.8
 24 10 2013  15 46  -21.0169 26073.8 -03470.3 -07.5812 26303.7
 24 10 2013  15 47  -21.0171 26073.7 -03470.4 -07.5815 26303.7
 24 10 2013  15 48  -21.0172 26073.5 -03470.5 -07.5817 26303.5
 24 10 2013  15 49  -21.0170 26073.2 -03470.6 -07.5819 26303.2
 24 10 2013  15 50  -21.0169 26073.1 -03470.7 -07.5822 26303.1
 24 10 2013  15 51  -21.0169 26073.1 -03470.9 -07.5826 26303.1
 24 10 2013  15 52  -21.0169 26073.0 -03471.0 -07.5830 26303.0
 24 10 2013  15 53  -21.0168 26072.9 -03471.1 -07.5832 26302.9
 24 10 2013  15 54  -21.0169 26072.8 -03471.2 -07.5835 26302.8
 24 10 2013  15 55  -21.0171 26072.7 -03471.4 -07.5839 26302.8
 24 10 2013  15 56  -21.0171 26072.6 -03471.5 -07.5841 26302.7
 24 10 2013  15 57  -21.0172 26072.5 -03471.6 -07.5844 26302.6
 24 10 2013  15 58  -21.0172 26072.4 -03471.7 -07.5846 26302.5
 24 10 2013  15 59  -21.0169 26072.3 -03471.7 -07.5847 26302.4
 24 10 2013  16 00  -21.0171 26072.0 -03471.8 -07.5850 26302.1
 24 10 2013  16 01  -21.0172 26071.8 -03471.9 -07.5853 26302.0
 24 10 2013  16 02  -21.0173 26071.4 -03471.9 -07.5854 26301.6
 24 10 2013  16 03  -21.0173 26071.0 -03472.0 -07.5857 26301.2
 24 10 2013  16 04  -21.0175 26070.8 -03472.2 -07.5861 26301.0
 24 10 2013  16 05  -21.0179 26070.8 -03472.4 -07.5867 26301.0
 24 10 2013  16 06  -21.0182 26070.6 -03472.5 -07.5870 26300.8
 24 10 2013  16 07  -21.0182 26070.2 -03472.6 -07.5872 26300.5
 24 10 2013  16 08  -21.0187 26070.2 -03472.9 -07.5878 26300.5
 24 10 2013  16 09  -21.0190 26069.7 -03472.9 -07.5880 26300.0
 24 10 2013  16 10  -21.0190 26068.8 -03472.7 -07.5880 26299.1
 24 10 2013  16 11  -21.0191 26068.2 -03472.9 -07.5884 26298.6
 24 10 2013  16 12  -21.0196 26068.1 -03473.1 -07.5890 26298.5
 24 10 2013  16 13  -21.0201 26067.8 -03473.3 -07.5894 26298.2
 24 10 2013  16 14  -21.0202 26067.5 -03473.3 -07.5896 26297.8
 24 10 2013  16 15  -21.0206 26067.2 -03473.5 -07.5900 26297.6
 24 10 2013  16 16  -21.0208 26067.0 -03473.6 -07.5904 26297.4
 24 10 2013  16 17  -21.0209 26066.8 -03473.7 -07.5906 26297.2
 24 10 2013  16 18  -21.0209 26066.6 -03473.8 -07.5909 26297.0
 24 10 2013  16 19  -21.0210 26066.4 -03473.9 -07.5911 26296.9
 24 10 2013  16 20  -21.0209 26066.2 -03473.9 -07.5913 26296.6
 24 10 2013  16 21  -21.0210 26066.0 -03474.1 -07.5917 26296.5
 24 10 2013  16 22  -21.0213 26066.1 -03474.3 -07.5921 26296.6
 24 10 2013  16 23  -21.0215 26065.9 -03474.3 -07.5922 26296.5
 24 10 2013  16 24  -21.0216 26065.5 -03474.3 -07.5923 26296.1
 24 10 2013  16 25  -21.0215 26065.0 -03474.3 -07.5923 26295.5
 24 10 2013  16 26  -21.0216 26064.5 -03474.3 -07.5926 26295.1
 24 10 2013  16 27  -21.0218 26064.1 -03474.4 -07.5928 26294.6
 24 10 2013  16 28  -21.0219 26063.7 -03474.5 -07.5931 26294.2
 24 10 2013  16 29  -21.0219 26063.2 -03474.5 -07.5933 26293.8
 24 10 2013  16 30  -21.0219 26062.8 -03474.6 -07.5936 26293.4
 24 10 2013  16 31  -21.0219 26062.3 -03474.7 -07.5940 26292.9
 24 10 2013  16 32  -21.0220 26061.9 -03474.8 -07.5944 26292.5
 24 10 2013  16 33  -21.0220 26061.5 -03474.9 -07.5947 26292.2
 24 10 2013  16 34  -21.0221 26061.2 -03475.1 -07.5952 26291.9
 24 10 2013  16 35  -21.0222 26060.9 -03475.2 -07.5956 26291.6
 24 10 2013  16 36  -21.0223 26060.7 -03475.4 -07.5960 26291.4
 24 10 2013  16 37  -21.0222 26060.5 -03475.5 -07.5963 26291.2
 24 10 2013  16 38  -21.0223 26060.3 -03475.6 -07.5965 26291.0
 24 10 2013  16 39  -21.0224 26060.0 -03475.7 -07.5968 26290.8
 24 10 2013  16 40  -21.0224 26059.9 -03475.8 -07.5971 26290.6
 24 10 2013  16 41  -21.0227 26059.7 -03475.9 -07.5974 26290.5
 24 10 2013  16 42  -21.0228 26059.4 -03475.9 -07.5975 26290.2
 24 10 2013  16 43  -21.0227 26059.2 -03476.0 -07.5977 26290.0
 24 10 2013  16 44  -21.0227 26059.0 -03476.1 -07.5980 26289.8
 24 10 2013  16 45  -21.0226 26058.9 -03476.2 -07.5983 26289.8
 24 10 2013  16 46  -21.0226 26058.8 -03476.3 -07.5984 26289.6
 24 10 2013  16 47  -21.0227 26058.6 -03476.4 -07.5987 26289.5
 24 10 2013  16 48  -21.0227 26058.5 -03476.5 -07.5989 26289.4
 24 10 2013  16 49  -21.0227 26058.4 -03476.5 -07.5991 26289.2
 24 10 2013  16 50  -21.0228 26058.4 -03476.7 -07.5994 26289.3
 24 10 2013  16 51  -21.0231 26058.4 -03476.7 -07.5995 26289.3
 24 10 2013  16 52  -21.0230 26058.2 -03476.7 -07.5996 26289.1
 24 10 2013  16 53  -21.0230 26058.1 -03476.8 -07.5997 26289.0
 24 10 2013  16 54  -21.0231 26057.9 -03476.8 -07.5999 26288.8
 24 10 2013  16 55  -21.0232 26057.8 -03476.8 -07.5999 26288.7
 24 10 2013  16 56  -21.0232 26057.5 -03476.8 -07.5999 26288.5
 24 10 2013  16 57  -21.0233 26057.3 -03476.9 -07.6002 26288.3
 24 10 2013  16 58  -21.0235 26057.2 -03476.9 -07.6002 26288.1
 24 10 2013  16 59  -21.0236 26057.0 -03476.8 -07.6002 26287.9
 24 10 2013  17 00  -21.0232 26056.8 -03476.8 -07.6002 26287.8
 24 10 2013  17 01  -21.0232 26056.7 -03476.8 -07.6003 26287.6
 24 10 2013  17 02  -21.0231 26056.5 -03476.9 -07.6004 26287.5
 24 10 2013  17 03  -21.0231 26056.4 -03476.9 -07.6005 26287.3
 24 10 2013  17 04  -21.0234 26056.2 -03476.9 -07.6006 26287.1
 24 10 2013  17 05  -21.0231 26055.6 -03476.7 -07.6003 26286.5
 24 10 2013  17 06  -21.0225 26054.9 -03476.5 -07.6000 26285.8
 24 10 2013  17 07  -21.0221 26054.5 -03476.5 -07.6001 26285.4
 24 10 2013  17 08  -21.0221 26054.2 -03476.5 -07.6003 26285.1
 24 10 2013  17 09  -21.0218 26053.9 -03476.5 -07.6004 26284.8
 24 10 2013  17 10  -21.0214 26053.7 -03476.6 -07.6007 26284.7
 24 10 2013  17 11  -21.0210 26053.7 -03476.7 -07.6008 26284.6
 24 10 2013  17 12  -21.0210 26053.8 -03476.9 -07.6013 26284.8
 24 10 2013  17 13  -21.0211 26053.9 -03477.0 -07.6015 26284.9
 24 10 2013  17 14  -21.0210 26053.7 -03477.0 -07.6015 26284.7
 24 10 2013  17 15  -21.0207 26053.3 -03476.9 -07.6013 26284.3
 24 10 2013  17 16  -21.0205 26052.8 -03476.8 -07.6013 26283.8
 24 10 2013  17 17  -21.0204 26052.3 -03476.8 -07.6014 26283.3
 24 10 2013  17 18  -21.0201 26051.7 -03476.7 -07.6015 26282.7
 24 10 2013  17 19  -21.0199 26051.2 -03476.8 -07.6018 26282.2
 24 10 2013  17 20  -21.0197 26050.9 -03476.9 -07.6022 26281.9
 24 10 2013  17 21  -21.0197 26050.7 -03477.1 -07.6026 26281.7
 24 10 2013  17 22  -21.0195 26050.5 -03477.3 -07.6030 26281.5
 24 10 2013  17 23  -21.0193 26050.5 -03477.5 -07.6034 26281.5
 24 10 2013  17 24  -21.0193 26050.7 -03477.7 -07.6040 26281.8
 24 10 2013  17 25  -21.0192 26051.0 -03478.1 -07.6045 26282.2
 24 10 2013  17 26  -21.0193 26051.4 -03478.3 -07.6050 26282.6
 24 10 2013  17 27  -21.0195 26051.4 -03478.4 -07.6051 26282.6
 24 10 2013  17 28  -21.0191 26050.9 -03478.2 -07.6049 26282.1
 24 10 2013  17 29  -21.0188 26050.7 -03478.2 -07.6050 26281.9
 24 10 2013  17 30  -21.0190 26050.7 -03478.4 -07.6054 26281.9
 24 10 2013  17 31  -21.0190 26050.5 -03478.5 -07.6056 26281.7
 24 10 2013  17 32  -21.0190 26050.4 -03478.5 -07.6057 26281.6
 24 10 2013  17 33  -21.0188 26050.0 -03478.5 -07.6057 26281.2
 24 10 2013  17 34  -21.0185 26049.7 -03478.4 -07.6057 26280.9
 24 10 2013  17 35  -21.0185 26049.4 -03478.5 -07.6060 26280.6
 24 10 2013  17 36  -21.0187 26049.3 -03478.6 -07.6063 26280.5
 24 10 2013  17 37  -21.0187 26049.0 -03478.7 -07.6065 26280.2
 24 10 2013  17 38  -21.0188 26048.8 -03478.8 -07.6067 26280.1
 24 10 2013  17 39  -21.0190 26048.6 -03478.8 -07.6069 26279.9
 24 10 2013  17 40  -21.0190 26048.2 -03478.8 -07.6069 26279.4
 24 10 2013  17 41  -21.0188 26047.8 -03478.7 -07.6069 26279.0
 24 10 2013  17 42  -21.0187 26047.6 -03478.8 -07.6072 26278.8
 24 10 2013  17 43  -21.0188 26047.5 -03478.9 -07.6074 26278.8
 24 10 2013  17 44  -21.0189 26047.5 -03479.1 -07.6077 26278.8
 24 10 2013  17 45  -21.0190 26047.3 -03479.1 -07.6079 26278.6
 24 10 2013  17 46  -21.0187 26046.8 -03479.0 -07.6078 26278.1
 24 10 2013  17 47  -21.0182 26046.5 -03479.0 -07.6079 26277.8
 24 10 2013  17 48  -21.0181 26046.5 -03479.2 -07.6083 26277.8
 24 10 2013  17 49  -21.0180 26046.4 -03479.3 -07.6086 26277.8
 24 10 2013  17 50  -21.0179 26046.3 -03479.5 -07.6089 26277.7
 24 10 2013  17 51  -21.0178 26046.5 -03479.6 -07.6092 26277.9
 24 10 2013  17 52  -21.0178 26046.7 -03479.8 -07.6095 26278.1
 24 10 2013  17 53  -21.0175 26046.4 -03479.6 -07.6093 26277.8
 24 10 2013  17 54  -21.0172 26046.0 -03479.6 -07.6094 26277.4
 24 10 2013  17 55  -21.0168 26045.8 -03479.6 -07.6095 26277.2
 24 10 2013  17 56  -21.0168 26045.6 -03479.7 -07.6096 26277.0
 24 10 2013  17 57  -21.0164 26045.2 -03479.7 -07.6098 26276.6
 24 10 2013  17 58  -21.0161 26045.0 -03479.8 -07.6099 26276.4
 24 10 2013  17 59  -21.0160 26044.9 -03479.9 -07.6103 26276.4
 24 10 2013  18 00  -21.0160 26044.9 -03479.9 -07.6104 26276.3
 24 10 2013  18 01  -21.0158 26044.6 -03479.9 -07.6104 26276.1
 24 10 2013  18 02  -21.0157 26044.4 -03479.9 -07.6105 26275.9
 24 10 2013  18 03  -21.0157 26044.2 -03479.9 -07.6105 26275.7
 24 10 2013  18 04  -21.0155 26044.0 -03479.9 -07.6105 26275.4
 24 10 2013  18 05  -21.0154 26043.8 -03479.9 -07.6106 26275.2
 24 10 2013  18 06  -21.0155 26043.9 -03480.0 -07.6108 26275.4
 24 10 2013  18 07  -21.0156 26043.8 -03480.0 -07.6108 26275.2
 24 10 2013  18 08  -21.0154 26043.6 -03479.9 -07.6107 26275.0
 24 10 2013  18 09  -21.0154 26043.5 -03479.9 -07.6108 26275.0
 24 10 2013  18 10  -21.0154 26043.5 -03480.0 -07.6109 26274.9
 24 10 2013  18 11  -21.0153 26043.4 -03480.0 -07.6110 26274.9
 24 10 2013  18 12  -21.0154 26043.3 -03480.1 -07.6111 26274.7
 24 10 2013  18 13  -21.0153 26043.0 -03480.0 -07.6111 26274.5
 24 10 2013  18 14  -21.0153 26042.9 -03480.1 -07.6112 26274.4
 24 10 2013  18 15  -21.0151 26042.8 -03480.1 -07.6113 26274.3
 24 10 2013  18 16  -21.0149 26042.7 -03480.2 -07.6115 26274.2
 24 10 2013  18 17  -21.0147 26042.6 -03480.2 -07.6117 26274.1
 24 10 2013  18 18  -21.0145 26042.4 -03480.3 -07.6118 26274.0
 24 10 2013  18 19  -21.0142 26042.4 -03480.4 -07.6120 26274.0
 24 10 2013  18 20  -21.0140 26042.6 -03480.5 -07.6123 26274.1
 24 10 2013  18 21  -21.0139 26042.5 -03480.6 -07.6124 26274.0
 24 10 2013  18 22  -21.0134 26042.2 -03480.5 -07.6124 26273.8
 24 10 2013  18 23  -21.0131 26042.0 -03480.5 -07.6125 26273.6
 24 10 2013  18 24  -21.0128 26041.9 -03480.6 -07.6128 26273.5
 24 10 2013  18 25  -21.0125 26041.9 -03480.8 -07.6131 26273.5
 24 10 2013  18 26  -21.0124 26041.9 -03481.0 -07.6134 26273.5
 24 10 2013  18 27  -21.0124 26041.9 -03481.1 -07.6137 26273.6
 24 10 2013  18 28  -21.0121 26041.7 -03481.1 -07.6138 26273.4
 24 10 2013  18 29  -21.0121 26041.6 -03481.2 -07.6140 26273.2
 24 10 2013  18 30  -21.0118 26041.4 -03481.2 -07.6141 26273.1
 24 10 2013  18 31  -21.0116 26041.3 -03481.3 -07.6144 26273.0
 24 10 2013  18 32  -21.0114 26041.3 -03481.4 -07.6146 26273.0
 24 10 2013  18 33  -21.0112 26041.3 -03481.6 -07.6149 26273.0
 24 10 2013  18 34  -21.0109 26041.4 -03481.7 -07.6152 26273.1
 24 10 2013  18 35  -21.0104 26041.3 -03481.8 -07.6155 26273.1
 24 10 2013  18 36  -21.0100 26041.3 -03481.9 -07.6157 26273.0
 24 10 2013  18 37  -21.0098 26041.3 -03482.1 -07.6160 26273.1
 24 10 2013  18 38  -21.0095 26041.3 -03482.2 -07.6163 26273.1
 24 10 2013  18 39  -21.0090 26041.3 -03482.4 -07.6167 26273.1
 24 10 2013  18 40  -21.0087 26041.3 -03482.5 -07.6169 26273.1
 24 10 2013  18 41  -21.0082 26041.1 -03482.5 -07.6171 26272.9
 24 10 2013  18 42  -21.0078 26040.9 -03482.7 -07.6174 26272.7
 24 10 2013  18 43  -21.0075 26041.0 -03482.9 -07.6179 26272.9
 24 10 2013  18 44  -21.0072 26041.0 -03483.1 -07.6183 26272.9
 24 10 2013  18 45  -21.0067 26040.7 -03483.1 -07.6184 26272.6
 24 10 2013  18 46  -21.0062 26040.6 -03483.2 -07.6187 26272.6
 24 10 2013  18 47  -21.0060 26040.6 -03483.4 -07.6191 26272.5
 24 10 2013  18 48  -21.0059 26040.5 -03483.5 -07.6194 26272.5
 24 10 2013  18 49  -21.0057 26040.0 -03483.4 -07.6193 26272.0
 24 10 2013  18 50  -21.0052 26039.6 -03483.4 -07.6194 26271.6
 24 10 2013  18 51  -21.0047 26039.4 -03483.6 -07.6198 26271.4
 24 10 2013  18 52  -21.0044 26039.2 -03483.7 -07.6202 26271.2
 24 10 2013  18 53  -21.0042 26039.0 -03483.8 -07.6204 26271.0
 24 10 2013  18 54  -21.0040 26039.0 -03483.9 -07.6207 26271.0
 24 10 2013  18 55  -21.0037 26038.9 -03484.0 -07.6210 26271.0
 24 10 2013  18 56  -21.0035 26038.7 -03484.1 -07.6211 26270.8
 24 10 2013  18 57  -21.0032 26038.7 -03484.2 -07.6214 26270.8
 24 10 2013  18 58  -21.0029 26038.7 -03484.3 -07.6216 26270.8
 24 10 2013  18 59  -21.0027 26038.8 -03484.5 -07.6219 26270.9
 24 10 2013  19 00  -21.0024 26038.8 -03484.6 -07.6222 26270.9
 24 10 2013  19 01  -21.0021 26038.8 -03484.7 -07.6225 26270.9
 24 10 2013  19 02  -21.0019 26038.9 -03484.9 -07.6228 26271.0
 24 10 2013  19 03  -21.0017 26039.0 -03485.1 -07.6232 26271.1
 24 10 2013  19 04  -21.0015 26038.9 -03485.2 -07.6234 26271.2
 24 10 2013  19 05  -21.0011 26039.0 -03485.3 -07.6237 26271.2
 24 10 2013  19 06  -21.0009 26039.1 -03485.5 -07.6240 26271.3
 24 10 2013  19 07  -21.0006 26038.8 -03485.4 -07.6240 26271.0
 24 10 2013  19 08  -21.0004 26038.8 -03485.6 -07.6243 26271.1
 24 10 2013  19 09  -21.0002 26039.0 -03485.8 -07.6247 26271.3
 24 10 2013  19 10  -21.0000 26039.2 -03486.0 -07.6251 26271.5
 24 10 2013  19 11  -20.9998 26039.0 -03486.0 -07.6252 26271.3
 24 10 2013  19 12  -20.9995 26038.8 -03486.0 -07.6253 26271.1
 24 10 2013  19 13  -20.9993 26038.8 -03486.1 -07.6256 26271.1
 24 10 2013  19 14  -20.9991 26038.8 -03486.3 -07.6259 26271.2
 24 10 2013  19 15  -20.9987 26038.8 -03486.4 -07.6261 26271.1
 24 10 2013  19 16  -20.9985 26038.8 -03486.5 -07.6264 26271.2
 24 10 2013  19 17  -20.9984 26038.9 -03486.7 -07.6267 26271.3
 24 10 2013  19 18  -20.9984 26039.0 -03486.9 -07.6270 26271.4
 24 10 2013  19 19  -20.9981 26038.9 -03486.9 -07.6271 26271.3
 24 10 2013  19 20  -20.9979 26038.7 -03486.9 -07.6273 26271.1
 24 10 2013  19 21  -20.9977 26038.7 -03487.1 -07.6276 26271.2
 24 10 2013  19 22  -20.9976 26038.9 -03487.2 -07.6279 26271.3
 24 10 2013  19 23  -20.9974 26038.8 -03487.3 -07.6282 26271.3
 24 10 2013  19 24  -20.9973 26038.7 -03487.4 -07.6283 26271.2
 24 10 2013  19 25  -20.9972 26038.7 -03487.6 -07.6286 26271.2
 24 10 2013  19 26  -20.9969 26039.0 -03487.8 -07.6291 26271.5
 24 10 2013  19 27  -20.9968 26039.2 -03488.0 -07.6295 26271.8
 24 10 2013  19 28  -20.9967 26039.4 -03488.2 -07.6299 26272.0
 24 10 2013  19 29  -20.9967 26039.4 -03488.3 -07.6300 26272.0
 24 10 2013  19 30  -20.9966 26039.7 -03488.5 -07.6304 26272.3
 24 10 2013  19 31  -20.9966 26040.0 -03488.7 -07.6308 26272.7
 24 10 2013  19 32  -20.9969 26040.1 -03488.9 -07.6311 26272.8
 24 10 2013  19 33  -20.9970 26040.0 -03488.9 -07.6312 26272.7
 24 10 2013  19 34  -20.9971 26039.6 -03488.8 -07.6311 26272.2
 24 10 2013  19 35  -20.9969 26039.7 -03489.0 -07.6314 26272.4
 24 10 2013  19 36  -20.9970 26039.8 -03489.1 -07.6317 26272.5
 24 10 2013  19 37  -20.9971 26039.1 -03489.0 -07.6316 26271.8
 24 10 2013  19 38  -20.9972 26038.9 -03489.0 -07.6317 26271.6
 24 10 2013  19 39  -20.9971 26039.5 -03489.4 -07.6323 26272.3
 24 10 2013  19 40  -20.9972 26039.7 -03489.5 -07.6325 26272.4
 24 10 2013  19 41  -20.9973 26039.2 -03489.4 -07.6324 26272.0
 24 10 2013  19 42  -20.9974 26038.8 -03489.2 -07.6322 26271.6
 24 10 2013  19 43  -20.9975 26039.3 -03489.5 -07.6328 26272.1
 24 10 2013  19 44  -20.9979 26039.4 -03489.7 -07.6332 26272.2
 24 10 2013  19 45  -20.9982 26039.5 -03489.9 -07.6335 26272.3
 24 10 2013  19 46  -20.9984 26038.8 -03489.8 -07.6334 26271.7
 24 10 2013  19 47  -20.9983 26038.9 -03489.8 -07.6335 26271.7
 24 10 2013  19 48  -20.9983 26039.3 -03490.2 -07.6341 26272.2
 24 10 2013  19 49  -20.9987 26039.0 -03490.2 -07.6342 26271.8
 24 10 2013  19 50  -20.9988 26039.1 -03490.3 -07.6345 26272.0
 24 10 2013  19 51  -20.9990 26039.2 -03490.4 -07.6347 26272.1
 24 10 2013  19 52  -20.9991 26039.2 -03490.5 -07.6349 26272.1
 24 10 2013  19 53  -20.9994 26038.9 -03490.6 -07.6350 26271.8
 24 10 2013  19 54  -20.9994 26038.7 -03490.6 -07.6352 26271.6
 24 10 2013  19 55  -20.9995 26038.6 -03490.6 -07.6353 26271.5
 24 10 2013  19 56  -20.9998 26038.4 -03490.7 -07.6355 26271.4
 24 10 2013  19 57  -21.0000 26038.4 -03490.8 -07.6358 26271.3
 24 10 2013  19 58  -21.0002 26038.3 -03490.9 -07.6360 26271.3
 24 10 2013  19 59  -21.0004 26038.1 -03490.9 -07.6361 26271.1
 24 10 2013  20 00  -21.0005 26038.0 -03491.0 -07.6363 26271.0
 24 10 2013  20 01  -21.0007 26037.9 -03491.0 -07.6364 26270.9
 24 10 2013  20 02  -21.0009 26037.6 -03491.1 -07.6366 26270.6
 24 10 2013  20 03  -21.0011 26037.5 -03491.2 -07.6368 26270.5
 24 10 2013  20 04  -21.0010 26037.6 -03491.4 -07.6372 26270.6
 24 10 2013  20 05  -21.0011 26037.7 -03491.6 -07.6377 26270.8
 24 10 2013  20 06  -21.0014 26037.5 -03491.6 -07.6378 26270.5
 24 10 2013  20 07  -21.0016 26037.2 -03491.6 -07.6379 26270.3
 24 10 2013  20 08  -21.0018 26037.2 -03491.8 -07.6382 26270.3
 24 10 2013  20 09  -21.0019 26037.2 -03491.9 -07.6385 26270.3
 24 10 2013  20 10  -21.0024 26037.1 -03492.0 -07.6388 26270.2
 24 10 2013  20 11  -21.0039 26036.7 -03492.0 -07.6388 26269.8
 24 10 2013  20 12  -21.0043 26036.5 -03492.1 -07.6391 26269.6
 24 10 2013  20 13  -21.0045 26036.5 -03492.2 -07.6393 26269.6
 24 10 2013  20 14  -21.0046 26036.5 -03492.4 -07.6396 26269.7
 24 10 2013  20 15  -21.0044 26036.6 -03492.4 -07.6398 26269.8
 24 10 2013  20 16  -21.0038 26036.5 -03492.6 -07.6401 26269.7
 24 10 2013  20 17  -21.0032 26036.2 -03492.7 -07.6404 26269.4
 24 10 2013  20 18  -21.0034 26035.9 -03492.7 -07.6406 26269.2
 24 10 2013  20 19  -21.0036 26036.0 -03492.9 -07.6410 26269.2
 24 10 2013  20 20  -21.0039 26035.9 -03493.1 -07.6414 26269.1
 24 10 2013  20 21  -21.0041 26035.6 -03493.2 -07.6417 26268.9
 24 10 2013  20 22  -21.0042 26035.6 -03493.3 -07.6420 26268.9
 24 10 2013  20 23  -21.0044 26035.5 -03493.5 -07.6423 26268.8
 24 10 2013  20 24  -21.0044 26035.3 -03493.5 -07.6425 26268.7
 24 10 2013  20 25  -21.0046 26035.3 -03493.7 -07.6429 26268.6
 24 10 2013  20 26  -21.0048 26035.2 -03493.8 -07.6432 26268.6
 24 10 2013  20 27  -21.0051 26035.2 -03494.0 -07.6435 26268.6
 24 10 2013  20 28  -21.0052 26035.0 -03494.0 -07.6436 26268.4
 24 10 2013  20 29  -21.0053 26035.0 -03494.1 -07.6439 26268.5
 24 10 2013  20 30  -21.0053 26034.9 -03494.2 -07.6442 26268.3
 24 10 2013  20 31  -21.0055 26034.6 -03494.2 -07.6442 26268.0
 24 10 2013  20 32  -21.0054 26034.4 -03494.3 -07.6444 26267.8
 24 10 2013  20 33  -21.0055 26034.3 -03494.4 -07.6446 26267.8
 24 10 2013  20 34  -21.0055 26034.3 -03494.5 -07.6449 26267.8
 24 10 2013  20 35  -21.0055 26034.4 -03494.7 -07.6453 26267.9
 24 10 2013  20 36  -21.0054 26034.4 -03494.8 -07.6455 26267.9
 24 10 2013  20 37  -21.0054 26034.3 -03494.8 -07.6456 26267.9
 24 10 2013  20 38  -21.0055 26034.3 -03494.9 -07.6458 26267.9
 24 10 2013  20 39  -21.0056 26034.3 -03495.0 -07.6460 26267.8
 24 10 2013  20 40  -21.0056 26034.2 -03495.0 -07.6461 26267.8
 24 10 2013  20 41  -21.0056 26033.9 -03495.0 -07.6460 26267.4
 24 10 2013  20 42  -21.0056 26033.8 -03495.0 -07.6460 26267.4
 24 10 2013  20 43  -21.0055 26033.9 -03495.1 -07.6463 26267.5
 24 10 2013  20 44  -21.0056 26033.9 -03495.2 -07.6465 26267.5
 24 10 2013  20 45  -21.0055 26033.8 -03495.2 -07.6466 26267.4
 24 10 2013  20 46  -21.0054 26033.7 -03495.3 -07.6467 26267.3
 24 10 2013  20 47  -21.0051 26033.8 -03495.4 -07.6470 26267.4
 24 10 2013  20 48  -21.0049 26033.6 -03495.4 -07.6470 26267.2
 24 10 2013  20 49  -21.0049 26033.3 -03495.3 -07.6470 26266.9
 24 10 2013  20 50  -21.0048 26033.3 -03495.4 -07.6471 26266.9
 24 10 2013  20 51  -21.0045 26033.5 -03495.6 -07.6475 26267.2
 24 10 2013  20 52  -21.0042 26033.6 -03495.7 -07.6478 26267.3
 24 10 2013  20 53  -21.0039 26033.5 -03495.8 -07.6480 26267.2
 24 10 2013  20 54  -21.0039 26033.3 -03495.9 -07.6482 26267.0
 24 10 2013  20 55  -21.0039 26033.4 -03496.0 -07.6485 26267.1
 24 10 2013  20 56  -21.0038 26033.3 -03496.1 -07.6488 26267.0
 24 10 2013  20 57  -21.0038 26033.2 -03496.2 -07.6490 26266.9
 24 10 2013  20 58  -21.0038 26033.1 -03496.2 -07.6489 26266.8
 24 10 2013  20 59  -21.0040 26033.0 -03496.5 -07.6495 26266.8
 24 10 2013  21 00  -21.0043 26032.9 -03496.5 -07.6497 26266.7
 24 10 2013  21 01  -21.0046 26032.6 -03496.5 -07.6498 26266.4
 24 10 2013  21 02  -21.0048 26032.5 -03496.5 -07.6498 26266.2
 24 10 2013  21 03  -21.0050 26032.4 -03496.6 -07.6500 26266.2
 24 10 2013  21 04  -21.0051 26032.4 -03496.7 -07.6502 26266.2
 24 10 2013  21 05  -21.0053 26032.3 -03496.7 -07.6502 26266.1
 24 10 2013  21 06  -21.0053 26032.3 -03496.8 -07.6504 26266.1
 24 10 2013  21 07  -21.0053 26032.5 -03496.9 -07.6507 26266.3
 24 10 2013  21 08  -21.0053 26032.5 -03497.0 -07.6509 26266.4
 24 10 2013  21 09  -21.0054 26032.5 -03497.1 -07.6510 26266.4
 24 10 2013  21 10  -21.0054 26032.6 -03497.2 -07.6512 26266.5
 24 10 2013  21 11  -21.0054 26032.6 -03497.2 -07.6513 26266.4
 24 10 2013  21 12  -21.0053 26032.4 -03497.2 -07.6513 26266.3
 24 10 2013  21 13  -21.0052 26032.4 -03497.2 -07.6514 26266.2
 24 10 2013  21 14  -21.0049 26032.5 -03497.4 -07.6516 26266.4
 24 10 2013  21 15  -21.0049 26032.5 -03497.4 -07.6518 26266.4
 24 10 2013  21 16  -21.0050 26032.3 -03497.4 -07.6518 26266.2
 24 10 2013  21 17  -21.0050 26032.1 -03497.4 -07.6518 26266.0
 24 10 2013  21 18  -21.0049 26032.0 -03497.4 -07.6519 26265.9
 24 10 2013  21 19  -21.0051 26031.9 -03497.4 -07.6520 26265.8
 24 10 2013  21 20  -21.0052 26031.7 -03497.4 -07.6520 26265.6
 24 10 2013  21 21  -21.0052 26031.6 -03497.4 -07.6519 26265.5
 24 10 2013  21 22  -21.0052 26031.6 -03497.4 -07.6520 26265.5
 24 10 2013  21 23  -21.0053 26031.4 -03497.4 -07.6521 26265.3
 24 10 2013  21 24  -21.0054 26031.1 -03497.4 -07.6521 26265.0
 24 10 2013  21 25  -21.0054 26031.0 -03497.4 -07.6521 26264.8
 24 10 2013  21 26  -21.0055 26030.9 -03497.4 -07.6522 26264.8
 24 10 2013  21 27  -21.0056 26030.7 -03497.4 -07.6523 26264.6
 24 10 2013  21 28  -21.0057 26030.5 -03497.4 -07.6523 26264.4
 24 10 2013  21 29  -21.0057 26030.4 -03497.4 -07.6523 26264.3
 24 10 2013  21 30  -21.0057 26030.3 -03497.4 -07.6523 26264.2
 24 10 2013  21 31  -21.0056 26030.2 -03497.4 -07.6524 26264.1
 24 10 2013  21 32  -21.0056 26030.2 -03497.4 -07.6524 26264.1
 24 10 2013  21 33  -21.0056 26030.0 -03497.4 -07.6524 26263.9
 24 10 2013  21 34  -21.0055 26029.9 -03497.4 -07.6524 26263.8
 24 10 2013  21 35  -21.0055 26029.9 -03497.4 -07.6525 26263.9
 24 10 2013  21 36  -21.0054 26029.9 -03497.4 -07.6525 26263.8
 24 10 2013  21 37  -21.0054 26029.8 -03497.5 -07.6528 26263.7
 24 10 2013  21 38  -21.0055 26029.7 -03497.5 -07.6528 26263.6
 24 10 2013  21 39  -21.0055 26029.7 -03497.6 -07.6529 26263.6
 24 10 2013  21 40  -21.0054 26029.5 -03497.6 -07.6530 26263.5
 24 10 2013  21 41  -21.0055 26029.5 -03497.6 -07.6531 26263.5
 24 10 2013  21 42  -21.0054 26029.4 -03497.7 -07.6531 26263.4
 24 10 2013  21 43  -21.0054 26029.3 -03497.6 -07.6531 26263.3
 24 10 2013  21 44  -21.0055 26029.2 -03497.6 -07.6531 26263.2
 24 10 2013  21 45  -21.0056 26029.2 -03497.6 -07.6532 26263.1
 24 10 2013  21 46  -21.0056 26029.1 -03497.7 -07.6533 26263.1
 24 10 2013  21 47  -21.0056 26029.1 -03497.7 -07.6533 26263.0
 24 10 2013  21 48  -21.0055 26029.0 -03497.7 -07.6534 26262.9
 24 10 2013  21 49  -21.0056 26028.9 -03497.7 -07.6534 26262.9
 24 10 2013  21 50  -21.0056 26028.9 -03497.7 -07.6535 26262.8
 24 10 2013  21 51  -21.0056 26028.9 -03497.7 -07.6535 26262.8
 24 10 2013  21 52  -21.0056 26028.8 -03497.8 -07.6536 26262.8
 24 10 2013  21 53  -21.0056 26028.8 -03497.8 -07.6536 26262.7
 24 10 2013  21 54  -21.0056 26028.7 -03497.8 -07.6536 26262.6
 24 10 2013  21 55  -21.0058 26028.6 -03497.8 -07.6537 26262.6
 24 10 2013  21 56  -21.0059 26028.6 -03497.9 -07.6538 26262.6
 24 10 2013  21 57  -21.0058 26028.6 -03497.8 -07.6538 26262.6
 24 10 2013  21 58  -21.0059 26028.6 -03497.9 -07.6539 26262.6
 24 10 2013  21 59  -21.0059 26028.6 -03497.9 -07.6540 26262.6
 24 10 2013  22 00  -21.0059 26028.6 -03498.0 -07.6541 26262.6
 24 10 2013  22 01  -21.0057 26028.7 -03498.0 -07.6541 26262.6
 24 10 2013  22 02  -21.0058 26028.6 -03498.0 -07.6541 26262.6
 24 10 2013  22 03  -21.0058 26028.6 -03498.1 -07.6543 26262.6
 24 10 2013  22 04  -21.0060 26028.6 -03498.1 -07.6543 26262.6
 24 10 2013  22 05  -21.0061 26028.6 -03498.1 -07.6543 26262.6
 24 10 2013  22 06  -21.0061 26028.6 -03498.1 -07.6543 26262.6
 24 10 2013  22 07  -21.0061 26028.6 -03498.1 -07.6543 26262.6
 24 10 2013  22 08  -21.0062 26028.6 -03498.1 -07.6544 26262.6
 24 10 2013  22 09  -21.0062 26028.5 -03498.1 -07.6543 26262.5
 24 10 2013  22 10  -21.0064 26028.5 -03498.1 -07.6543 26262.5
 24 10 2013  22 11  -21.0063 26028.5 -03498.1 -07.6543 26262.5
 24 10 2013  22 12  -21.0062 26028.5 -03498.1 -07.6543 26262.5
 24 10 2013  22 13  -21.0060 26028.5 -03498.1 -07.6543 26262.5
 24 10 2013  22 14  -21.0061 26028.4 -03498.0 -07.6542 26262.4
 24 10 2013  22 15  -21.0060 26028.4 -03498.0 -07.6542 26262.4
 24 10 2013  22 16  -21.0059 26028.4 -03498.0 -07.6542 26262.4
 24 10 2013  22 17  -21.0058 26028.4 -03498.0 -07.6542 26262.4
 24 10 2013  22 18  -21.0057 26028.4 -03498.0 -07.6542 26262.4
 24 10 2013  22 19  -21.0058 26028.4 -03498.0 -07.6541 26262.4
 24 10 2013  22 20  -21.0057 26028.4 -03498.0 -07.6542 26262.4
 24 10 2013  22 21  -21.0056 26028.4 -03498.0 -07.6542 26262.3
 24 10 2013  22 22  -21.0056 26028.4 -03498.0 -07.6542 26262.4
 24 10 2013  22 23  -21.0056 26028.4 -03497.9 -07.6540 26262.4
 24 10 2013  22 24  -21.0055 26028.4 -03497.9 -07.6539 26262.3
 24 10 2013  22 25  -21.0055 26028.3 -03497.9 -07.6539 26262.3
 24 10 2013  22 26  -21.0055 26028.3 -03497.9 -07.6539 26262.3
 24 10 2013  22 27  -21.0055 26028.3 -03497.8 -07.6539 26262.3
 24 10 2013  22 28  -21.0055 26028.3 -03497.9 -07.6539 26262.3
 24 10 2013  22 29  -21.0056 26028.2 -03497.8 -07.6538 26262.2
 24 10 2013  22 30  -21.0056 26028.2 -03497.7 -07.6537 26262.1
 24 10 2013  22 31  -21.0056 26028.1 -03497.7 -07.6536 26262.0
 24 10 2013  22 32  -21.0056 26027.9 -03497.6 -07.6534 26261.9
 24 10 2013  22 33  -21.0054 26027.9 -03497.5 -07.6533 26261.8
 24 10 2013  22 34  -21.0053 26027.9 -03497.5 -07.6533 26261.8
 24 10 2013  22 35  -21.0053 26027.8 -03497.5 -07.6532 26261.7
 24 10 2013  22 36  -21.0053 26027.7 -03497.4 -07.6532 26261.7
 24 10 2013  22 37  -21.0054 26027.7 -03497.4 -07.6532 26261.6
 24 10 2013  22 38  -21.0054 26027.5 -03497.4 -07.6531 26261.5
 24 10 2013  22 39  -21.0055 26027.5 -03497.3 -07.6530 26261.4
 24 10 2013  22 40  -21.0055 26027.5 -03497.3 -07.6530 26261.4
 24 10 2013  22 41  -21.0054 26027.4 -03497.3 -07.6530 26261.3
 24 10 2013  22 42  -21.0054 26027.3 -03497.2 -07.6529 26261.2
 24 10 2013  22 43  -21.0054 26027.3 -03497.2 -07.6529 26261.2
 24 10 2013  22 44  -21.0055 26027.2 -03497.2 -07.6529 26261.1
 24 10 2013  22 45  -21.0056 26027.2 -03497.3 -07.6529 26261.1
 24 10 2013  22 46  -21.0057 26027.1 -03497.3 -07.6530 26261.0
 24 10 2013  22 47  -21.0058 26027.1 -03497.2 -07.6529 26261.0
 24 10 2013  22 48  -21.0060 26027.1 -03497.3 -07.6530 26261.1
 24 10 2013  22 49  -21.0062 26027.2 -03497.3 -07.6530 26261.1
 24 10 2013  22 50  -21.0062 26027.1 -03497.3 -07.6531 26261.0
 24 10 2013  22 51  -21.0062 26027.1 -03497.3 -07.6531 26261.0
 24 10 2013  22 52  -21.0062 26027.0 -03497.3 -07.6530 26260.9
 24 10 2013  22 53  -21.0063 26027.0 -03497.2 -07.6530 26260.9
 24 10 2013  22 54  -21.0064 26027.0 -03497.3 -07.6531 26260.9
 24 10 2013  22 55  -21.0066 26027.0 -03497.3 -07.6532 26260.9
 24 10 2013  22 56  -21.0067 26026.9 -03497.4 -07.6532 26260.9
 24 10 2013  22 57  -21.0067 26026.9 -03497.3 -07.6532 26260.8
 24 10 2013  22 58  -21.0067 26026.8 -03497.3 -07.6532 26260.8
 24 10 2013  22 59  -21.0067 26026.8 -03497.4 -07.6533 26260.7
 24 10 2013  23 00  -21.0067 26026.7 -03497.4 -07.6533 26260.6
 24 10 2013  23 01  -21.0067 26026.6 -03497.4 -07.6534 26260.6
 24 10 2013  23 02  -21.0066 26026.6 -03497.4 -07.6534 26260.6
 24 10 2013  23 03  -21.0067 26026.6 -03497.4 -07.6534 26260.5
 24 10 2013  23 04  -21.0067 26026.5 -03497.4 -07.6535 26260.4
 24 10 2013  23 05  -21.0067 26026.5 -03497.5 -07.6536 26260.4
 24 10 2013  23 06  -21.0067 26026.4 -03497.5 -07.6537 26260.4
 24 10 2013  23 07  -21.0066 26026.4 -03497.6 -07.6538 26260.4
 24 10 2013  23 08  -21.0065 26026.4 -03497.6 -07.6539 26260.3
 24 10 2013  23 09  -21.0064 26026.3 -03497.7 -07.6541 26260.3
 24 10 2013  23 10  -21.0064 26026.3 -03497.7 -07.6542 26260.3
 24 10 2013  23 11  -21.0062 26026.3 -03497.7 -07.6543 26260.2
 24 10 2013  23 12  -21.0062 26026.3 -03497.8 -07.6544 26260.2
 24 10 2013  23 13  -21.0063 26026.2 -03497.9 -07.6545 26260.2
 24 10 2013  23 14  -21.0063 26026.2 -03497.9 -07.6546 26260.2
 24 10 2013  23 15  -21.0063 26026.2 -03497.9 -07.6547 26260.2
 24 10 2013  23 16  -21.0064 26026.1 -03498.0 -07.6548 26260.2
 24 10 2013  23 17  -21.0064 26026.1 -03498.0 -07.6550 26260.1
 24 10 2013  23 18  -21.0064 26026.1 -03498.1 -07.6550 26260.1
 24 10 2013  23 19  -21.0064 26026.1 -03498.1 -07.6551 26260.1
 24 10 2013  23 20  -21.0064 26026.0 -03498.1 -07.6552 26260.1
 24 10 2013  23 21  -21.0063 26026.0 -03498.2 -07.6552 26260.1
 24 10 2013  23 22  -21.0062 26026.0 -03498.2 -07.6554 26260.0
 24 10 2013  23 23  -21.0063 26026.0 -03498.3 -07.6556 26260.0
 24 10 2013  23 24  -21.0063 26026.0 -03498.4 -07.6557 26260.0
 24 10 2013  23 25  -21.0062 26026.0 -03498.4 -07.6557 26260.1
 24 10 2013  23 26  -21.0062 26026.0 -03498.5 -07.6559 26260.1
 24 10 2013  23 27  -21.0061 26026.0 -03498.5 -07.6561 26260.1
 24 10 2013  23 28  -21.0060 26026.0 -03498.6 -07.6562 26260.1
 24 10 2013  23 29  -21.0059 26025.9 -03498.6 -07.6562 26260.0
 24 10 2013  23 30  -21.0058 26025.9 -03498.7 -07.6564 26260.0
 24 10 2013  23 31  -21.0056 26025.9 -03498.7 -07.6565 26260.0
 24 10 2013  23 32  -21.0054 26025.8 -03498.8 -07.6566 26260.0
 24 10 2013  23 33  -21.0053 26025.8 -03498.8 -07.6567 26259.9
 24 10 2013  23 34  -21.0051 26025.8 -03498.8 -07.6567 26259.9
 24 10 2013  23 35  -21.0050 26025.7 -03498.9 -07.6568 26259.9
 24 10 2013  23 36  -21.0049 26025.7 -03498.9 -07.6569 26259.9
 24 10 2013  23 37  -21.0048 26025.7 -03498.9 -07.6570 26259.8
 24 10 2013  23 38  -21.0046 26025.6 -03498.9 -07.6570 26259.8
 24 10 2013  23 39  -21.0045 26025.6 -03499.0 -07.6571 26259.8
 24 10 2013  23 40  -21.0043 26025.6 -03499.0 -07.6571 26259.8
 24 10 2013  23 41  -21.0043 26025.6 -03499.0 -07.6572 26259.8
 24 10 2013  23 42  -21.0043 26025.6 -03499.0 -07.6572 26259.7
 24 10 2013  23 43  -21.0041 26025.5 -03499.0 -07.6571 26259.6
 24 10 2013  23 44  -21.0040 26025.4 -03498.9 -07.6571 26259.6
 24 10 2013  23 45  -21.0039 26025.3 -03498.9 -07.6570 26259.5
 24 10 2013  23 46  -21.0038 26025.3 -03498.9 -07.6571 26259.5
 24 10 2013  23 47  -21.0037 26025.3 -03498.9 -07.6571 26259.4
 24 10 2013  23 48  -21.0036 26025.2 -03498.9 -07.6571 26259.4
 24 10 2013  23 49  -21.0035 26025.2 -03499.0 -07.6572 26259.4
 24 10 2013  23 50  -21.0034 26025.2 -03498.9 -07.6571 26259.3
 24 10 2013  23 51  -21.0033 26025.2 -03498.9 -07.6571 26259.3
 24 10 2013  23 52  -21.0032 26025.1 -03498.9 -07.6571 26259.3
 24 10 2013  23 53  -21.0031 26025.1 -03498.9 -07.6571 26259.2
 24 10 2013  23 54  -21.0030 26025.0 -03498.9 -07.6572 26259.1
 24 10 2013  23 55  -21.0028 26025.0 -03498.9 -07.6571 26259.1
 24 10 2013  23 56  -21.0025 26024.9 -03498.9 -07.6571 26259.1
 24 10 2013  23 57  -21.0024 26025.0 -03498.9 -07.6572 26259.1
