SAO LUIS EMBRACE-03 <265> 1 Min. Reported data

 DD MM YYYY  HH MM   D(Deg)  H(nT)   Z(nT)   I(Deg)   F(nT)

 22 09 2013  00 00  -21.0119 26025.7 -03486.6 -07.6302 26258.2
 22 09 2013  00 01  -21.0119 26025.8 -03486.6 -07.6304 26258.3
 22 09 2013  00 02  -21.0116 26025.8 -03486.7 -07.6305 26258.3
 22 09 2013  00 03  -21.0113 26025.8 -03486.7 -07.6306 26258.3
 22 09 2013  00 04  -21.0110 26025.7 -03486.8 -07.6307 26258.3
 22 09 2013  00 05  -21.0107 26025.9 -03486.9 -07.6308 26258.4
 22 09 2013  00 06  -21.0102 26026.0 -03487.0 -07.6310 26258.5
 22 09 2013  00 07  -21.0098 26026.0 -03487.0 -07.6312 26258.6
 22 09 2013  00 08  -21.0093 26025.9 -03487.0 -07.6312 26258.5
 22 09 2013  00 09  -21.0088 26025.8 -03487.0 -07.6312 26258.4
 22 09 2013  00 10  -21.0085 26025.9 -03487.1 -07.6313 26258.5
 22 09 2013  00 11  -21.0082 26026.1 -03487.2 -07.6315 26258.7
 22 09 2013  00 12  -21.0079 26026.3 -03487.4 -07.6318 26258.9
 22 09 2013  00 13  -21.0077 26026.2 -03487.4 -07.6319 26258.8
 22 09 2013  00 14  -21.0075 26026.4 -03487.5 -07.6320 26259.0
 22 09 2013  00 15  -21.0074 26027.1 -03487.9 -07.6327 26259.8
 22 09 2013  00 16  -21.0077 26027.2 -03488.0 -07.6329 26259.8
 22 09 2013  00 17  -21.0078 26027.1 -03487.9 -07.6328 26259.8
 22 09 2013  00 18  -21.0080 26027.1 -03487.9 -07.6328 26259.7
 22 09 2013  00 19  -21.0078 26027.3 -03488.0 -07.6328 26259.9
 22 09 2013  00 20  -21.0076 26027.1 -03487.9 -07.6327 26259.8
 22 09 2013  00 21  -21.0071 26027.5 -03488.0 -07.6329 26260.2
 22 09 2013  00 22  -21.0068 26027.5 -03488.1 -07.6330 26260.2
 22 09 2013  00 23  -21.0065 26027.7 -03488.2 -07.6332 26260.4
 22 09 2013  00 24  -21.0062 26027.7 -03488.2 -07.6333 26260.4
 22 09 2013  00 25  -21.0062 26027.7 -03488.2 -07.6332 26260.4
 22 09 2013  00 26  -21.0061 26028.0 -03488.3 -07.6334 26260.7
 22 09 2013  00 27  -21.0059 26028.3 -03488.5 -07.6337 26261.0
 22 09 2013  00 28  -21.0059 26028.3 -03488.5 -07.6337 26261.0
 22 09 2013  00 29  -21.0059 26028.4 -03488.5 -07.6337 26261.1
 22 09 2013  00 30  -21.0059 26028.6 -03488.6 -07.6339 26261.3
 22 09 2013  00 31  -21.0061 26028.4 -03488.5 -07.6338 26261.1
 22 09 2013  00 32  -21.0063 26028.1 -03488.4 -07.6334 26260.8
 22 09 2013  00 33  -21.0065 26028.2 -03488.4 -07.6335 26261.0
 22 09 2013  00 34  -21.0065 26028.3 -03488.4 -07.6335 26261.0
 22 09 2013  00 35  -21.0063 26028.3 -03488.4 -07.6335 26261.1
 22 09 2013  00 36  -21.0065 26027.9 -03488.2 -07.6332 26260.6
 22 09 2013  00 37  -21.0065 26028.0 -03488.2 -07.6332 26260.7
 22 09 2013  00 38  -21.0065 26028.0 -03488.2 -07.6331 26260.7
 22 09 2013  00 39  -21.0063 26028.3 -03488.4 -07.6334 26261.0
 22 09 2013  00 40  -21.0060 26028.2 -03488.4 -07.6334 26260.9
 22 09 2013  00 41  -21.0060 26028.3 -03488.4 -07.6334 26261.0
 22 09 2013  00 42  -21.0060 26028.2 -03488.4 -07.6335 26260.9
 22 09 2013  00 43  -21.0061 26028.1 -03488.3 -07.6334 26260.8
 22 09 2013  00 44  -21.0061 26028.3 -03488.5 -07.6336 26261.1
 22 09 2013  00 45  -21.0063 26028.3 -03488.5 -07.6336 26261.0
 22 09 2013  00 46  -21.0061 26028.3 -03488.5 -07.6336 26261.1
 22 09 2013  00 47  -21.0062 26028.2 -03488.4 -07.6336 26261.0
 22 09 2013  00 48  -21.0063 26028.1 -03488.4 -07.6335 26260.8
 22 09 2013  00 49  -21.0063 26028.1 -03488.4 -07.6335 26260.9
 22 09 2013  00 50  -21.0063 26028.2 -03488.5 -07.6336 26260.9
 22 09 2013  00 51  -21.0063 26028.3 -03488.5 -07.6337 26261.0
 22 09 2013  00 52  -21.0058 26028.3 -03488.5 -07.6337 26261.1
 22 09 2013  00 53  -21.0055 26028.4 -03488.5 -07.6337 26261.1
 22 09 2013  00 54  -21.0056 26028.2 -03488.5 -07.6336 26260.9
 22 09 2013  00 55  -21.0057 26028.2 -03488.5 -07.6337 26261.0
 22 09 2013  00 56  -21.0058 26028.3 -03488.5 -07.6337 26261.1
 22 09 2013  00 57  -21.0061 26028.3 -03488.5 -07.6337 26261.1
 22 09 2013  00 58  -21.0059 26028.4 -03488.6 -07.6339 26261.2
 22 09 2013  00 59  -21.0060 26028.2 -03488.5 -07.6337 26260.9
 22 09 2013  01 00  -21.0057 26028.2 -03488.5 -07.6337 26260.9
 22 09 2013  01 01  -21.0050 26029.0 -03488.8 -07.6341 26261.8
 22 09 2013  01 02  -21.0051 26028.4 -03488.6 -07.6339 26261.2
 22 09 2013  01 03  -21.0049 26029.0 -03488.8 -07.6341 26261.8
 22 09 2013  01 04  -21.0047 26029.4 -03489.1 -07.6346 26262.2
 22 09 2013  01 05  -21.0051 26029.1 -03489.0 -07.6344 26261.9
 22 09 2013  01 06  -21.0046 26029.5 -03489.1 -07.6347 26262.3
 22 09 2013  01 07  -21.0047 26029.3 -03489.0 -07.6346 26262.1
 22 09 2013  01 08  -21.0045 26029.4 -03489.1 -07.6346 26262.2
 22 09 2013  01 09  -21.0044 26029.5 -03489.1 -07.6346 26262.3
 22 09 2013  01 10  -21.0043 26029.8 -03489.2 -07.6347 26262.6
 22 09 2013  01 11  -21.0043 26029.6 -03489.1 -07.6346 26262.4
 22 09 2013  01 12  -21.0042 26029.7 -03489.1 -07.6347 26262.6
 22 09 2013  01 13  -21.0039 26030.2 -03489.3 -07.6350 26263.0
 22 09 2013  01 14  -21.0039 26030.1 -03489.3 -07.6350 26262.9
 22 09 2013  01 15  -21.0036 26030.5 -03489.4 -07.6351 26263.3
 22 09 2013  01 16  -21.0037 26030.7 -03489.6 -07.6353 26263.5
 22 09 2013  01 17  -21.0036 26030.7 -03489.6 -07.6353 26263.6
 22 09 2013  01 18  -21.0036 26030.7 -03489.5 -07.6353 26263.5
 22 09 2013  01 19  -21.0034 26031.0 -03489.6 -07.6354 26263.8
 22 09 2013  01 20  -21.0034 26030.8 -03489.5 -07.6352 26263.7
 22 09 2013  01 21  -21.0033 26031.0 -03489.6 -07.6353 26263.9
 22 09 2013  01 22  -21.0035 26031.0 -03489.6 -07.6353 26263.8
 22 09 2013  01 23  -21.0035 26030.9 -03489.6 -07.6352 26263.8
 22 09 2013  01 24  -21.0035 26030.8 -03489.5 -07.6350 26263.6
 22 09 2013  01 25  -21.0034 26030.6 -03489.4 -07.6349 26263.5
 22 09 2013  01 26  -21.0034 26030.5 -03489.3 -07.6348 26263.3
 22 09 2013  01 27  -21.0034 26030.4 -03489.3 -07.6347 26263.3
 22 09 2013  01 28  -21.0035 26030.5 -03489.3 -07.6348 26263.3
 22 09 2013  01 29  -21.0034 26030.5 -03489.3 -07.6348 26263.3
 22 09 2013  01 30  -21.0033 26030.6 -03489.4 -07.6349 26263.4
 22 09 2013  01 31  -21.0032 26030.6 -03489.4 -07.6349 26263.5
 22 09 2013  01 32  -21.0032 26030.7 -03489.4 -07.6350 26263.5
 22 09 2013  01 33  -21.0032 26030.7 -03489.4 -07.6349 26263.5
 22 09 2013  01 34  -21.0033 26030.6 -03489.3 -07.6348 26263.4
 22 09 2013  01 35  -21.0033 26030.4 -03489.2 -07.6347 26263.2
 22 09 2013  01 36  -21.0034 26030.3 -03489.1 -07.6345 26263.1
 22 09 2013  01 37  -21.0035 26030.1 -03489.0 -07.6343 26262.9
 22 09 2013  01 38  -21.0037 26029.9 -03488.9 -07.6342 26262.6
 22 09 2013  01 39  -21.0039 26029.7 -03488.9 -07.6341 26262.5
 22 09 2013  01 40  -21.0040 26029.9 -03488.9 -07.6341 26262.6
 22 09 2013  01 41  -21.0042 26030.0 -03489.0 -07.6343 26262.8
 22 09 2013  01 42  -21.0044 26029.9 -03489.0 -07.6343 26262.7
 22 09 2013  01 43  -21.0045 26030.2 -03489.1 -07.6345 26263.0
 22 09 2013  01 44  -21.0045 26030.2 -03489.1 -07.6345 26263.0
 22 09 2013  01 45  -21.0042 26030.4 -03489.2 -07.6346 26263.2
 22 09 2013  01 46  -21.0041 26030.2 -03489.1 -07.6344 26263.0
 22 09 2013  01 47  -21.0039 26030.4 -03489.1 -07.6344 26263.2
 22 09 2013  01 48  -21.0039 26030.3 -03489.1 -07.6344 26263.1
 22 09 2013  01 49  -21.0038 26030.2 -03489.0 -07.6342 26263.0
 22 09 2013  01 50  -21.0039 26030.0 -03488.9 -07.6340 26262.8
 22 09 2013  01 51  -21.0040 26029.8 -03488.8 -07.6339 26262.6
 22 09 2013  01 52  -21.0042 26029.5 -03488.7 -07.6338 26262.3
 22 09 2013  01 53  -21.0043 26029.3 -03488.6 -07.6336 26262.1
 22 09 2013  01 54  -21.0045 26029.0 -03488.5 -07.6334 26261.7
 22 09 2013  01 55  -21.0045 26028.8 -03488.3 -07.6331 26261.5
 22 09 2013  01 56  -21.0047 26028.5 -03488.2 -07.6330 26261.2
 22 09 2013  01 57  -21.0047 26028.3 -03488.1 -07.6329 26260.9
 22 09 2013  01 58  -21.0047 26027.9 -03488.0 -07.6327 26260.6
 22 09 2013  01 59  -21.0046 26027.6 -03487.9 -07.6326 26260.3
 22 09 2013  02 00  -21.0042 26027.8 -03488.1 -07.6329 26260.5
 22 09 2013  02 01  -21.0043 26027.5 -03488.1 -07.6330 26260.2
 22 09 2013  02 02  -21.0042 26027.9 -03488.3 -07.6334 26260.6
 22 09 2013  02 03  -21.0048 26027.9 -03488.4 -07.6337 26260.7
 22 09 2013  02 04  -21.0052 26028.0 -03488.6 -07.6339 26260.8
 22 09 2013  02 05  -21.0058 26027.9 -03488.6 -07.6340 26260.7
 22 09 2013  02 06  -21.0063 26027.9 -03488.6 -07.6340 26260.7
 22 09 2013  02 07  -21.0067 26027.8 -03488.6 -07.6341 26260.6
 22 09 2013  02 08  -21.0070 26027.6 -03488.5 -07.6338 26260.3
 22 09 2013  02 09  -21.0072 26027.5 -03488.5 -07.6339 26260.3
 22 09 2013  02 10  -21.0072 26027.5 -03488.5 -07.6338 26260.2
 22 09 2013  02 11  -21.0074 26027.4 -03488.5 -07.6339 26260.2
 22 09 2013  02 12  -21.0075 26027.3 -03488.5 -07.6339 26260.0
 22 09 2013  02 13  -21.0076 26027.3 -03488.5 -07.6339 26260.1
 22 09 2013  02 14  -21.0077 26027.1 -03488.4 -07.6339 26259.8
 22 09 2013  02 15  -21.0077 26027.2 -03488.5 -07.6340 26260.0
 22 09 2013  02 16  -21.0075 26027.5 -03488.7 -07.6343 26260.3
 22 09 2013  02 17  -21.0079 26027.1 -03488.6 -07.6342 26259.9
 22 09 2013  02 18  -21.0079 26027.2 -03488.6 -07.6342 26260.0
 22 09 2013  02 19  -21.0081 26027.2 -03488.7 -07.6343 26260.0
 22 09 2013  02 20  -21.0082 26027.2 -03488.7 -07.6344 26259.9
 22 09 2013  02 21  -21.0084 26027.2 -03488.7 -07.6344 26260.0
 22 09 2013  02 22  -21.0085 26027.1 -03488.7 -07.6344 26259.9
 22 09 2013  02 23  -21.0085 26027.2 -03488.7 -07.6345 26260.0
 22 09 2013  02 24  -21.0084 26027.3 -03488.8 -07.6346 26260.0
 22 09 2013  02 25  -21.0083 26027.3 -03488.8 -07.6347 26260.1
 22 09 2013  02 26  -21.0080 26027.7 -03489.0 -07.6350 26260.5
 22 09 2013  02 27  -21.0081 26028.1 -03489.3 -07.6355 26260.9
 22 09 2013  02 28  -21.0084 26027.9 -03489.2 -07.6354 26260.7
 22 09 2013  02 29  -21.0082 26028.3 -03489.4 -07.6357 26261.1
 22 09 2013  02 30  -21.0082 26028.2 -03489.3 -07.6355 26261.0
 22 09 2013  02 31  -21.0080 26028.7 -03489.6 -07.6359 26261.6
 22 09 2013  02 32  -21.0079 26028.4 -03489.5 -07.6357 26261.3
 22 09 2013  02 33  -21.0076 26028.6 -03489.6 -07.6359 26261.5
 22 09 2013  02 34  -21.0074 26028.9 -03489.7 -07.6361 26261.7
 22 09 2013  02 35  -21.0072 26029.3 -03489.9 -07.6364 26262.3
 22 09 2013  02 36  -21.0072 26029.7 -03490.1 -07.6368 26262.6
 22 09 2013  02 37  -21.0070 26030.1 -03490.3 -07.6370 26263.0
 22 09 2013  02 38  -21.0065 26030.5 -03490.5 -07.6373 26263.5
 22 09 2013  02 39  -21.0062 26030.7 -03490.6 -07.6375 26263.7
 22 09 2013  02 40  -21.0059 26031.1 -03490.7 -07.6377 26264.1
 22 09 2013  02 41  -21.0056 26031.4 -03490.8 -07.6379 26264.4
 22 09 2013  02 42  -21.0057 26031.5 -03490.9 -07.6380 26264.5
 22 09 2013  02 43  -21.0057 26031.9 -03491.1 -07.6382 26264.9
 22 09 2013  02 44  -21.0058 26032.3 -03491.3 -07.6385 26265.4
 22 09 2013  02 45  -21.0062 26032.4 -03491.3 -07.6385 26265.4
 22 09 2013  02 46  -21.0065 26032.7 -03491.4 -07.6386 26265.7
 22 09 2013  02 47  -21.0068 26033.0 -03491.5 -07.6388 26266.1
 22 09 2013  02 48  -21.0069 26033.1 -03491.5 -07.6387 26266.1
 22 09 2013  02 49  -21.0068 26033.1 -03491.4 -07.6385 26266.2
 22 09 2013  02 50  -21.0068 26033.1 -03491.3 -07.6383 26266.2
 22 09 2013  02 51  -21.0068 26033.2 -03491.3 -07.6383 26266.3
 22 09 2013  02 52  -21.0070 26033.2 -03491.2 -07.6381 26266.2
 22 09 2013  02 53  -21.0074 26033.3 -03491.2 -07.6381 26266.4
 22 09 2013  02 54  -21.0079 26033.2 -03491.1 -07.6379 26266.2
 22 09 2013  02 55  -21.0085 26033.1 -03491.0 -07.6377 26266.2
 22 09 2013  02 56  -21.0091 26033.0 -03490.9 -07.6375 26266.0
 22 09 2013  02 57  -21.0095 26033.0 -03490.8 -07.6373 26266.0
 22 09 2013  02 58  -21.0095 26032.9 -03490.7 -07.6371 26265.9
 22 09 2013  02 59  -21.0089 26032.8 -03490.5 -07.6367 26265.7
 22 09 2013  03 00  -21.0084 26032.7 -03490.4 -07.6365 26265.6
 22 09 2013  03 01  -21.0082 26032.7 -03490.4 -07.6364 26265.6
 22 09 2013  03 02  -21.0084 26032.6 -03490.4 -07.6365 26265.6
 22 09 2013  03 03  -21.0086 26032.6 -03490.4 -07.6365 26265.6
 22 09 2013  03 04  -21.0088 26032.3 -03490.2 -07.6363 26265.2
 22 09 2013  03 05  -21.0088 26032.0 -03490.1 -07.6360 26264.9
 22 09 2013  03 06  -21.0084 26031.9 -03490.0 -07.6359 26264.8
 22 09 2013  03 07  -21.0080 26031.9 -03490.0 -07.6359 26264.8
 22 09 2013  03 08  -21.0080 26031.8 -03490.0 -07.6359 26264.8
 22 09 2013  03 09  -21.0081 26031.8 -03490.0 -07.6359 26264.7
 22 09 2013  03 10  -21.0086 26031.8 -03490.0 -07.6360 26264.7
 22 09 2013  03 11  -21.0091 26031.7 -03490.0 -07.6360 26264.6
 22 09 2013  03 12  -21.0097 26031.5 -03490.0 -07.6360 26264.5
 22 09 2013  03 13  -21.0103 26031.5 -03490.0 -07.6359 26264.4
 22 09 2013  03 14  -21.0109 26031.4 -03489.9 -07.6358 26264.3
 22 09 2013  03 15  -21.0114 26031.2 -03489.8 -07.6356 26264.1
 22 09 2013  03 16  -21.0120 26031.0 -03489.6 -07.6353 26263.8
 22 09 2013  03 17  -21.0125 26030.7 -03489.4 -07.6349 26263.6
 22 09 2013  03 18  -21.0130 26030.5 -03489.3 -07.6347 26263.3
 22 09 2013  03 19  -21.0134 26030.2 -03489.1 -07.6344 26263.0
 22 09 2013  03 20  -21.0139 26030.1 -03489.0 -07.6342 26262.9
 22 09 2013  03 21  -21.0141 26030.1 -03488.9 -07.6340 26262.9
 22 09 2013  03 22  -21.0143 26029.9 -03488.8 -07.6338 26262.7
 22 09 2013  03 23  -21.0144 26029.8 -03488.7 -07.6337 26262.5
 22 09 2013  03 24  -21.0147 26029.5 -03488.5 -07.6333 26262.2
 22 09 2013  03 25  -21.0150 26029.2 -03488.3 -07.6330 26261.9
 22 09 2013  03 26  -21.0152 26029.0 -03488.2 -07.6328 26261.7
 22 09 2013  03 27  -21.0152 26028.7 -03488.0 -07.6325 26261.4
 22 09 2013  03 28  -21.0155 26028.5 -03487.8 -07.6322 26261.1
 22 09 2013  03 29  -21.0157 26028.3 -03487.8 -07.6321 26261.0
 22 09 2013  03 30  -21.0156 26028.2 -03487.7 -07.6319 26260.8
 22 09 2013  03 31  -21.0157 26028.1 -03487.6 -07.6317 26260.7
 22 09 2013  03 32  -21.0156 26028.0 -03487.5 -07.6317 26260.6
 22 09 2013  03 33  -21.0154 26027.9 -03487.5 -07.6316 26260.5
 22 09 2013  03 34  -21.0153 26027.8 -03487.4 -07.6315 26260.4
 22 09 2013  03 35  -21.0151 26027.7 -03487.4 -07.6314 26260.3
 22 09 2013  03 36  -21.0148 26027.7 -03487.3 -07.6314 26260.3
 22 09 2013  03 37  -21.0145 26027.6 -03487.4 -07.6314 26260.2
 22 09 2013  03 38  -21.0143 26027.7 -03487.4 -07.6315 26260.3
 22 09 2013  03 39  -21.0141 26027.8 -03487.5 -07.6316 26260.4
 22 09 2013  03 40  -21.0138 26027.8 -03487.5 -07.6316 26260.4
 22 09 2013  03 41  -21.0138 26027.8 -03487.5 -07.6317 26260.4
 22 09 2013  03 42  -21.0141 26027.7 -03487.5 -07.6317 26260.3
 22 09 2013  03 43  -21.0143 26027.5 -03487.4 -07.6316 26260.1
 22 09 2013  03 44  -21.0143 26027.4 -03487.3 -07.6314 26260.0
 22 09 2013  03 45  -21.0143 26027.1 -03487.3 -07.6314 26259.7
 22 09 2013  03 46  -21.0141 26026.9 -03487.2 -07.6312 26259.5
 22 09 2013  03 47  -21.0137 26026.7 -03487.0 -07.6310 26259.3
 22 09 2013  03 48  -21.0136 26026.3 -03486.9 -07.6307 26258.9
 22 09 2013  03 49  -21.0132 26026.2 -03486.8 -07.6306 26258.7
 22 09 2013  03 50  -21.0128 26026.0 -03486.7 -07.6305 26258.5
 22 09 2013  03 51  -21.0124 26025.9 -03486.7 -07.6305 26258.4
 22 09 2013  03 52  -21.0123 26025.8 -03486.7 -07.6305 26258.3
 22 09 2013  03 53  -21.0121 26025.8 -03486.8 -07.6307 26258.3
 22 09 2013  03 54  -21.0120 26025.7 -03486.8 -07.6307 26258.2
 22 09 2013  03 55  -21.0119 26025.6 -03486.8 -07.6308 26258.2
 22 09 2013  03 56  -21.0116 26025.6 -03486.9 -07.6309 26258.1
 22 09 2013  03 57  -21.0115 26025.7 -03487.0 -07.6311 26258.2
 22 09 2013  03 58  -21.0116 26025.8 -03487.1 -07.6313 26258.3
 22 09 2013  03 59  -21.0117 26025.8 -03487.2 -07.6315 26258.4
 22 09 2013  04 00  -21.0118 26025.8 -03487.2 -07.6316 26258.4
 22 09 2013  04 01  -21.0119 26025.8 -03487.2 -07.6316 26258.4
 22 09 2013  04 02  -21.0120 26025.7 -03487.2 -07.6316 26258.3
 22 09 2013  04 03  -21.0120 26025.5 -03487.1 -07.6316 26258.0
 22 09 2013  04 04  -21.0119 26025.3 -03487.1 -07.6315 26257.8
 22 09 2013  04 05  -21.0118 26025.0 -03487.0 -07.6314 26257.6
 22 09 2013  04 06  -21.0117 26024.9 -03487.0 -07.6314 26257.4
 22 09 2013  04 07  -21.0116 26024.7 -03486.9 -07.6314 26257.3
 22 09 2013  04 08  -21.0115 26024.6 -03486.9 -07.6314 26257.1
 22 09 2013  04 09  -21.0115 26024.5 -03486.9 -07.6314 26257.1
 22 09 2013  04 10  -21.0115 26024.4 -03487.0 -07.6315 26257.0
 22 09 2013  04 11  -21.0113 26024.4 -03487.0 -07.6316 26257.0
 22 09 2013  04 12  -21.0111 26024.4 -03487.1 -07.6317 26257.0
 22 09 2013  04 13  -21.0109 26024.4 -03487.1 -07.6319 26257.0
 22 09 2013  04 14  -21.0109 26024.4 -03487.2 -07.6320 26257.0
 22 09 2013  04 15  -21.0108 26024.4 -03487.3 -07.6321 26257.0
 22 09 2013  04 16  -21.0109 26024.3 -03487.3 -07.6322 26256.9
 22 09 2013  04 17  -21.0110 26024.2 -03487.3 -07.6323 26256.8
 22 09 2013  04 18  -21.0112 26024.1 -03487.3 -07.6323 26256.7
 22 09 2013  04 19  -21.0112 26023.8 -03487.2 -07.6321 26256.4
 22 09 2013  04 20  -21.0110 26023.5 -03487.1 -07.6321 26256.1
 22 09 2013  04 21  -21.0108 26023.2 -03487.0 -07.6319 26255.8
 22 09 2013  04 22  -21.0106 26023.1 -03487.0 -07.6319 26255.6
 22 09 2013  04 23  -21.0104 26022.9 -03487.0 -07.6320 26255.5
 22 09 2013  04 24  -21.0102 26022.8 -03487.0 -07.6320 26255.4
 22 09 2013  04 25  -21.0102 26022.7 -03487.0 -07.6321 26255.3
 22 09 2013  04 26  -21.0102 26022.7 -03487.1 -07.6323 26255.3
 22 09 2013  04 27  -21.0102 26023.0 -03487.3 -07.6326 26255.6
 22 09 2013  04 28  -21.0101 26023.6 -03487.6 -07.6332 26256.2
 22 09 2013  04 29  -21.0101 26024.2 -03488.0 -07.6338 26256.9
 22 09 2013  04 30  -21.0101 26024.9 -03488.4 -07.6345 26257.6
 22 09 2013  04 31  -21.0101 26025.1 -03488.5 -07.6347 26257.9
 22 09 2013  04 32  -21.0099 26025.4 -03488.7 -07.6350 26258.2
 22 09 2013  04 33  -21.0096 26025.4 -03488.7 -07.6350 26258.2
 22 09 2013  04 34  -21.0093 26025.9 -03488.9 -07.6352 26258.7
 22 09 2013  04 35  -21.0095 26026.4 -03489.2 -07.6357 26259.2
 22 09 2013  04 36  -21.0095 26026.7 -03489.3 -07.6359 26259.6
 22 09 2013  04 37  -21.0093 26026.7 -03489.3 -07.6358 26259.5
 22 09 2013  04 38  -21.0089 26026.6 -03489.2 -07.6356 26259.4
 22 09 2013  04 39  -21.0085 26026.5 -03489.1 -07.6355 26259.3
 22 09 2013  04 40  -21.0082 26026.2 -03489.0 -07.6353 26259.1
 22 09 2013  04 41  -21.0077 26026.2 -03488.9 -07.6352 26259.0
 22 09 2013  04 42  -21.0074 26026.0 -03488.9 -07.6351 26258.9
 22 09 2013  04 43  -21.0075 26026.1 -03489.0 -07.6353 26259.0
 22 09 2013  04 44  -21.0077 26026.2 -03489.0 -07.6354 26259.0
 22 09 2013  04 45  -21.0078 26026.0 -03488.9 -07.6353 26258.8
 22 09 2013  04 46  -21.0078 26026.1 -03489.0 -07.6355 26258.9
 22 09 2013  04 47  -21.0078 26026.0 -03489.0 -07.6354 26258.8
 22 09 2013  04 48  -21.0077 26026.0 -03489.0 -07.6354 26258.8
 22 09 2013  04 49  -21.0078 26026.2 -03489.1 -07.6355 26259.0
 22 09 2013  04 50  -21.0082 26026.4 -03489.2 -07.6358 26259.3
 22 09 2013  04 51  -21.0083 26026.7 -03489.4 -07.6360 26259.6
 22 09 2013  04 52  -21.0089 26027.0 -03489.5 -07.6362 26259.8
 22 09 2013  04 53  -21.0093 26027.2 -03489.6 -07.6364 26260.1
 22 09 2013  04 54  -21.0095 26027.3 -03489.6 -07.6364 26260.2
 22 09 2013  04 55  -21.0098 26027.6 -03489.7 -07.6365 26260.5
 22 09 2013  04 56  -21.0102 26027.8 -03489.8 -07.6366 26260.7
 22 09 2013  04 57  -21.0106 26027.6 -03489.7 -07.6364 26260.5
 22 09 2013  04 58  -21.0108 26027.7 -03489.7 -07.6364 26260.6
 22 09 2013  04 59  -21.0108 26027.8 -03489.7 -07.6363 26260.7
 22 09 2013  05 00  -21.0107 26027.8 -03489.6 -07.6362 26260.7
 22 09 2013  05 01  -21.0107 26027.9 -03489.6 -07.6363 26260.8
 22 09 2013  05 02  -21.0108 26028.0 -03489.6 -07.6362 26260.9
 22 09 2013  05 03  -21.0111 26028.0 -03489.7 -07.6362 26260.9
 22 09 2013  05 04  -21.0113 26028.0 -03489.6 -07.6362 26260.9
 22 09 2013  05 05  -21.0113 26028.0 -03489.6 -07.6361 26260.9
 22 09 2013  05 06  -21.0114 26028.0 -03489.5 -07.6360 26260.9
 22 09 2013  05 07  -21.0115 26028.0 -03489.5 -07.6359 26260.8
 22 09 2013  05 08  -21.0116 26027.9 -03489.5 -07.6359 26260.8
 22 09 2013  05 09  -21.0117 26027.9 -03489.4 -07.6358 26260.7
 22 09 2013  05 10  -21.0121 26027.8 -03489.5 -07.6359 26260.7
 22 09 2013  05 11  -21.0123 26027.8 -03489.4 -07.6358 26260.7
 22 09 2013  05 12  -21.0124 26027.7 -03489.3 -07.6357 26260.5
 22 09 2013  05 13  -21.0122 26027.4 -03489.2 -07.6354 26260.2
 22 09 2013  05 14  -21.0121 26027.2 -03489.1 -07.6353 26260.0
 22 09 2013  05 15  -21.0118 26027.0 -03489.0 -07.6351 26259.8
 22 09 2013  05 16  -21.0117 26026.9 -03488.9 -07.6351 26259.7
 22 09 2013  05 17  -21.0119 26026.9 -03489.0 -07.6351 26259.7
 22 09 2013  05 18  -21.0124 26027.1 -03489.1 -07.6354 26259.9
 22 09 2013  05 19  -21.0128 26027.1 -03489.2 -07.6356 26260.0
 22 09 2013  05 20  -21.0133 26027.4 -03489.4 -07.6358 26260.2
 22 09 2013  05 21  -21.0139 26027.6 -03489.5 -07.6360 26260.5
 22 09 2013  05 22  -21.0144 26027.8 -03489.6 -07.6361 26260.7
 22 09 2013  05 23  -21.0145 26028.1 -03489.7 -07.6363 26261.0
 22 09 2013  05 24  -21.0143 26028.4 -03489.8 -07.6364 26261.3
 22 09 2013  05 25  -21.0143 26028.4 -03489.8 -07.6364 26261.3
 22 09 2013  05 26  -21.0144 26028.6 -03489.8 -07.6364 26261.5
 22 09 2013  05 27  -21.0142 26028.7 -03489.8 -07.6365 26261.6
 22 09 2013  05 28  -21.0139 26028.8 -03489.9 -07.6365 26261.7
 22 09 2013  05 29  -21.0137 26028.8 -03489.9 -07.6365 26261.8
 22 09 2013  05 30  -21.0136 26028.9 -03489.9 -07.6365 26261.8
 22 09 2013  05 31  -21.0134 26028.8 -03489.8 -07.6363 26261.7
 22 09 2013  05 32  -21.0132 26028.6 -03489.7 -07.6361 26261.5
 22 09 2013  05 33  -21.0127 26028.4 -03489.5 -07.6358 26261.2
 22 09 2013  05 34  -21.0125 26028.2 -03489.4 -07.6357 26261.0
 22 09 2013  05 35  -21.0124 26028.2 -03489.5 -07.6358 26261.0
 22 09 2013  05 36  -21.0126 26028.2 -03489.5 -07.6359 26261.1
 22 09 2013  05 37  -21.0130 26028.4 -03489.6 -07.6361 26261.3
 22 09 2013  05 38  -21.0134 26028.5 -03489.7 -07.6363 26261.4
 22 09 2013  05 39  -21.0133 26028.6 -03489.7 -07.6363 26261.5
 22 09 2013  05 40  -21.0131 26028.7 -03489.7 -07.6362 26261.6
 22 09 2013  05 41  -21.0129 26028.6 -03489.7 -07.6362 26261.5
 22 09 2013  05 42  -21.0128 26028.8 -03489.7 -07.6362 26261.7
 22 09 2013  05 43  -21.0126 26028.9 -03489.7 -07.6362 26261.8
 22 09 2013  05 44  -21.0124 26029.1 -03489.9 -07.6364 26262.0
 22 09 2013  05 45  -21.0123 26029.1 -03489.9 -07.6364 26262.1
 22 09 2013  05 46  -21.0125 26028.9 -03489.8 -07.6362 26261.8
 22 09 2013  05 47  -21.0126 26028.8 -03489.7 -07.6361 26261.7
 22 09 2013  05 48  -21.0125 26028.5 -03489.5 -07.6358 26261.4
 22 09 2013  05 49  -21.0126 26028.2 -03489.4 -07.6356 26261.1
 22 09 2013  05 50  -21.0127 26028.2 -03489.3 -07.6355 26261.0
 22 09 2013  05 51  -21.0127 26028.1 -03489.2 -07.6354 26260.9
 22 09 2013  05 52  -21.0128 26027.9 -03489.2 -07.6353 26260.8
 22 09 2013  05 53  -21.0129 26027.9 -03489.2 -07.6353 26260.8
 22 09 2013  05 54  -21.0130 26027.9 -03489.2 -07.6353 26260.7
 22 09 2013  05 55  -21.0129 26027.9 -03489.2 -07.6353 26260.7
 22 09 2013  05 56  -21.0126 26027.8 -03489.2 -07.6353 26260.7
 22 09 2013  05 57  -21.0125 26027.7 -03489.1 -07.6351 26260.5
 22 09 2013  05 58  -21.0125 26027.5 -03489.0 -07.6351 26260.3
 22 09 2013  05 59  -21.0123 26027.5 -03489.0 -07.6351 26260.3
 22 09 2013  06 00  -21.0120 26027.3 -03489.0 -07.6351 26260.2
 22 09 2013  06 01  -21.0119 26027.5 -03489.1 -07.6353 26260.4
 22 09 2013  06 02  -21.0117 26027.7 -03489.2 -07.6355 26260.5
 22 09 2013  06 03  -21.0116 26027.9 -03489.4 -07.6357 26260.7
 22 09 2013  06 04  -21.0115 26028.0 -03489.5 -07.6359 26260.8
 22 09 2013  06 05  -21.0114 26027.9 -03489.4 -07.6358 26260.8
 22 09 2013  06 06  -21.0116 26027.7 -03489.4 -07.6358 26260.6
 22 09 2013  06 07  -21.0115 26028.0 -03489.5 -07.6360 26260.9
 22 09 2013  06 08  -21.0111 26028.1 -03489.6 -07.6360 26261.0
 22 09 2013  06 09  -21.0109 26028.2 -03489.6 -07.6361 26261.1
 22 09 2013  06 10  -21.0110 26028.5 -03489.8 -07.6364 26261.4
 22 09 2013  06 11  -21.0112 26028.8 -03490.0 -07.6367 26261.7
 22 09 2013  06 12  -21.0110 26028.9 -03490.0 -07.6368 26261.9
 22 09 2013  06 13  -21.0104 26029.0 -03490.0 -07.6368 26261.9
 22 09 2013  06 14  -21.0093 26028.8 -03489.9 -07.6365 26261.7
 22 09 2013  06 15  -21.0080 26028.4 -03489.7 -07.6362 26261.3
 22 09 2013  06 16  -21.0073 26028.2 -03489.6 -07.6360 26261.1
 22 09 2013  06 17  -21.0074 26028.2 -03489.7 -07.6362 26261.1
 22 09 2013  06 18  -21.0082 26028.4 -03489.9 -07.6367 26261.4
 22 09 2013  06 19  -21.0088 26028.7 -03490.1 -07.6371 26261.6
 22 09 2013  06 20  -21.0090 26028.9 -03490.2 -07.6372 26261.9
 22 09 2013  06 21  -21.0094 26029.0 -03490.3 -07.6374 26262.0
 22 09 2013  06 22  -21.0098 26029.0 -03490.3 -07.6374 26262.0
 22 09 2013  06 23  -21.0102 26028.9 -03490.2 -07.6372 26261.9
 22 09 2013  06 24  -21.0106 26028.8 -03490.1 -07.6371 26261.8
 22 09 2013  06 25  -21.0109 26028.7 -03490.0 -07.6369 26261.7
 22 09 2013  06 26  -21.0111 26028.7 -03490.0 -07.6368 26261.6
 22 09 2013  06 27  -21.0111 26028.7 -03490.0 -07.6367 26261.6
 22 09 2013  06 28  -21.0113 26028.7 -03489.9 -07.6367 26261.6
 22 09 2013  06 29  -21.0114 26028.8 -03489.9 -07.6367 26261.7
 22 09 2013  06 30  -21.0116 26028.7 -03489.9 -07.6367 26261.7
 22 09 2013  06 31  -21.0114 26028.7 -03489.9 -07.6366 26261.6
 22 09 2013  06 32  -21.0114 26028.7 -03489.9 -07.6365 26261.6
 22 09 2013  06 33  -21.0112 26028.7 -03489.8 -07.6365 26261.6
 22 09 2013  06 34  -21.0110 26028.6 -03489.8 -07.6364 26261.5
 22 09 2013  06 35  -21.0108 26028.5 -03489.8 -07.6363 26261.4
 22 09 2013  06 36  -21.0107 26028.5 -03489.8 -07.6364 26261.4
 22 09 2013  06 37  -21.0105 26028.3 -03489.7 -07.6363 26261.2
 22 09 2013  06 38  -21.0104 26028.4 -03489.7 -07.6364 26261.3
 22 09 2013  06 39  -21.0102 26028.4 -03489.8 -07.6364 26261.3
 22 09 2013  06 40  -21.0099 26028.4 -03489.8 -07.6364 26261.3
 22 09 2013  06 41  -21.0097 26028.3 -03489.8 -07.6364 26261.2
 22 09 2013  06 42  -21.0095 26028.1 -03489.7 -07.6363 26261.0
 22 09 2013  06 43  -21.0089 26028.1 -03489.7 -07.6363 26261.0
 22 09 2013  06 44  -21.0085 26028.1 -03489.7 -07.6364 26261.0
 22 09 2013  06 45  -21.0085 26027.9 -03489.7 -07.6364 26260.8
 22 09 2013  06 46  -21.0087 26028.1 -03489.9 -07.6367 26261.0
 22 09 2013  06 47  -21.0089 26027.9 -03489.8 -07.6367 26260.9
 22 09 2013  06 48  -21.0091 26027.8 -03489.8 -07.6367 26260.7
 22 09 2013  06 49  -21.0092 26027.6 -03489.7 -07.6365 26260.5
 22 09 2013  06 50  -21.0092 26027.7 -03489.8 -07.6366 26260.6
 22 09 2013  06 51  -21.0092 26027.6 -03489.7 -07.6365 26260.5
 22 09 2013  06 52  -21.0093 26027.8 -03489.8 -07.6366 26260.7
 22 09 2013  06 53  -21.0099 26027.9 -03489.9 -07.6368 26260.9
 22 09 2013  06 54  -21.0108 26028.0 -03490.0 -07.6370 26261.0
 22 09 2013  06 55  -21.0115 26028.1 -03490.1 -07.6371 26261.1
 22 09 2013  06 56  -21.0118 26028.1 -03490.0 -07.6370 26261.0
 22 09 2013  06 57  -21.0119 26028.1 -03489.9 -07.6368 26261.0
 22 09 2013  06 58  -21.0119 26028.0 -03489.8 -07.6366 26260.9
 22 09 2013  06 59  -21.0120 26028.0 -03489.8 -07.6366 26260.9
 22 09 2013  07 00  -21.0124 26028.2 -03489.9 -07.6366 26261.1
 22 09 2013  07 01  -21.0128 26028.2 -03489.8 -07.6366 26261.1
 22 09 2013  07 02  -21.0132 26028.1 -03489.8 -07.6366 26261.1
 22 09 2013  07 03  -21.0134 26028.2 -03489.9 -07.6366 26261.2
 22 09 2013  07 04  -21.0138 26027.9 -03489.7 -07.6365 26260.8
 22 09 2013  07 05  -21.0138 26028.0 -03489.7 -07.6363 26260.8
 22 09 2013  07 06  -21.0137 26028.0 -03489.6 -07.6362 26260.9
 22 09 2013  07 07  -21.0137 26028.1 -03489.7 -07.6363 26260.9
 22 09 2013  07 08  -21.0135 26027.9 -03489.6 -07.6362 26260.8
 22 09 2013  07 09  -21.0133 26027.9 -03489.6 -07.6361 26260.8
 22 09 2013  07 10  -21.0132 26027.8 -03489.5 -07.6360 26260.7
 22 09 2013  07 11  -21.0129 26027.6 -03489.4 -07.6358 26260.5
 22 09 2013  07 12  -21.0128 26027.5 -03489.3 -07.6357 26260.3
 22 09 2013  07 13  -21.0124 26027.5 -03489.3 -07.6356 26260.3
 22 09 2013  07 14  -21.0123 26027.2 -03489.2 -07.6355 26260.0
 22 09 2013  07 15  -21.0120 26027.4 -03489.3 -07.6356 26260.2
 22 09 2013  07 16  -21.0115 26027.1 -03489.2 -07.6354 26259.9
 22 09 2013  07 17  -21.0107 26027.0 -03489.1 -07.6353 26259.8
 22 09 2013  07 18  -21.0100 26026.7 -03489.0 -07.6351 26259.5
 22 09 2013  07 19  -21.0094 26026.7 -03489.0 -07.6352 26259.5
 22 09 2013  07 20  -21.0090 26026.6 -03489.0 -07.6353 26259.4
 22 09 2013  07 21  -21.0089 26026.6 -03489.1 -07.6354 26259.4
 22 09 2013  07 22  -21.0085 26026.6 -03489.1 -07.6356 26259.4
 22 09 2013  07 23  -21.0080 26026.7 -03489.2 -07.6357 26259.5
 22 09 2013  07 24  -21.0076 26026.5 -03489.3 -07.6358 26259.4
 22 09 2013  07 25  -21.0070 26026.7 -03489.4 -07.6361 26259.6
 22 09 2013  07 26  -21.0068 26026.4 -03489.3 -07.6360 26259.3
 22 09 2013  07 27  -21.0067 26026.4 -03489.4 -07.6362 26259.3
 22 09 2013  07 28  -21.0064 26026.0 -03489.3 -07.6360 26258.9
 22 09 2013  07 29  -21.0059 26025.9 -03489.2 -07.6359 26258.8
 22 09 2013  07 30  -21.0055 26025.7 -03489.2 -07.6359 26258.6
 22 09 2013  07 31  -21.0054 26025.8 -03489.3 -07.6361 26258.6
 22 09 2013  07 32  -21.0055 26025.7 -03489.3 -07.6362 26258.5
 22 09 2013  07 33  -21.0057 26025.6 -03489.4 -07.6364 26258.5
 22 09 2013  07 34  -21.0060 26025.3 -03489.3 -07.6362 26258.2
 22 09 2013  07 35  -21.0061 26025.2 -03489.3 -07.6363 26258.1
 22 09 2013  07 36  -21.0062 26024.8 -03489.1 -07.6361 26257.7
 22 09 2013  07 37  -21.0064 26024.7 -03489.1 -07.6361 26257.5
 22 09 2013  07 38  -21.0067 26025.0 -03489.3 -07.6364 26257.9
 22 09 2013  07 39  -21.0070 26024.9 -03489.3 -07.6365 26257.8
 22 09 2013  07 40  -21.0072 26025.2 -03489.5 -07.6368 26258.1
 22 09 2013  07 41  -21.0077 26025.3 -03489.6 -07.6369 26258.2
 22 09 2013  07 42  -21.0080 26025.3 -03489.6 -07.6370 26258.2
 22 09 2013  07 43  -21.0083 26025.4 -03489.7 -07.6371 26258.4
 22 09 2013  07 44  -21.0085 26025.4 -03489.7 -07.6371 26258.4
 22 09 2013  07 45  -21.0086 26025.7 -03489.8 -07.6372 26258.6
 22 09 2013  07 46  -21.0086 26025.9 -03490.0 -07.6376 26258.9
 22 09 2013  07 47  -21.0083 26026.2 -03490.0 -07.6375 26259.1
 22 09 2013  07 48  -21.0084 26026.1 -03490.0 -07.6375 26259.1
 22 09 2013  07 49  -21.0084 26026.5 -03490.2 -07.6379 26259.5
 22 09 2013  07 50  -21.0080 26027.2 -03490.5 -07.6383 26260.2
 22 09 2013  07 51  -21.0078 26027.1 -03490.4 -07.6382 26260.1
 22 09 2013  07 52  -21.0073 26027.4 -03490.5 -07.6382 26260.4
 22 09 2013  07 53  -21.0065 26027.5 -03490.5 -07.6383 26260.5
 22 09 2013  07 54  -21.0061 26027.3 -03490.4 -07.6381 26260.3
 22 09 2013  07 55  -21.0056 26027.4 -03490.4 -07.6381 26260.4
 22 09 2013  07 56  -21.0052 26027.5 -03490.5 -07.6383 26260.5
 22 09 2013  07 57  -21.0050 26027.6 -03490.6 -07.6385 26260.6
 22 09 2013  07 58  -21.0046 26027.5 -03490.6 -07.6385 26260.6
 22 09 2013  07 59  -21.0042 26027.4 -03490.6 -07.6384 26260.4
 22 09 2013  08 00  -21.0039 26027.4 -03490.6 -07.6385 26260.5
 22 09 2013  08 01  -21.0035 26027.5 -03490.7 -07.6386 26260.5
 22 09 2013  08 02  -21.0034 26027.4 -03490.7 -07.6387 26260.5
 22 09 2013  08 03  -21.0030 26027.5 -03490.7 -07.6388 26260.5
 22 09 2013  08 04  -21.0027 26027.5 -03490.8 -07.6390 26260.5
 22 09 2013  08 05  -21.0025 26027.5 -03490.9 -07.6391 26260.6
 22 09 2013  08 06  -21.0024 26027.6 -03491.0 -07.6393 26260.7
 22 09 2013  08 07  -21.0024 26027.7 -03491.1 -07.6394 26260.8
 22 09 2013  08 08  -21.0024 26027.7 -03491.1 -07.6395 26260.8
 22 09 2013  08 09  -21.0024 26027.7 -03491.2 -07.6396 26260.7
 22 09 2013  08 10  -21.0025 26027.7 -03491.2 -07.6398 26260.9
 22 09 2013  08 11  -21.0025 26027.8 -03491.3 -07.6398 26260.9
 22 09 2013  08 12  -21.0027 26027.8 -03491.3 -07.6399 26260.9
 22 09 2013  08 13  -21.0030 26027.7 -03491.3 -07.6400 26260.8
 22 09 2013  08 14  -21.0031 26027.7 -03491.4 -07.6401 26260.9
 22 09 2013  08 15  -21.0034 26027.7 -03491.4 -07.6401 26260.8
 22 09 2013  08 16  -21.0035 26027.7 -03491.4 -07.6402 26260.9
 22 09 2013  08 17  -21.0037 26027.7 -03491.4 -07.6402 26260.8
 22 09 2013  08 18  -21.0037 26027.6 -03491.4 -07.6401 26260.8
 22 09 2013  08 19  -21.0037 26027.7 -03491.4 -07.6401 26260.8
 22 09 2013  08 20  -21.0037 26027.6 -03491.3 -07.6400 26260.8
 22 09 2013  08 21  -21.0037 26027.6 -03491.3 -07.6399 26260.7
 22 09 2013  08 22  -21.0039 26027.5 -03491.3 -07.6399 26260.7
 22 09 2013  08 23  -21.0038 26027.4 -03491.2 -07.6398 26260.5
 22 09 2013  08 24  -21.0039 26027.3 -03491.1 -07.6397 26260.4
 22 09 2013  08 25  -21.0038 26027.2 -03491.1 -07.6397 26260.3
 22 09 2013  08 26  -21.0038 26027.1 -03491.1 -07.6396 26260.2
 22 09 2013  08 27  -21.0038 26027.0 -03491.0 -07.6395 26260.1
 22 09 2013  08 28  -21.0037 26026.8 -03490.9 -07.6394 26259.9
 22 09 2013  08 29  -21.0035 26026.7 -03490.8 -07.6392 26259.7
 22 09 2013  08 30  -21.0035 26026.6 -03490.8 -07.6392 26259.7
 22 09 2013  08 31  -21.0032 26026.4 -03490.7 -07.6389 26259.4
 22 09 2013  08 32  -21.0030 26026.2 -03490.6 -07.6388 26259.2
 22 09 2013  08 33  -21.0028 26026.2 -03490.6 -07.6388 26259.2
 22 09 2013  08 34  -21.0024 26026.0 -03490.4 -07.6385 26259.0
 22 09 2013  08 35  -21.0017 26025.8 -03490.3 -07.6383 26258.8
 22 09 2013  08 36  -21.0011 26025.8 -03490.3 -07.6383 26258.7
 22 09 2013  08 37  -21.0004 26025.7 -03490.3 -07.6383 26258.7
 22 09 2013  08 38  -20.9996 26025.4 -03490.2 -07.6382 26258.4
 22 09 2013  08 39  -20.9988 26025.4 -03490.2 -07.6383 26258.4
 22 09 2013  08 40  -20.9982 26025.3 -03490.2 -07.6383 26258.3
 22 09 2013  08 41  -20.9976 26025.1 -03490.3 -07.6385 26258.1
 22 09 2013  08 42  -20.9969 26025.3 -03490.4 -07.6387 26258.3
 22 09 2013  08 43  -20.9962 26025.0 -03490.4 -07.6388 26258.0
 22 09 2013  08 44  -20.9957 26024.7 -03490.4 -07.6389 26257.8
 22 09 2013  08 45  -20.9952 26024.6 -03490.5 -07.6392 26257.7
 22 09 2013  08 46  -20.9950 26024.6 -03490.7 -07.6395 26257.7
 22 09 2013  08 47  -20.9949 26024.6 -03490.8 -07.6398 26257.6
 22 09 2013  08 48  -20.9946 26024.3 -03490.9 -07.6400 26257.4
 22 09 2013  08 49  -20.9940 26024.1 -03490.9 -07.6402 26257.2
 22 09 2013  08 50  -20.9937 26023.9 -03491.0 -07.6403 26257.0
 22 09 2013  08 51  -20.9936 26023.7 -03491.1 -07.6406 26256.9
 22 09 2013  08 52  -20.9935 26023.7 -03491.2 -07.6409 26256.8
 22 09 2013  08 53  -20.9933 26023.5 -03491.3 -07.6412 26256.7
 22 09 2013  08 54  -20.9932 26023.4 -03491.4 -07.6415 26256.6
 22 09 2013  08 55  -20.9929 26023.5 -03491.6 -07.6418 26256.6
 22 09 2013  08 56  -20.9924 26023.2 -03491.7 -07.6421 26256.4
 22 09 2013  08 57  -20.9921 26023.2 -03491.8 -07.6424 26256.4
 22 09 2013  08 58  -20.9919 26023.2 -03492.0 -07.6427 26256.4
 22 09 2013  08 59  -20.9916 26022.9 -03492.0 -07.6428 26256.2
 22 09 2013  09 00  -20.9915 26022.9 -03492.2 -07.6432 26256.2
 22 09 2013  09 01  -20.9911 26022.7 -03492.2 -07.6433 26256.0
 22 09 2013  09 02  -20.9905 26022.8 -03492.4 -07.6438 26256.1
 22 09 2013  09 03  -20.9903 26022.6 -03492.5 -07.6440 26255.9
 22 09 2013  09 04  -20.9905 26022.6 -03492.7 -07.6445 26256.0
 22 09 2013  09 05  -20.9902 26022.6 -03492.9 -07.6448 26256.0
 22 09 2013  09 06  -20.9896 26022.6 -03493.1 -07.6452 26256.0
 22 09 2013  09 07  -20.9897 26022.8 -03493.2 -07.6456 26256.2
 22 09 2013  09 08  -20.9893 26022.7 -03493.4 -07.6459 26256.1
 22 09 2013  09 09  -20.9895 26022.5 -03493.5 -07.6461 26255.9
 22 09 2013  09 10  -20.9896 26022.8 -03493.7 -07.6466 26256.3
 22 09 2013  09 11  -20.9895 26022.6 -03493.8 -07.6468 26256.0
 22 09 2013  09 12  -20.9893 26022.6 -03493.9 -07.6471 26256.1
 22 09 2013  09 13  -20.9892 26022.5 -03494.0 -07.6473 26256.1
 22 09 2013  09 14  -20.9892 26022.7 -03494.3 -07.6478 26256.3
 22 09 2013  09 15  -20.9892 26022.6 -03494.3 -07.6480 26256.1
 22 09 2013  09 16  -20.9892 26022.8 -03494.6 -07.6485 26256.4
 22 09 2013  09 17  -20.9895 26022.8 -03494.7 -07.6486 26256.4
 22 09 2013  09 18  -20.9893 26022.9 -03494.9 -07.6491 26256.5
 22 09 2013  09 19  -20.9894 26023.1 -03495.1 -07.6494 26256.7
 22 09 2013  09 20  -20.9893 26023.0 -03495.1 -07.6495 26256.6
 22 09 2013  09 21  -20.9895 26023.1 -03495.3 -07.6499 26256.8
 22 09 2013  09 22  -20.9898 26023.3 -03495.5 -07.6502 26257.0
 22 09 2013  09 23  -20.9904 26023.5 -03495.6 -07.6505 26257.2
 22 09 2013  09 24  -20.9907 26023.5 -03495.7 -07.6507 26257.2
 22 09 2013  09 25  -20.9908 26023.4 -03495.8 -07.6508 26257.2
 22 09 2013  09 26  -20.9910 26023.6 -03495.9 -07.6510 26257.3
 22 09 2013  09 27  -20.9911 26023.5 -03495.9 -07.6511 26257.3
 22 09 2013  09 28  -20.9912 26023.4 -03496.0 -07.6512 26257.2
 22 09 2013  09 29  -20.9913 26023.6 -03496.1 -07.6514 26257.4
 22 09 2013  09 30  -20.9914 26023.6 -03496.1 -07.6515 26257.4
 22 09 2013  09 31  -20.9920 26023.8 -03496.2 -07.6517 26257.6
 22 09 2013  09 32  -20.9924 26023.9 -03496.3 -07.6519 26257.7
 22 09 2013  09 33  -20.9928 26023.9 -03496.3 -07.6519 26257.7
 22 09 2013  09 34  -20.9929 26024.0 -03496.4 -07.6520 26257.8
 22 09 2013  09 35  -20.9928 26023.8 -03496.3 -07.6520 26257.6
 22 09 2013  09 36  -20.9930 26023.8 -03496.4 -07.6521 26257.6
 22 09 2013  09 37  -20.9936 26024.0 -03496.6 -07.6525 26257.9
 22 09 2013  09 38  -20.9937 26024.0 -03496.7 -07.6527 26257.9
 22 09 2013  09 39  -20.9936 26024.0 -03496.8 -07.6529 26257.9
 22 09 2013  09 40  -20.9937 26024.1 -03496.9 -07.6530 26258.0
 22 09 2013  09 41  -20.9940 26024.2 -03497.0 -07.6532 26258.1
 22 09 2013  09 42  -20.9945 26024.5 -03497.2 -07.6535 26258.4
 22 09 2013  09 43  -20.9947 26024.6 -03497.2 -07.6536 26258.5
 22 09 2013  09 44  -20.9948 26024.7 -03497.3 -07.6537 26258.6
 22 09 2013  09 45  -20.9946 26024.5 -03497.2 -07.6535 26258.4
 22 09 2013  09 46  -20.9948 26024.5 -03497.1 -07.6534 26258.4
 22 09 2013  09 47  -20.9951 26024.5 -03497.1 -07.6534 26258.4
 22 09 2013  09 48  -20.9961 26024.8 -03497.3 -07.6536 26258.7
 22 09 2013  09 49  -20.9964 26024.8 -03497.3 -07.6537 26258.7
 22 09 2013  09 50  -20.9968 26024.8 -03497.3 -07.6537 26258.7
 22 09 2013  09 51  -20.9971 26024.9 -03497.3 -07.6537 26258.8
 22 09 2013  09 52  -20.9976 26024.9 -03497.3 -07.6538 26258.8
 22 09 2013  09 53  -20.9975 26024.9 -03497.4 -07.6539 26258.8
 22 09 2013  09 54  -20.9976 26025.0 -03497.4 -07.6539 26259.0
 22 09 2013  09 55  -20.9976 26025.0 -03497.4 -07.6538 26259.0
 22 09 2013  09 56  -20.9976 26025.1 -03497.4 -07.6538 26259.1
 22 09 2013  09 57  -20.9978 26025.2 -03497.3 -07.6536 26259.1
 22 09 2013  09 58  -20.9982 26025.3 -03497.3 -07.6537 26259.2
 22 09 2013  09 59  -20.9981 26025.4 -03497.3 -07.6536 26259.4
 22 09 2013  10 00  -20.9985 26025.5 -03497.3 -07.6536 26259.5
 22 09 2013  10 01  -20.9987 26025.8 -03497.3 -07.6535 26259.7
 22 09 2013  10 02  -20.9991 26026.0 -03497.3 -07.6535 26259.9
 22 09 2013  10 03  -20.9991 26026.2 -03497.3 -07.6534 26260.1
 22 09 2013  10 04  -20.9994 26026.5 -03497.3 -07.6534 26260.4
 22 09 2013  10 05  -20.9992 26026.6 -03497.3 -07.6532 26260.5
 22 09 2013  10 06  -20.9993 26026.8 -03497.3 -07.6531 26260.7
 22 09 2013  10 07  -20.9992 26027.0 -03497.2 -07.6529 26260.9
 22 09 2013  10 08  -20.9997 26027.3 -03497.2 -07.6529 26261.2
 22 09 2013  10 09  -20.9997 26027.6 -03497.2 -07.6527 26261.5
 22 09 2013  10 10  -20.9999 26027.9 -03497.2 -07.6527 26261.8
 22 09 2013  10 11  -20.9999 26028.1 -03497.2 -07.6525 26262.0
 22 09 2013  10 12  -21.0003 26028.4 -03497.1 -07.6522 26262.2
 22 09 2013  10 13  -21.0005 26028.7 -03497.1 -07.6522 26262.6
 22 09 2013  10 14  -21.0009 26029.0 -03497.1 -07.6521 26262.9
 22 09 2013  10 15  -21.0010 26029.3 -03497.1 -07.6520 26263.2
 22 09 2013  10 16  -21.0008 26029.6 -03497.1 -07.6519 26263.4
 22 09 2013  10 17  -21.0012 26029.9 -03497.0 -07.6517 26263.7
 22 09 2013  10 18  -21.0014 26030.2 -03497.0 -07.6516 26264.1
 22 09 2013  10 19  -21.0020 26030.4 -03496.9 -07.6513 26264.2
 22 09 2013  10 20  -21.0021 26030.8 -03497.0 -07.6513 26264.6
 22 09 2013  10 21  -21.0024 26031.2 -03496.9 -07.6511 26265.0
 22 09 2013  10 22  -21.0026 26031.5 -03496.9 -07.6509 26265.3
 22 09 2013  10 23  -21.0028 26031.8 -03496.8 -07.6507 26265.6
 22 09 2013  10 24  -21.0031 26032.2 -03496.8 -07.6505 26266.0
 22 09 2013  10 25  -21.0034 26032.6 -03496.8 -07.6503 26266.4
 22 09 2013  10 26  -21.0036 26033.0 -03496.7 -07.6500 26266.7
 22 09 2013  10 27  -21.0040 26033.3 -03496.6 -07.6498 26267.1
 22 09 2013  10 28  -21.0044 26033.7 -03496.6 -07.6496 26267.5
 22 09 2013  10 29  -21.0047 26034.1 -03496.5 -07.6492 26267.9
 22 09 2013  10 30  -21.0050 26034.4 -03496.3 -07.6488 26268.2
 22 09 2013  10 31  -21.0053 26034.8 -03496.2 -07.6485 26268.5
 22 09 2013  10 32  -21.0054 26035.1 -03496.1 -07.6481 26268.8
 22 09 2013  10 33  -21.0056 26035.6 -03496.0 -07.6478 26269.2
 22 09 2013  10 34  -21.0059 26036.0 -03495.8 -07.6473 26269.6
 22 09 2013  10 35  -21.0064 26036.5 -03495.8 -07.6470 26270.1
 22 09 2013  10 36  -21.0068 26036.9 -03495.6 -07.6466 26270.5
 22 09 2013  10 37  -21.0071 26037.3 -03495.5 -07.6463 26270.9
 22 09 2013  10 38  -21.0073 26037.8 -03495.4 -07.6458 26271.4
 22 09 2013  10 39  -21.0074 26038.3 -03495.2 -07.6453 26271.8
 22 09 2013  10 40  -21.0077 26038.8 -03495.1 -07.6449 26272.3
 22 09 2013  10 41  -21.0079 26039.2 -03494.9 -07.6443 26272.7
 22 09 2013  10 42  -21.0079 26039.8 -03494.7 -07.6437 26273.2
 22 09 2013  10 43  -21.0079 26040.2 -03494.4 -07.6431 26273.7
 22 09 2013  10 44  -21.0079 26040.7 -03494.2 -07.6424 26274.1
 22 09 2013  10 45  -21.0079 26041.1 -03493.9 -07.6418 26274.4
 22 09 2013  10 46  -21.0081 26041.5 -03493.7 -07.6411 26274.8
 22 09 2013  10 47  -21.0084 26042.0 -03493.5 -07.6405 26275.2
 22 09 2013  10 48  -21.0089 26042.4 -03493.3 -07.6399 26275.7
 22 09 2013  10 49  -21.0094 26042.9 -03493.1 -07.6393 26276.1
 22 09 2013  10 50  -21.0097 26043.4 -03492.8 -07.6386 26276.5
 22 09 2013  10 51  -21.0099 26043.9 -03492.5 -07.6379 26277.0
 22 09 2013  10 52  -21.0100 26044.4 -03492.3 -07.6373 26277.5
 22 09 2013  10 53  -21.0101 26045.0 -03492.1 -07.6366 26278.1
 22 09 2013  10 54  -21.0102 26045.6 -03491.9 -07.6360 26278.6
 22 09 2013  10 55  -21.0106 26046.1 -03491.6 -07.6352 26279.1
 22 09 2013  10 56  -21.0111 26046.4 -03491.2 -07.6344 26279.4
 22 09 2013  10 57  -21.0114 26046.8 -03491.0 -07.6337 26279.7
 22 09 2013  10 58  -21.0117 26047.4 -03490.8 -07.6330 26280.3
 22 09 2013  10 59  -21.0118 26047.9 -03490.5 -07.6324 26280.8
 22 09 2013  11 00  -21.0120 26048.4 -03490.2 -07.6316 26281.2
 22 09 2013  11 01  -21.0122 26048.9 -03490.0 -07.6310 26281.6
 22 09 2013  11 02  -21.0122 26049.3 -03489.7 -07.6302 26282.0
 22 09 2013  11 03  -21.0123 26049.5 -03489.4 -07.6295 26282.2
 22 09 2013  11 04  -21.0123 26050.0 -03489.2 -07.6288 26282.6
 22 09 2013  11 05  -21.0125 26050.3 -03488.9 -07.6282 26282.9
 22 09 2013  11 06  -21.0129 26050.8 -03488.7 -07.6276 26283.3
 22 09 2013  11 07  -21.0132 26051.3 -03488.5 -07.6271 26283.8
 22 09 2013  11 08  -21.0136 26051.7 -03488.3 -07.6265 26284.2
 22 09 2013  11 09  -21.0141 26052.3 -03488.2 -07.6260 26284.8
 22 09 2013  11 10  -21.0143 26052.9 -03487.9 -07.6254 26285.3
 22 09 2013  11 11  -21.0143 26053.4 -03487.7 -07.6248 26285.8
 22 09 2013  11 12  -21.0143 26053.9 -03487.4 -07.6240 26286.3
 22 09 2013  11 13  -21.0141 26054.3 -03487.2 -07.6234 26286.7
 22 09 2013  11 14  -21.0141 26054.8 -03487.0 -07.6227 26287.1
 22 09 2013  11 15  -21.0142 26055.2 -03486.7 -07.6219 26287.4
 22 09 2013  11 16  -21.0142 26055.6 -03486.4 -07.6213 26287.9
 22 09 2013  11 17  -21.0143 26056.2 -03486.2 -07.6207 26288.4
 22 09 2013  11 18  -21.0147 26056.8 -03486.0 -07.6199 26288.9
 22 09 2013  11 19  -21.0153 26057.4 -03485.8 -07.6194 26289.5
 22 09 2013  11 20  -21.0160 26058.0 -03485.5 -07.6186 26290.1
 22 09 2013  11 21  -21.0163 26058.6 -03485.3 -07.6179 26290.6
 22 09 2013  11 22  -21.0166 26059.0 -03484.9 -07.6171 26291.0
 22 09 2013  11 23  -21.0167 26059.5 -03484.6 -07.6163 26291.4
 22 09 2013  11 24  -21.0168 26060.1 -03484.4 -07.6156 26292.0
 22 09 2013  11 25  -21.0171 26060.6 -03484.1 -07.6149 26292.4
 22 09 2013  11 26  -21.0179 26060.8 -03483.8 -07.6141 26292.7
 22 09 2013  11 27  -21.0187 26061.1 -03483.5 -07.6134 26292.9
 22 09 2013  11 28  -21.0199 26061.2 -03483.1 -07.6126 26292.9
 22 09 2013  11 29  -21.0205 26061.6 -03483.0 -07.6121 26293.3
 22 09 2013  11 30  -21.0208 26062.0 -03482.7 -07.6115 26293.7
 22 09 2013  11 31  -21.0211 26062.8 -03482.6 -07.6110 26294.4
 22 09 2013  11 32  -21.0211 26063.6 -03482.5 -07.6105 26295.2
 22 09 2013  11 33  -21.0212 26064.1 -03482.2 -07.6098 26295.7
 22 09 2013  11 34  -21.0214 26064.7 -03481.9 -07.6090 26296.2
 22 09 2013  11 35  -21.0219 26065.1 -03481.6 -07.6082 26296.6
 22 09 2013  11 36  -21.0225 26065.5 -03481.3 -07.6074 26296.9
 22 09 2013  11 37  -21.0227 26066.1 -03481.1 -07.6068 26297.5
 22 09 2013  11 38  -21.0228 26066.6 -03480.8 -07.6060 26298.0
 22 09 2013  11 39  -21.0229 26067.2 -03480.6 -07.6053 26298.6
 22 09 2013  11 40  -21.0231 26067.5 -03480.2 -07.6044 26298.8
 22 09 2013  11 41  -21.0234 26067.8 -03479.8 -07.6035 26299.1
 22 09 2013  11 42  -21.0238 26068.1 -03479.5 -07.6027 26299.3
 22 09 2013  11 43  -21.0240 26068.3 -03479.2 -07.6020 26299.5
 22 09 2013  11 44  -21.0243 26068.6 -03478.9 -07.6013 26299.7
 22 09 2013  11 45  -21.0244 26069.1 -03478.7 -07.6006 26300.2
 22 09 2013  11 46  -21.0244 26069.5 -03478.4 -07.5999 26300.6
 22 09 2013  11 47  -21.0244 26070.0 -03478.2 -07.5994 26301.1
 22 09 2013  11 48  -21.0245 26070.5 -03477.9 -07.5986 26301.5
 22 09 2013  11 49  -21.0244 26071.2 -03477.7 -07.5980 26302.1
 22 09 2013  11 50  -21.0243 26071.5 -03477.4 -07.5972 26302.3
 22 09 2013  11 51  -21.0244 26071.7 -03477.1 -07.5965 26302.6
 22 09 2013  11 52  -21.0243 26072.3 -03476.9 -07.5960 26303.1
 22 09 2013  11 53  -21.0240 26073.6 -03477.1 -07.5960 26304.4
 22 09 2013  11 54  -21.0235 26074.7 -03477.1 -07.5957 26305.6
 22 09 2013  11 55  -21.0231 26075.6 -03477.0 -07.5951 26306.4
 22 09 2013  11 56  -21.0227 26076.6 -03476.9 -07.5947 26307.4
 22 09 2013  11 57  -21.0224 26077.7 -03476.8 -07.5942 26308.5
 22 09 2013  11 58  -21.0220 26078.5 -03476.6 -07.5935 26309.2
 22 09 2013  11 59  -21.0215 26079.3 -03476.4 -07.5928 26309.9
 22 09 2013  12 00  -21.0211 26080.2 -03476.3 -07.5923 26310.9
 22 09 2013  12 01  -21.0204 26081.2 -03476.1 -07.5916 26311.9
 22 09 2013  12 02  -21.0195 26082.6 -03476.0 -07.5910 26313.2
 22 09 2013  12 03  -21.0187 26084.0 -03475.8 -07.5902 26314.6
 22 09 2013  12 04  -21.0191 26084.0 -03475.2 -07.5888 26314.5
 22 09 2013  12 05  -21.0209 26083.5 -03474.4 -07.5872 26313.9
 22 09 2013  12 06  -21.0225 26083.5 -03473.9 -07.5862 26313.8
 22 09 2013  12 07  -21.0231 26084.0 -03473.7 -07.5855 26314.3
 22 09 2013  12 08  -21.0234 26084.9 -03473.5 -07.5850 26315.2
 22 09 2013  12 09  -21.0229 26086.0 -03473.4 -07.5844 26316.2
 22 09 2013  12 10  -21.0227 26086.4 -03473.0 -07.5835 26316.6
 22 09 2013  12 11  -21.0227 26086.6 -03472.6 -07.5825 26316.7
 22 09 2013  12 12  -21.0226 26086.9 -03472.2 -07.5816 26317.0
 22 09 2013  12 13  -21.0224 26087.3 -03471.9 -07.5808 26317.3
 22 09 2013  12 14  -21.0222 26088.0 -03471.7 -07.5801 26318.0
 22 09 2013  12 15  -21.0221 26088.6 -03471.5 -07.5795 26318.6
 22 09 2013  12 16  -21.0224 26088.9 -03471.1 -07.5787 26318.8
 22 09 2013  12 17  -21.0225 26089.0 -03470.7 -07.5777 26318.8
 22 09 2013  12 18  -21.0229 26089.1 -03470.3 -07.5768 26318.9
 22 09 2013  12 19  -21.0231 26089.4 -03469.9 -07.5759 26319.1
 22 09 2013  12 20  -21.0232 26089.8 -03469.7 -07.5753 26319.5
 22 09 2013  12 21  -21.0231 26090.0 -03469.3 -07.5745 26319.7
 22 09 2013  12 22  -21.0230 26090.1 -03468.9 -07.5735 26319.7
 22 09 2013  12 23  -21.0229 26090.3 -03468.6 -07.5727 26319.8
 22 09 2013  12 24  -21.0228 26090.7 -03468.3 -07.5721 26320.2
 22 09 2013  12 25  -21.0228 26091.1 -03468.1 -07.5714 26320.6
 22 09 2013  12 26  -21.0226 26091.6 -03467.8 -07.5708 26321.0
 22 09 2013  12 27  -21.0223 26091.9 -03467.5 -07.5700 26321.3
 22 09 2013  12 28  -21.0222 26092.1 -03467.2 -07.5693 26321.4
 22 09 2013  12 29  -21.0222 26092.6 -03467.1 -07.5688 26322.0
 22 09 2013  12 30  -21.0220 26093.2 -03466.9 -07.5684 26322.5
 22 09 2013  12 31  -21.0220 26093.5 -03466.6 -07.5677 26322.8
 22 09 2013  12 32  -21.0219 26093.9 -03466.4 -07.5671 26323.1
 22 09 2013  12 33  -21.0220 26094.2 -03466.2 -07.5666 26323.4
 22 09 2013  12 34  -21.0221 26094.5 -03466.0 -07.5660 26323.7
 22 09 2013  12 35  -21.0220 26095.1 -03465.9 -07.5656 26324.2
 22 09 2013  12 36  -21.0221 26095.6 -03465.7 -07.5651 26324.8
 22 09 2013  12 37  -21.0223 26096.1 -03465.5 -07.5645 26325.2
 22 09 2013  12 38  -21.0225 26096.1 -03465.2 -07.5637 26325.1
 22 09 2013  12 39  -21.0228 26096.4 -03465.0 -07.5632 26325.5
 22 09 2013  12 40  -21.0231 26097.0 -03464.9 -07.5628 26326.0
 22 09 2013  12 41  -21.0237 26097.5 -03464.7 -07.5623 26326.4
 22 09 2013  12 42  -21.0243 26097.3 -03464.3 -07.5614 26326.2
 22 09 2013  12 43  -21.0248 26097.6 -03464.0 -07.5609 26326.5
 22 09 2013  12 44  -21.0250 26098.1 -03463.8 -07.5602 26327.0
 22 09 2013  12 45  -21.0255 26098.2 -03463.4 -07.5594 26327.0
 22 09 2013  12 46  -21.0257 26098.7 -03463.2 -07.5589 26327.4
 22 09 2013  12 47  -21.0260 26099.0 -03463.0 -07.5582 26327.8
 22 09 2013  12 48  -21.0265 26099.5 -03462.8 -07.5577 26328.3
 22 09 2013  12 49  -21.0268 26100.0 -03462.6 -07.5572 26328.7
 22 09 2013  12 50  -21.0274 26100.0 -03462.3 -07.5564 26328.7
 22 09 2013  12 51  -21.0279 26100.3 -03462.0 -07.5557 26329.0
 22 09 2013  12 52  -21.0280 26100.8 -03461.7 -07.5550 26329.3
 22 09 2013  12 53  -21.0281 26101.4 -03461.6 -07.5545 26330.0
 22 09 2013  12 54  -21.0281 26101.7 -03461.3 -07.5538 26330.2
 22 09 2013  12 55  -21.0285 26102.0 -03461.1 -07.5532 26330.5
 22 09 2013  12 56  -21.0288 26102.3 -03460.7 -07.5524 26330.7
 22 09 2013  12 57  -21.0294 26102.6 -03460.5 -07.5517 26330.9
 22 09 2013  12 58  -21.0300 26102.7 -03460.1 -07.5509 26331.0
 22 09 2013  12 59  -21.0305 26102.6 -03459.7 -07.5501 26330.9
 22 09 2013  13 00  -21.0310 26102.6 -03459.4 -07.5493 26330.8
 22 09 2013  13 01  -21.0315 26102.6 -03459.0 -07.5487 26330.8
 22 09 2013  13 02  -21.0321 26102.4 -03458.7 -07.5481 26330.5
 22 09 2013  13 03  -21.0327 26102.6 -03458.6 -07.5477 26330.7
 22 09 2013  13 04  -21.0329 26103.4 -03458.7 -07.5476 26331.5
 22 09 2013  13 05  -21.0334 26102.9 -03458.2 -07.5467 26331.0
 22 09 2013  13 06  -21.0337 26102.8 -03457.9 -07.5461 26330.9
 22 09 2013  13 07  -21.0339 26103.3 -03457.7 -07.5457 26331.3
 22 09 2013  13 08  -21.0343 26102.6 -03457.2 -07.5447 26330.6
 22 09 2013  13 09  -21.0344 26102.7 -03457.0 -07.5443 26330.6
 22 09 2013  13 10  -21.0346 26102.8 -03456.8 -07.5438 26330.7
 22 09 2013  13 11  -21.0347 26102.7 -03456.6 -07.5433 26330.5
 22 09 2013  13 12  -21.0349 26103.1 -03456.6 -07.5432 26331.0
 22 09 2013  13 13  -21.0350 26103.4 -03456.5 -07.5430 26331.3
 22 09 2013  13 14  -21.0351 26103.7 -03456.4 -07.5426 26331.6
 22 09 2013  13 15  -21.0352 26104.0 -03456.2 -07.5422 26331.8
 22 09 2013  13 16  -21.0351 26104.3 -03456.1 -07.5419 26332.1
 22 09 2013  13 17  -21.0351 26104.5 -03456.0 -07.5416 26332.3
 22 09 2013  13 18  -21.0352 26104.8 -03456.0 -07.5414 26332.6
 22 09 2013  13 19  -21.0352 26105.2 -03455.9 -07.5412 26332.9
 22 09 2013  13 20  -21.0351 26105.1 -03455.6 -07.5406 26332.9
 22 09 2013  13 21  -21.0348 26104.7 -03455.1 -07.5396 26332.4
 22 09 2013  13 22  -21.0345 26104.5 -03454.8 -07.5389 26332.1
 22 09 2013  13 23  -21.0342 26104.4 -03454.6 -07.5385 26332.0
 22 09 2013  13 24  -21.0343 26105.0 -03454.7 -07.5387 26332.6
 22 09 2013  13 25  -21.0341 26104.9 -03454.5 -07.5382 26332.5
 22 09 2013  13 26  -21.0339 26105.0 -03454.3 -07.5378 26332.6
 22 09 2013  13 27  -21.0339 26106.1 -03454.5 -07.5380 26333.7
 22 09 2013  13 28  -21.0340 26106.6 -03454.5 -07.5377 26334.2
 22 09 2013  13 29  -21.0337 26107.1 -03454.3 -07.5372 26334.6
 22 09 2013  13 30  -21.0335 26107.6 -03454.2 -07.5368 26335.1
 22 09 2013  13 31  -21.0331 26107.9 -03453.9 -07.5362 26335.4
 22 09 2013  13 32  -21.0327 26108.3 -03453.8 -07.5358 26335.8
 22 09 2013  13 33  -21.0322 26108.4 -03453.5 -07.5350 26335.9
 22 09 2013  13 34  -21.0318 26109.1 -03453.5 -07.5348 26336.5
 22 09 2013  13 35  -21.0314 26109.3 -03453.2 -07.5342 26336.7
 22 09 2013  13 36  -21.0314 26109.7 -03453.1 -07.5339 26337.1
 22 09 2013  13 37  -21.0309 26110.2 -03453.0 -07.5335 26337.5
 22 09 2013  13 38  -21.0306 26110.7 -03453.0 -07.5333 26338.1
 22 09 2013  13 39  -21.0302 26111.1 -03452.8 -07.5328 26338.4
 22 09 2013  13 40  -21.0303 26111.4 -03452.7 -07.5324 26338.7
 22 09 2013  13 41  -21.0305 26112.0 -03452.8 -07.5324 26339.3
 22 09 2013  13 42  -21.0305 26112.7 -03452.8 -07.5324 26340.0
 22 09 2013  13 43  -21.0304 26113.2 -03452.8 -07.5322 26340.5
 22 09 2013  13 44  -21.0304 26113.6 -03452.8 -07.5320 26340.9
 22 09 2013  13 45  -21.0307 26113.6 -03452.6 -07.5316 26340.9
 22 09 2013  13 46  -21.0308 26113.4 -03452.4 -07.5312 26340.7
 22 09 2013  13 47  -21.0308 26113.6 -03452.3 -07.5310 26340.8
 22 09 2013  13 48  -21.0306 26114.0 -03452.4 -07.5310 26341.3
 22 09 2013  13 49  -21.0308 26114.3 -03452.3 -07.5309 26341.5
 22 09 2013  13 50  -21.0312 26114.4 -03452.3 -07.5307 26341.6
 22 09 2013  13 51  -21.0316 26114.8 -03452.3 -07.5307 26342.0
 22 09 2013  13 52  -21.0319 26115.2 -03452.4 -07.5307 26342.4
 22 09 2013  13 53  -21.0320 26115.5 -03452.4 -07.5306 26342.7
 22 09 2013  13 54  -21.0320 26115.4 -03452.2 -07.5302 26342.6
 22 09 2013  13 55  -21.0323 26115.5 -03452.2 -07.5302 26342.7
 22 09 2013  13 56  -21.0323 26115.5 -03452.1 -07.5300 26342.7
 22 09 2013  13 57  -21.0325 26115.4 -03452.0 -07.5298 26342.6
 22 09 2013  13 58  -21.0326 26115.4 -03451.9 -07.5297 26342.5
 22 09 2013  13 59  -21.0326 26115.5 -03452.0 -07.5297 26342.7
 22 09 2013  14 00  -21.0327 26115.7 -03452.0 -07.5297 26342.8
 22 09 2013  14 01  -21.0331 26115.7 -03451.9 -07.5296 26342.8
 22 09 2013  14 02  -21.0334 26115.7 -03451.9 -07.5296 26342.9
 22 09 2013  14 03  -21.0336 26115.8 -03451.9 -07.5296 26343.0
 22 09 2013  14 04  -21.0338 26115.8 -03451.9 -07.5295 26342.9
 22 09 2013  14 05  -21.0340 26115.9 -03451.9 -07.5295 26343.1
 22 09 2013  14 06  -21.0342 26115.8 -03451.9 -07.5295 26343.0
 22 09 2013  14 07  -21.0344 26115.7 -03451.9 -07.5295 26342.9
 22 09 2013  14 08  -21.0342 26115.6 -03451.8 -07.5294 26342.7
 22 09 2013  14 09  -21.0342 26115.3 -03451.7 -07.5292 26342.4
 22 09 2013  14 10  -21.0345 26115.3 -03451.7 -07.5293 26342.4
 22 09 2013  14 11  -21.0348 26115.3 -03451.8 -07.5294 26342.4
 22 09 2013  14 12  -21.0348 26115.1 -03451.7 -07.5293 26342.2
 22 09 2013  14 13  -21.0347 26114.8 -03451.7 -07.5293 26342.0
 22 09 2013  14 14  -21.0348 26114.7 -03451.7 -07.5294 26341.8
 22 09 2013  14 15  -21.0350 26114.4 -03451.7 -07.5294 26341.5
 22 09 2013  14 16  -21.0352 26114.3 -03451.7 -07.5295 26341.4
 22 09 2013  14 17  -21.0355 26114.2 -03451.7 -07.5296 26341.3
 22 09 2013  14 18  -21.0357 26112.8 -03451.3 -07.5290 26339.9
 22 09 2013  14 19  -21.0356 26112.9 -03451.4 -07.5292 26340.0
 22 09 2013  14 20  -21.0361 26112.4 -03451.4 -07.5293 26339.5
 22 09 2013  14 21  -21.0361 26111.8 -03451.3 -07.5293 26338.9
 22 09 2013  14 22  -21.0363 26111.2 -03451.1 -07.5291 26338.3
 22 09 2013  14 23  -21.0366 26110.9 -03451.2 -07.5293 26338.0
 22 09 2013  14 24  -21.0372 26111.3 -03451.5 -07.5299 26338.4
 22 09 2013  14 25  -21.0374 26110.6 -03451.4 -07.5298 26337.7
 22 09 2013  14 26  -21.0376 26109.5 -03451.0 -07.5293 26336.5
 22 09 2013  14 27  -21.0379 26109.6 -03451.1 -07.5296 26336.6
 22 09 2013  14 28  -21.0388 26108.9 -03451.0 -07.5296 26336.0
 22 09 2013  14 29  -21.0393 26108.5 -03451.0 -07.5296 26335.6
 22 09 2013  14 30  -21.0395 26108.4 -03451.0 -07.5297 26335.5
 22 09 2013  14 31  -21.0398 26108.5 -03451.1 -07.5298 26335.6
 22 09 2013  14 32  -21.0404 26108.5 -03451.2 -07.5300 26335.6
 22 09 2013  14 33  -21.0409 26108.5 -03451.2 -07.5301 26335.6
 22 09 2013  14 34  -21.0412 26108.7 -03451.3 -07.5302 26335.8
 22 09 2013  14 35  -21.0416 26108.8 -03451.3 -07.5302 26336.0
 22 09 2013  14 36  -21.0420 26108.9 -03451.3 -07.5301 26336.0
 22 09 2013  14 37  -21.0422 26108.9 -03451.2 -07.5300 26336.0
 22 09 2013  14 38  -21.0422 26109.1 -03451.2 -07.5299 26336.2
 22 09 2013  14 39  -21.0423 26109.3 -03451.3 -07.5301 26336.5
 22 09 2013  14 40  -21.0426 26109.7 -03451.4 -07.5302 26336.9
 22 09 2013  14 41  -21.0430 26109.8 -03451.4 -07.5301 26336.9
 22 09 2013  14 42  -21.0432 26109.6 -03451.3 -07.5299 26336.8
 22 09 2013  14 43  -21.0435 26109.8 -03451.3 -07.5299 26336.9
 22 09 2013  14 44  -21.0440 26109.7 -03451.2 -07.5297 26336.8
 22 09 2013  14 45  -21.0444 26109.5 -03451.1 -07.5296 26336.6
 22 09 2013  14 46  -21.0448 26109.1 -03450.9 -07.5293 26336.2
 22 09 2013  14 47  -21.0452 26109.0 -03450.9 -07.5293 26336.1
 22 09 2013  14 48  -21.0454 26109.0 -03450.9 -07.5293 26336.0
 22 09 2013  14 49  -21.0456 26108.7 -03450.8 -07.5292 26335.8
 22 09 2013  14 50  -21.0457 26108.6 -03450.8 -07.5291 26335.7
 22 09 2013  14 51  -21.0459 26108.6 -03450.8 -07.5292 26335.7
 22 09 2013  14 52  -21.0460 26108.7 -03450.8 -07.5292 26335.7
 22 09 2013  14 53  -21.0462 26108.8 -03450.9 -07.5294 26335.9
 22 09 2013  14 54  -21.0463 26108.9 -03451.0 -07.5295 26336.0
 22 09 2013  14 55  -21.0462 26108.8 -03451.0 -07.5295 26335.9
 22 09 2013  14 56  -21.0456 26108.7 -03451.0 -07.5296 26335.8
 22 09 2013  14 57  -21.0446 26108.2 -03450.9 -07.5295 26335.3
 22 09 2013  14 58  -21.0438 26108.0 -03451.0 -07.5298 26335.1
 22 09 2013  14 59  -21.0433 26108.1 -03451.3 -07.5303 26335.2
 22 09 2013  15 00  -21.0430 26108.2 -03451.6 -07.5309 26335.4
 22 09 2013  15 01  -21.0427 26108.2 -03451.8 -07.5314 26335.4
 22 09 2013  15 02  -21.0423 26108.4 -03452.0 -07.5319 26335.6
 22 09 2013  15 03  -21.0427 26109.0 -03452.5 -07.5327 26336.3
 22 09 2013  15 04  -21.0430 26109.3 -03452.7 -07.5332 26336.6
 22 09 2013  15 05  -21.0426 26109.0 -03452.7 -07.5331 26336.3
 22 09 2013  15 06  -21.0421 26108.8 -03452.7 -07.5333 26336.1
 22 09 2013  15 07  -21.0418 26108.6 -03452.8 -07.5336 26335.9
 22 09 2013  15 08  -21.0416 26108.3 -03452.9 -07.5338 26335.7
 22 09 2013  15 09  -21.0416 26108.3 -03453.1 -07.5343 26335.7
 22 09 2013  15 10  -21.0416 26108.4 -03453.4 -07.5348 26335.8
 22 09 2013  15 11  -21.0417 26108.2 -03453.5 -07.5351 26335.6
 22 09 2013  15 12  -21.0418 26107.8 -03453.5 -07.5353 26335.2
 22 09 2013  15 13  -21.0419 26107.6 -03453.6 -07.5355 26335.1
 22 09 2013  15 14  -21.0417 26107.6 -03453.8 -07.5359 26335.0
 22 09 2013  15 15  -21.0417 26107.3 -03453.8 -07.5360 26334.7
 22 09 2013  15 16  -21.0420 26107.6 -03454.1 -07.5366 26335.1
 22 09 2013  15 17  -21.0420 26107.9 -03454.4 -07.5371 26335.4
 22 09 2013  15 18  -21.0417 26107.8 -03454.5 -07.5373 26335.4
 22 09 2013  15 19  -21.0418 26107.7 -03454.6 -07.5376 26335.2
 22 09 2013  15 20  -21.0419 26107.4 -03454.6 -07.5377 26334.9
 22 09 2013  15 21  -21.0418 26107.1 -03454.7 -07.5380 26334.7
 22 09 2013  15 22  -21.0417 26106.7 -03454.7 -07.5382 26334.3
 22 09 2013  15 23  -21.0416 26106.2 -03454.7 -07.5384 26333.8
 22 09 2013  15 24  -21.0414 26105.7 -03454.8 -07.5387 26333.3
 22 09 2013  15 25  -21.0413 26105.2 -03454.9 -07.5390 26332.9
 22 09 2013  15 26  -21.0414 26104.9 -03455.1 -07.5395 26332.6
 22 09 2013  15 27  -21.0414 26104.5 -03455.2 -07.5399 26332.2
 22 09 2013  15 28  -21.0416 26104.1 -03455.3 -07.5402 26331.8
 22 09 2013  15 29  -21.0420 26103.6 -03455.4 -07.5405 26331.3
 22 09 2013  15 30  -21.0423 26103.4 -03455.5 -07.5409 26331.1
 22 09 2013  15 31  -21.0424 26103.0 -03455.6 -07.5412 26330.8
 22 09 2013  15 32  -21.0425 26102.7 -03455.7 -07.5415 26330.5
 22 09 2013  15 33  -21.0426 26102.5 -03455.8 -07.5417 26330.2
 22 09 2013  15 34  -21.0430 26102.3 -03456.0 -07.5422 26330.1
 22 09 2013  15 35  -21.0433 26102.2 -03456.1 -07.5425 26330.0
 22 09 2013  15 36  -21.0436 26102.0 -03456.2 -07.5426 26329.9
 22 09 2013  15 37  -21.0437 26101.8 -03456.2 -07.5428 26329.7
 22 09 2013  15 38  -21.0440 26101.5 -03456.2 -07.5428 26329.4
 22 09 2013  15 39  -21.0442 26101.2 -03456.2 -07.5428 26329.0
 22 09 2013  15 40  -21.0445 26100.9 -03456.2 -07.5430 26328.8
 22 09 2013  15 41  -21.0451 26100.5 -03456.2 -07.5431 26328.4
 22 09 2013  15 42  -21.0456 26100.4 -03456.3 -07.5433 26328.2
 22 09 2013  15 43  -21.0463 26100.3 -03456.3 -07.5435 26328.1
 22 09 2013  15 44  -21.0469 26100.0 -03456.4 -07.5436 26327.9
 22 09 2013  15 45  -21.0477 26099.8 -03456.4 -07.5438 26327.7
 22 09 2013  15 46  -21.0485 26099.6 -03456.5 -07.5440 26327.5
 22 09 2013  15 47  -21.0491 26099.4 -03456.5 -07.5441 26327.3
 22 09 2013  15 48  -21.0500 26099.3 -03456.6 -07.5443 26327.2
 22 09 2013  15 49  -21.0509 26099.0 -03456.5 -07.5443 26326.9
 22 09 2013  15 50  -21.0518 26098.6 -03456.4 -07.5442 26326.5
 22 09 2013  15 51  -21.0527 26098.1 -03456.4 -07.5442 26326.0
 22 09 2013  15 52  -21.0533 26097.7 -03456.4 -07.5443 26325.6
 22 09 2013  15 53  -21.0539 26097.3 -03456.3 -07.5444 26325.1
 22 09 2013  15 54  -21.0546 26097.1 -03456.5 -07.5447 26325.0
 22 09 2013  15 55  -21.0558 26097.2 -03456.7 -07.5452 26325.1
 22 09 2013  15 56  -21.0568 26096.9 -03456.8 -07.5454 26324.8
 22 09 2013  15 57  -21.0575 26096.4 -03456.7 -07.5454 26324.4
 22 09 2013  15 58  -21.0583 26096.0 -03456.7 -07.5456 26323.9
 22 09 2013  15 59  -21.0589 26095.5 -03456.8 -07.5458 26323.5
 22 09 2013  16 00  -21.0596 26095.3 -03456.9 -07.5461 26323.2
 22 09 2013  16 01  -21.0603 26094.6 -03456.9 -07.5463 26322.6
 22 09 2013  16 02  -21.0610 26093.7 -03456.8 -07.5464 26321.7
 22 09 2013  16 03  -21.0618 26093.1 -03456.8 -07.5467 26321.0
 22 09 2013  16 04  -21.0626 26092.7 -03457.0 -07.5471 26320.7
 22 09 2013  16 05  -21.0635 26092.2 -03457.1 -07.5475 26320.2
 22 09 2013  16 06  -21.0643 26091.7 -03457.2 -07.5478 26319.7
 22 09 2013  16 07  -21.0651 26091.2 -03457.4 -07.5483 26319.3
 22 09 2013  16 08  -21.0656 26090.8 -03457.6 -07.5489 26318.9
 22 09 2013  16 09  -21.0662 26090.3 -03457.7 -07.5494 26318.4
 22 09 2013  16 10  -21.0666 26089.7 -03457.9 -07.5499 26317.9
 22 09 2013  16 11  -21.0673 26089.4 -03458.2 -07.5506 26317.6
 22 09 2013  16 12  -21.0683 26088.8 -03458.4 -07.5511 26317.1
 22 09 2013  16 13  -21.0693 26088.2 -03458.4 -07.5515 26316.4
 22 09 2013  16 14  -21.0700 26087.7 -03458.6 -07.5520 26316.0
 22 09 2013  16 15  -21.0712 26087.1 -03458.8 -07.5525 26315.4
 22 09 2013  16 16  -21.0718 26086.3 -03458.8 -07.5528 26314.6
 22 09 2013  16 17  -21.0727 26085.5 -03458.8 -07.5531 26313.8
 22 09 2013  16 18  -21.0731 26084.9 -03459.0 -07.5537 26313.2
 22 09 2013  16 19  -21.0736 26084.1 -03459.2 -07.5543 26312.5
 22 09 2013  16 20  -21.0740 26083.7 -03459.5 -07.5550 26312.1
 22 09 2013  16 21  -21.0749 26083.5 -03459.9 -07.5560 26311.9
 22 09 2013  16 22  -21.0760 26083.5 -03460.4 -07.5570 26312.0
 22 09 2013  16 23  -21.0770 26083.3 -03460.7 -07.5578 26311.9
 22 09 2013  16 24  -21.0778 26082.7 -03460.8 -07.5581 26311.3
 22 09 2013  16 25  -21.0787 26082.0 -03460.9 -07.5585 26310.6
 22 09 2013  16 26  -21.0795 26081.6 -03461.1 -07.5591 26310.3
 22 09 2013  16 27  -21.0801 26081.2 -03461.2 -07.5596 26309.9
 22 09 2013  16 28  -21.0804 26080.7 -03461.4 -07.5599 26309.4
 22 09 2013  16 29  -21.0807 26080.4 -03461.6 -07.5605 26309.1
 22 09 2013  16 30  -21.0814 26079.8 -03461.6 -07.5608 26308.5
 22 09 2013  16 31  -21.0816 26079.3 -03461.8 -07.5612 26308.1
 22 09 2013  16 32  -21.0819 26078.8 -03462.0 -07.5619 26307.6
 22 09 2013  16 33  -21.0822 26078.5 -03462.3 -07.5626 26307.3
 22 09 2013  16 34  -21.0828 26078.3 -03462.6 -07.5633 26307.2
 22 09 2013  16 35  -21.0831 26077.9 -03462.8 -07.5638 26306.8
 22 09 2013  16 36  -21.0833 26077.5 -03462.9 -07.5643 26306.4
 22 09 2013  16 37  -21.0839 26077.0 -03463.1 -07.5648 26306.0
 22 09 2013  16 38  -21.0842 26076.5 -03463.3 -07.5653 26305.5
 22 09 2013  16 39  -21.0843 26075.8 -03463.3 -07.5656 26304.8
 22 09 2013  16 40  -21.0848 26075.4 -03463.5 -07.5662 26304.5
 22 09 2013  16 41  -21.0855 26074.9 -03463.7 -07.5666 26304.0
 22 09 2013  16 42  -21.0862 26074.8 -03464.0 -07.5672 26303.8
 22 09 2013  16 43  -21.0868 26074.3 -03464.0 -07.5676 26303.4
 22 09 2013  16 44  -21.0870 26073.8 -03464.1 -07.5679 26302.9
 22 09 2013  16 45  -21.0876 26073.4 -03464.3 -07.5684 26302.5
 22 09 2013  16 46  -21.0882 26073.3 -03464.6 -07.5690 26302.5
 22 09 2013  16 47  -21.0885 26072.4 -03464.4 -07.5689 26301.6
 22 09 2013  16 48  -21.0886 26072.0 -03464.4 -07.5690 26301.1
 22 09 2013  16 49  -21.0891 26071.7 -03464.6 -07.5694 26300.9
 22 09 2013  16 50  -21.0892 26071.2 -03464.6 -07.5696 26300.4
 22 09 2013  16 51  -21.0898 26071.4 -03464.8 -07.5701 26300.7
 22 09 2013  16 52  -21.0902 26071.2 -03464.9 -07.5702 26300.5
 22 09 2013  16 53  -21.0903 26070.9 -03464.8 -07.5701 26300.1
 22 09 2013  16 54  -21.0903 26070.3 -03464.7 -07.5700 26299.5
 22 09 2013  16 55  -21.0899 26070.0 -03464.6 -07.5701 26299.2
 22 09 2013  16 56  -21.0901 26070.0 -03464.9 -07.5706 26299.2
 22 09 2013  16 57  -21.0901 26070.6 -03465.2 -07.5711 26299.9
 22 09 2013  16 58  -21.0901 26070.4 -03465.2 -07.5712 26299.7
 22 09 2013  16 59  -21.0899 26070.4 -03465.3 -07.5715 26299.7
 22 09 2013  17 00  -21.0903 26071.9 -03466.0 -07.5726 26301.3
 22 09 2013  17 01  -21.0908 26072.4 -03466.1 -07.5727 26301.8
 22 09 2013  17 02  -21.0908 26072.5 -03466.1 -07.5724 26301.9
 22 09 2013  17 03  -21.0905 26072.2 -03465.8 -07.5719 26301.5
 22 09 2013  17 04  -21.0903 26071.4 -03465.4 -07.5713 26300.7
 22 09 2013  17 05  -21.0902 26070.5 -03465.0 -07.5706 26299.8
 22 09 2013  17 06  -21.0901 26069.4 -03464.5 -07.5700 26298.6
 22 09 2013  17 07  -21.0898 26068.7 -03464.3 -07.5697 26297.9
 22 09 2013  17 08  -21.0895 26068.1 -03464.2 -07.5696 26297.2
 22 09 2013  17 09  -21.0889 26067.5 -03464.1 -07.5696 26296.7
 22 09 2013  17 10  -21.0884 26067.1 -03464.0 -07.5696 26296.2
 22 09 2013  17 11  -21.0880 26066.6 -03464.0 -07.5698 26295.8
 22 09 2013  17 12  -21.0876 26066.1 -03464.0 -07.5699 26295.3
 22 09 2013  17 13  -21.0873 26065.8 -03464.1 -07.5701 26295.0
 22 09 2013  17 14  -21.0872 26065.5 -03464.1 -07.5703 26294.7
 22 09 2013  17 15  -21.0869 26065.2 -03464.2 -07.5705 26294.3
 22 09 2013  17 16  -21.0863 26064.5 -03464.1 -07.5705 26293.7
 22 09 2013  17 17  -21.0857 26063.8 -03464.0 -07.5706 26293.0
 22 09 2013  17 18  -21.0850 26063.2 -03464.0 -07.5708 26292.4
 22 09 2013  17 19  -21.0842 26062.6 -03464.2 -07.5712 26291.9
 22 09 2013  17 20  -21.0837 26062.3 -03464.3 -07.5716 26291.5
 22 09 2013  17 21  -21.0833 26061.9 -03464.5 -07.5722 26291.2
 22 09 2013  17 22  -21.0830 26061.6 -03464.7 -07.5727 26290.9
 22 09 2013  17 23  -21.0827 26061.1 -03464.8 -07.5730 26290.4
 22 09 2013  17 24  -21.0823 26060.6 -03464.9 -07.5734 26289.9
 22 09 2013  17 25  -21.0819 26060.0 -03465.0 -07.5737 26289.4
 22 09 2013  17 26  -21.0813 26059.4 -03465.0 -07.5740 26288.8
 22 09 2013  17 27  -21.0807 26058.9 -03465.1 -07.5744 26288.2
 22 09 2013  17 28  -21.0803 26058.4 -03465.2 -07.5747 26287.8
 22 09 2013  17 29  -21.0798 26058.1 -03465.4 -07.5753 26287.5
 22 09 2013  17 30  -21.0793 26057.8 -03465.6 -07.5757 26287.2
 22 09 2013  17 31  -21.0790 26057.6 -03465.9 -07.5763 26287.0
 22 09 2013  17 32  -21.0786 26057.4 -03466.1 -07.5768 26286.9
 22 09 2013  17 33  -21.0785 26057.1 -03466.2 -07.5772 26286.6
 22 09 2013  17 34  -21.0782 26056.7 -03466.2 -07.5773 26286.2
 22 09 2013  17 35  -21.0778 26056.5 -03466.3 -07.5776 26286.0
 22 09 2013  17 36  -21.0776 26056.1 -03466.4 -07.5779 26285.7
 22 09 2013  17 37  -21.0772 26055.7 -03466.5 -07.5781 26285.3
 22 09 2013  17 38  -21.0769 26055.2 -03466.5 -07.5784 26284.8
 22 09 2013  17 39  -21.0763 26054.7 -03466.5 -07.5785 26284.3
 22 09 2013  17 40  -21.0757 26054.1 -03466.5 -07.5787 26283.7
 22 09 2013  17 41  -21.0748 26053.6 -03466.6 -07.5790 26283.2
 22 09 2013  17 42  -21.0743 26053.4 -03466.7 -07.5793 26283.0
 22 09 2013  17 43  -21.0737 26053.1 -03466.9 -07.5799 26282.8
 22 09 2013  17 44  -21.0733 26053.1 -03467.2 -07.5804 26282.8
 22 09 2013  17 45  -21.0727 26052.8 -03467.3 -07.5808 26282.5
 22 09 2013  17 46  -21.0723 26052.5 -03467.5 -07.5812 26282.3
 22 09 2013  17 47  -21.0718 26052.2 -03467.5 -07.5815 26282.0
 22 09 2013  17 48  -21.0712 26052.0 -03467.7 -07.5819 26281.8
 22 09 2013  17 49  -21.0705 26051.8 -03467.9 -07.5824 26281.6
 22 09 2013  17 50  -21.0698 26051.5 -03468.1 -07.5829 26281.4
 22 09 2013  17 51  -21.0694 26051.3 -03468.3 -07.5833 26281.1
 22 09 2013  17 52  -21.0688 26051.1 -03468.5 -07.5838 26280.9
 22 09 2013  17 53  -21.0684 26050.8 -03468.7 -07.5845 26280.7
 22 09 2013  17 54  -21.0679 26050.5 -03468.9 -07.5849 26280.5
 22 09 2013  17 55  -21.0674 26050.1 -03469.0 -07.5853 26280.0
 22 09 2013  17 56  -21.0670 26049.7 -03469.2 -07.5857 26279.7
 22 09 2013  17 57  -21.0667 26049.4 -03469.4 -07.5863 26279.4
 22 09 2013  17 58  -21.0662 26048.9 -03469.6 -07.5868 26279.0
 22 09 2013  17 59  -21.0656 26048.5 -03469.7 -07.5873 26278.6
 22 09 2013  18 00  -21.0650 26048.3 -03470.0 -07.5879 26278.4
 22 09 2013  18 01  -21.0645 26047.9 -03470.2 -07.5884 26278.1
 22 09 2013  18 02  -21.0639 26047.4 -03470.3 -07.5889 26277.6
 22 09 2013  18 03  -21.0632 26047.0 -03470.5 -07.5894 26277.2
 22 09 2013  18 04  -21.0628 26046.8 -03470.8 -07.5901 26277.0
 22 09 2013  18 05  -21.0622 26046.7 -03471.1 -07.5908 26277.0
 22 09 2013  18 06  -21.0620 26046.6 -03471.4 -07.5914 26276.9
 22 09 2013  18 07  -21.0617 26046.4 -03471.7 -07.5920 26276.8
 22 09 2013  18 08  -21.0613 26046.0 -03471.8 -07.5924 26276.4
 22 09 2013  18 09  -21.0607 26045.6 -03471.9 -07.5927 26276.0
 22 09 2013  18 10  -21.0603 26045.2 -03472.1 -07.5933 26275.6
 22 09 2013  18 11  -21.0597 26045.0 -03472.3 -07.5938 26275.4
 22 09 2013  18 12  -21.0590 26044.9 -03472.6 -07.5944 26275.4
 22 09 2013  18 13  -21.0587 26045.2 -03473.1 -07.5954 26275.7
 22 09 2013  18 14  -21.0585 26045.4 -03473.4 -07.5961 26276.0
 22 09 2013  18 15  -21.0584 26045.3 -03473.6 -07.5966 26275.9
 22 09 2013  18 16  -21.0583 26044.9 -03473.7 -07.5969 26275.5
 22 09 2013  18 17  -21.0578 26044.2 -03473.6 -07.5969 26274.8
 22 09 2013  18 18  -21.0574 26043.7 -03473.6 -07.5971 26274.3
 22 09 2013  18 19  -21.0572 26043.3 -03473.8 -07.5976 26274.0
 22 09 2013  18 20  -21.0571 26043.0 -03474.0 -07.5980 26273.7
 22 09 2013  18 21  -21.0568 26042.9 -03474.2 -07.5985 26273.6
 22 09 2013  18 22  -21.0568 26042.7 -03474.4 -07.5990 26273.5
 22 09 2013  18 23  -21.0564 26042.4 -03474.5 -07.5992 26273.2
 22 09 2013  18 24  -21.0558 26042.0 -03474.6 -07.5996 26272.8
 22 09 2013  18 25  -21.0554 26041.9 -03474.9 -07.6003 26272.7
 22 09 2013  18 26  -21.0552 26042.1 -03475.3 -07.6011 26273.0
 22 09 2013  18 27  -21.0549 26042.3 -03475.6 -07.6018 26273.2
 22 09 2013  18 28  -21.0547 26042.1 -03475.8 -07.6023 26273.1
 22 09 2013  18 29  -21.0541 26041.5 -03475.8 -07.6024 26272.5
 22 09 2013  18 30  -21.0537 26040.9 -03475.8 -07.6025 26271.9
 22 09 2013  18 31  -21.0531 26040.4 -03475.8 -07.6027 26271.4
 22 09 2013  18 32  -21.0527 26040.2 -03476.0 -07.6032 26271.1
 22 09 2013  18 33  -21.0524 26040.0 -03476.2 -07.6037 26271.0
 22 09 2013  18 34  -21.0520 26040.0 -03476.5 -07.6044 26271.0
 22 09 2013  18 35  -21.0521 26039.9 -03476.8 -07.6050 26270.9
 22 09 2013  18 36  -21.0517 26039.4 -03476.8 -07.6051 26270.5
 22 09 2013  18 37  -21.0511 26039.2 -03476.9 -07.6054 26270.2
 22 09 2013  18 38  -21.0510 26039.4 -03477.2 -07.6061 26270.5
 22 09 2013  18 39  -21.0512 26040.1 -03477.7 -07.6070 26271.3
 22 09 2013  18 40  -21.0512 26040.2 -03477.9 -07.6073 26271.5
 22 09 2013  18 41  -21.0508 26040.4 -03478.0 -07.6076 26271.6
 22 09 2013  18 42  -21.0503 26040.2 -03478.0 -07.6076 26271.4
 22 09 2013  18 43  -21.0498 26040.2 -03478.2 -07.6079 26271.5
 22 09 2013  18 44  -21.0493 26040.1 -03478.2 -07.6079 26271.3
 22 09 2013  18 45  -21.0490 26040.1 -03478.2 -07.6081 26271.3
 22 09 2013  18 46  -21.0485 26040.0 -03478.3 -07.6082 26271.3
 22 09 2013  18 47  -21.0485 26040.0 -03478.3 -07.6083 26271.3
 22 09 2013  18 48  -21.0485 26039.8 -03478.2 -07.6082 26271.0
 22 09 2013  18 49  -21.0480 26039.3 -03478.1 -07.6079 26270.6
 22 09 2013  18 50  -21.0476 26039.1 -03478.0 -07.6079 26270.3
 22 09 2013  18 51  -21.0468 26038.8 -03478.0 -07.6079 26270.0
 22 09 2013  18 52  -21.0460 26038.5 -03478.1 -07.6081 26269.8
 22 09 2013  18 53  -21.0454 26038.5 -03478.3 -07.6086 26269.8
 22 09 2013  18 54  -21.0449 26038.5 -03478.4 -07.6090 26269.8
 22 09 2013  18 55  -21.0444 26038.2 -03478.5 -07.6092 26269.6
 22 09 2013  18 56  -21.0438 26037.9 -03478.5 -07.6093 26269.3
 22 09 2013  18 57  -21.0430 26037.8 -03478.6 -07.6095 26269.1
 22 09 2013  18 58  -21.0424 26037.9 -03478.8 -07.6100 26269.3
 22 09 2013  18 59  -21.0421 26038.2 -03479.2 -07.6107 26269.6
 22 09 2013  19 00  -21.0419 26038.3 -03479.4 -07.6111 26269.8
 22 09 2013  19 01  -21.0418 26038.4 -03479.5 -07.6114 26269.8
 22 09 2013  19 02  -21.0417 26038.3 -03479.6 -07.6116 26269.7
 22 09 2013  19 03  -21.0416 26038.2 -03479.6 -07.6116 26269.6
 22 09 2013  19 04  -21.0414 26038.0 -03479.6 -07.6117 26269.5
 22 09 2013  19 05  -21.0411 26037.9 -03479.6 -07.6117 26269.4
 22 09 2013  19 06  -21.0409 26037.8 -03479.6 -07.6117 26269.2
 22 09 2013  19 07  -21.0408 26037.7 -03479.6 -07.6118 26269.2
 22 09 2013  19 08  -21.0407 26037.6 -03479.6 -07.6117 26269.0
 22 09 2013  19 09  -21.0404 26037.3 -03479.5 -07.6116 26268.8
 22 09 2013  19 10  -21.0401 26037.2 -03479.4 -07.6115 26268.6
 22 09 2013  19 11  -21.0397 26036.9 -03479.4 -07.6114 26268.4
 22 09 2013  19 12  -21.0392 26036.6 -03479.3 -07.6113 26268.1
 22 09 2013  19 13  -21.0387 26036.6 -03479.3 -07.6114 26268.0
 22 09 2013  19 14  -21.0382 26036.4 -03479.3 -07.6115 26267.9
 22 09 2013  19 15  -21.0379 26036.4 -03479.4 -07.6116 26267.8
 22 09 2013  19 16  -21.0376 26036.4 -03479.5 -07.6118 26267.9
 22 09 2013  19 17  -21.0372 26036.4 -03479.5 -07.6119 26267.9
 22 09 2013  19 18  -21.0369 26036.3 -03479.6 -07.6120 26267.8
 22 09 2013  19 19  -21.0366 26036.3 -03479.6 -07.6121 26267.7
 22 09 2013  19 20  -21.0363 26036.2 -03479.7 -07.6123 26267.7
 22 09 2013  19 21  -21.0360 26036.1 -03479.7 -07.6124 26267.6
 22 09 2013  19 22  -21.0361 26036.2 -03479.8 -07.6125 26267.7
 22 09 2013  19 23  -21.0354 26035.9 -03479.7 -07.6125 26267.4
 22 09 2013  19 24  -21.0350 26036.4 -03480.0 -07.6130 26268.0
 22 09 2013  19 25  -21.0354 26037.1 -03480.4 -07.6137 26268.7
 22 09 2013  19 26  -21.0354 26037.3 -03480.5 -07.6138 26268.9
 22 09 2013  19 27  -21.0354 26037.2 -03480.5 -07.6139 26268.8
 22 09 2013  19 28  -21.0351 26037.1 -03480.4 -07.6137 26268.7
 22 09 2013  19 29  -21.0347 26036.8 -03480.3 -07.6134 26268.3
 22 09 2013  19 30  -21.0346 26036.7 -03480.3 -07.6135 26268.2
 22 09 2013  19 31  -21.0345 26036.8 -03480.4 -07.6138 26268.4
 22 09 2013  19 32  -21.0345 26037.0 -03480.6 -07.6140 26268.6
 22 09 2013  19 33  -21.0344 26037.0 -03480.6 -07.6142 26268.6
 22 09 2013  19 34  -21.0342 26037.1 -03480.7 -07.6142 26268.7
 22 09 2013  19 35  -21.0341 26037.0 -03480.7 -07.6144 26268.6
 22 09 2013  19 36  -21.0341 26037.1 -03480.8 -07.6145 26268.7
 22 09 2013  19 37  -21.0339 26037.0 -03480.8 -07.6146 26268.7
 22 09 2013  19 38  -21.0338 26036.9 -03480.8 -07.6146 26268.5
 22 09 2013  19 39  -21.0335 26036.7 -03480.8 -07.6145 26268.3
 22 09 2013  19 40  -21.0333 26036.6 -03480.8 -07.6147 26268.3
 22 09 2013  19 41  -21.0330 26036.6 -03480.9 -07.6149 26268.2
 22 09 2013  19 42  -21.0327 26036.5 -03481.0 -07.6150 26268.2
 22 09 2013  19 43  -21.0325 26036.5 -03481.1 -07.6152 26268.2
 22 09 2013  19 44  -21.0322 26036.5 -03481.1 -07.6154 26268.2
 22 09 2013  19 45  -21.0319 26036.5 -03481.3 -07.6156 26268.3
 22 09 2013  19 46  -21.0316 26036.5 -03481.3 -07.6158 26268.3
 22 09 2013  19 47  -21.0314 26036.5 -03481.4 -07.6159 26268.2
 22 09 2013  19 48  -21.0311 26036.5 -03481.5 -07.6161 26268.2
 22 09 2013  19 49  -21.0309 26036.4 -03481.5 -07.6163 26268.1
 22 09 2013  19 50  -21.0307 26036.3 -03481.5 -07.6163 26268.0
 22 09 2013  19 51  -21.0303 26036.0 -03481.5 -07.6164 26267.8
 22 09 2013  19 52  -21.0300 26035.9 -03481.6 -07.6165 26267.7
 22 09 2013  19 53  -21.0297 26035.8 -03481.6 -07.6166 26267.6
 22 09 2013  19 54  -21.0294 26035.8 -03481.7 -07.6168 26267.6
 22 09 2013  19 55  -21.0291 26035.8 -03481.8 -07.6170 26267.6
 22 09 2013  19 56  -21.0289 26035.9 -03481.9 -07.6172 26267.7
 22 09 2013  19 57  -21.0286 26035.9 -03482.0 -07.6174 26267.7
 22 09 2013  19 58  -21.0282 26035.8 -03482.0 -07.6175 26267.6
 22 09 2013  19 59  -21.0279 26035.7 -03482.0 -07.6176 26267.5
 22 09 2013  20 00  -21.0277 26035.6 -03482.1 -07.6177 26267.4
 22 09 2013  20 01  -21.0273 26035.5 -03482.1 -07.6179 26267.3
 22 09 2013  20 02  -21.0270 26035.7 -03482.3 -07.6181 26267.5
 22 09 2013  20 03  -21.0268 26035.8 -03482.5 -07.6185 26267.6
 22 09 2013  20 04  -21.0266 26035.9 -03482.6 -07.6187 26267.7
 22 09 2013  20 05  -21.0263 26035.9 -03482.7 -07.6189 26267.8
 22 09 2013  20 06  -21.0261 26036.0 -03482.8 -07.6192 26267.9
 22 09 2013  20 07  -21.0259 26036.1 -03483.0 -07.6194 26268.1
 22 09 2013  20 08  -21.0257 26036.2 -03483.1 -07.6197 26268.2
 22 09 2013  20 09  -21.0254 26036.2 -03483.2 -07.6199 26268.2
 22 09 2013  20 10  -21.0251 26036.2 -03483.2 -07.6200 26268.2
 22 09 2013  20 11  -21.0247 26036.0 -03483.2 -07.6200 26268.0
 22 09 2013  20 12  -21.0243 26035.9 -03483.2 -07.6200 26267.8
 22 09 2013  20 13  -21.0240 26035.8 -03483.3 -07.6202 26267.8
 22 09 2013  20 14  -21.0236 26036.0 -03483.4 -07.6204 26267.9
 22 09 2013  20 15  -21.0233 26036.1 -03483.6 -07.6207 26268.1
 22 09 2013  20 16  -21.0230 26036.3 -03483.7 -07.6210 26268.3
 22 09 2013  20 17  -21.0226 26036.4 -03483.8 -07.6212 26268.4
 22 09 2013  20 18  -21.0223 26036.3 -03483.9 -07.6213 26268.4
 22 09 2013  20 19  -21.0220 26036.3 -03483.9 -07.6214 26268.4
 22 09 2013  20 20  -21.0215 26036.2 -03483.9 -07.6214 26268.3
 22 09 2013  20 21  -21.0212 26036.2 -03483.9 -07.6215 26268.2
 22 09 2013  20 22  -21.0209 26036.2 -03484.0 -07.6216 26268.2
 22 09 2013  20 23  -21.0204 26036.1 -03484.0 -07.6216 26268.2
 22 09 2013  20 24  -21.0200 26036.0 -03484.0 -07.6217 26268.1
 22 09 2013  20 25  -21.0196 26035.9 -03484.0 -07.6218 26268.0
 22 09 2013  20 26  -21.0192 26035.9 -03484.0 -07.6218 26267.9
 22 09 2013  20 27  -21.0187 26035.8 -03484.0 -07.6219 26267.9
 22 09 2013  20 28  -21.0183 26035.8 -03484.1 -07.6220 26267.9
 22 09 2013  20 29  -21.0179 26035.9 -03484.2 -07.6221 26268.0
 22 09 2013  20 30  -21.0175 26035.9 -03484.3 -07.6223 26268.0
 22 09 2013  20 31  -21.0170 26036.0 -03484.3 -07.6225 26268.1
 22 09 2013  20 32  -21.0165 26036.0 -03484.4 -07.6226 26268.1
 22 09 2013  20 33  -21.0162 26035.9 -03484.4 -07.6227 26268.1
 22 09 2013  20 34  -21.0157 26035.9 -03484.5 -07.6227 26268.0
 22 09 2013  20 35  -21.0152 26035.8 -03484.5 -07.6228 26268.0
 22 09 2013  20 36  -21.0147 26035.8 -03484.5 -07.6229 26267.9
 22 09 2013  20 37  -21.0143 26035.7 -03484.5 -07.6230 26267.8
 22 09 2013  20 38  -21.0139 26035.6 -03484.6 -07.6231 26267.8
 22 09 2013  20 39  -21.0135 26035.6 -03484.6 -07.6232 26267.8
 22 09 2013  20 40  -21.0130 26035.5 -03484.7 -07.6233 26267.7
 22 09 2013  20 41  -21.0126 26035.6 -03484.8 -07.6236 26267.8
 22 09 2013  20 42  -21.0121 26035.7 -03484.9 -07.6238 26267.9
 22 09 2013  20 43  -21.0117 26035.7 -03485.0 -07.6240 26267.9
 22 09 2013  20 44  -21.0112 26035.7 -03485.1 -07.6242 26267.9
 22 09 2013  20 45  -21.0108 26035.6 -03485.1 -07.6242 26267.8
 22 09 2013  20 46  -21.0104 26035.5 -03485.1 -07.6243 26267.7
 22 09 2013  20 47  -21.0102 26035.4 -03485.2 -07.6244 26267.6
 22 09 2013  20 48  -21.0098 26035.3 -03485.2 -07.6246 26267.6
 22 09 2013  20 49  -21.0094 26035.3 -03485.3 -07.6247 26267.5
 22 09 2013  20 50  -21.0090 26035.1 -03485.3 -07.6247 26267.3
 22 09 2013  20 51  -21.0087 26035.0 -03485.4 -07.6250 26267.3
 22 09 2013  20 52  -21.0084 26035.1 -03485.5 -07.6252 26267.3
 22 09 2013  20 53  -21.0080 26035.2 -03485.6 -07.6255 26267.5
 22 09 2013  20 54  -21.0078 26035.2 -03485.7 -07.6257 26267.5
 22 09 2013  20 55  -21.0076 26035.2 -03485.8 -07.6259 26267.5
 22 09 2013  20 56  -21.0074 26035.2 -03485.9 -07.6261 26267.5
 22 09 2013  20 57  -21.0073 26035.1 -03486.0 -07.6262 26267.4
 22 09 2013  20 58  -21.0071 26035.0 -03486.0 -07.6264 26267.4
 22 09 2013  20 59  -21.0070 26035.0 -03486.1 -07.6266 26267.3
 22 09 2013  21 00  -21.0070 26035.0 -03486.3 -07.6269 26267.4
 22 09 2013  21 01  -21.0068 26035.0 -03486.3 -07.6270 26267.4
 22 09 2013  21 02  -21.0066 26034.9 -03486.4 -07.6272 26267.3
 22 09 2013  21 03  -21.0065 26034.8 -03486.4 -07.6273 26267.2
 22 09 2013  21 04  -21.0065 26034.8 -03486.5 -07.6275 26267.2
 22 09 2013  21 05  -21.0064 26034.7 -03486.6 -07.6277 26267.1
 22 09 2013  21 06  -21.0063 26034.7 -03486.7 -07.6280 26267.1
 22 09 2013  21 07  -21.0063 26034.8 -03486.8 -07.6282 26267.2
 22 09 2013  21 08  -21.0063 26034.7 -03487.0 -07.6285 26267.2
 22 09 2013  21 09  -21.0064 26034.7 -03487.0 -07.6287 26267.1
 22 09 2013  21 10  -21.0063 26034.5 -03487.1 -07.6288 26267.0
 22 09 2013  21 11  -21.0064 26034.4 -03487.1 -07.6288 26266.9
 22 09 2013  21 12  -21.0066 26034.3 -03487.1 -07.6289 26266.8
 22 09 2013  21 13  -21.0067 26034.3 -03487.2 -07.6291 26266.8
 22 09 2013  21 14  -21.0068 26034.2 -03487.2 -07.6293 26266.8
 22 09 2013  21 15  -21.0069 26034.3 -03487.3 -07.6295 26266.8
 22 09 2013  21 16  -21.0070 26034.2 -03487.4 -07.6296 26266.8
 22 09 2013  21 17  -21.0070 26034.4 -03487.5 -07.6297 26266.9
 22 09 2013  21 18  -21.0072 26034.4 -03487.6 -07.6300 26266.9
 22 09 2013  21 19  -21.0072 26034.5 -03487.7 -07.6302 26267.1
 22 09 2013  21 20  -21.0074 26034.5 -03487.8 -07.6303 26267.1
 22 09 2013  21 21  -21.0076 26034.6 -03487.9 -07.6305 26267.2
 22 09 2013  21 22  -21.0077 26034.6 -03487.9 -07.6306 26267.2
 22 09 2013  21 23  -21.0078 26034.6 -03488.0 -07.6308 26267.2
 22 09 2013  21 24  -21.0079 26034.6 -03488.1 -07.6309 26267.3
 22 09 2013  21 25  -21.0078 26034.6 -03488.1 -07.6310 26267.2
 22 09 2013  21 26  -21.0079 26034.5 -03488.1 -07.6310 26267.1
 22 09 2013  21 27  -21.0080 26034.3 -03488.1 -07.6310 26267.0
 22 09 2013  21 28  -21.0081 26034.2 -03488.0 -07.6309 26266.8
 22 09 2013  21 29  -21.0083 26034.1 -03488.0 -07.6310 26266.7
 22 09 2013  21 30  -21.0084 26033.9 -03488.0 -07.6310 26266.5
 22 09 2013  21 31  -21.0084 26033.9 -03488.1 -07.6311 26266.5
 22 09 2013  21 32  -21.0085 26033.8 -03488.1 -07.6312 26266.4
 22 09 2013  21 33  -21.0087 26033.8 -03488.1 -07.6313 26266.4
 22 09 2013  21 34  -21.0088 26033.8 -03488.2 -07.6315 26266.4
 22 09 2013  21 35  -21.0090 26033.7 -03488.2 -07.6315 26266.4
 22 09 2013  21 36  -21.0091 26033.7 -03488.3 -07.6316 26266.3
 22 09 2013  21 37  -21.0092 26033.6 -03488.3 -07.6316 26266.3
 22 09 2013  21 38  -21.0094 26033.5 -03488.3 -07.6317 26266.2
 22 09 2013  21 39  -21.0096 26033.4 -03488.3 -07.6317 26266.1
 22 09 2013  21 40  -21.0098 26033.4 -03488.3 -07.6318 26266.1
 22 09 2013  21 41  -21.0100 26033.4 -03488.4 -07.6320 26266.1
 22 09 2013  21 42  -21.0102 26033.5 -03488.5 -07.6322 26266.2
 22 09 2013  21 43  -21.0104 26033.5 -03488.6 -07.6323 26266.2
 22 09 2013  21 44  -21.0107 26033.6 -03488.6 -07.6324 26266.3
 22 09 2013  21 45  -21.0110 26033.6 -03488.7 -07.6325 26266.4
 22 09 2013  21 46  -21.0112 26033.7 -03488.7 -07.6326 26266.5
 22 09 2013  21 47  -21.0114 26033.8 -03488.8 -07.6326 26266.5
 22 09 2013  21 48  -21.0116 26033.7 -03488.8 -07.6327 26266.4
 22 09 2013  21 49  -21.0117 26033.6 -03488.7 -07.6326 26266.3
 22 09 2013  21 50  -21.0119 26033.5 -03488.7 -07.6325 26266.2
 22 09 2013  21 51  -21.0119 26033.4 -03488.6 -07.6325 26266.2
 22 09 2013  21 52  -21.0120 26033.3 -03488.6 -07.6325 26266.0
 22 09 2013  21 53  -21.0120 26033.3 -03488.6 -07.6324 26266.0
 22 09 2013  21 54  -21.0121 26033.2 -03488.6 -07.6325 26265.9
 22 09 2013  21 55  -21.0122 26033.3 -03488.6 -07.6326 26266.0
 22 09 2013  21 56  -21.0124 26033.4 -03488.7 -07.6327 26266.1
 22 09 2013  21 57  -21.0124 26033.5 -03488.8 -07.6328 26266.2
 22 09 2013  21 58  -21.0124 26033.3 -03488.8 -07.6328 26266.0
 22 09 2013  21 59  -21.0126 26033.1 -03488.7 -07.6326 26265.8
 22 09 2013  22 00  -21.0128 26032.8 -03488.5 -07.6325 26265.5
 22 09 2013  22 01  -21.0129 26032.5 -03488.5 -07.6324 26265.2
 22 09 2013  22 02  -21.0130 26032.4 -03488.4 -07.6323 26265.1
 22 09 2013  22 03  -21.0130 26032.4 -03488.4 -07.6323 26265.1
 22 09 2013  22 04  -21.0130 26032.4 -03488.4 -07.6323 26265.1
 22 09 2013  22 05  -21.0130 26032.4 -03488.5 -07.6324 26265.1
 22 09 2013  22 06  -21.0130 26032.4 -03488.5 -07.6325 26265.1
 22 09 2013  22 07  -21.0131 26032.4 -03488.5 -07.6326 26265.1
 22 09 2013  22 08  -21.0131 26032.2 -03488.5 -07.6325 26264.9
 22 09 2013  22 09  -21.0130 26032.2 -03488.5 -07.6325 26264.9
 22 09 2013  22 10  -21.0129 26032.1 -03488.4 -07.6324 26264.8
 22 09 2013  22 11  -21.0130 26032.0 -03488.4 -07.6324 26264.7
 22 09 2013  22 12  -21.0131 26032.1 -03488.5 -07.6326 26264.8
 22 09 2013  22 13  -21.0132 26032.0 -03488.5 -07.6326 26264.7
 22 09 2013  22 14  -21.0133 26032.0 -03488.6 -07.6327 26264.7
 22 09 2013  22 15  -21.0134 26032.0 -03488.6 -07.6328 26264.7
 22 09 2013  22 16  -21.0133 26031.8 -03488.5 -07.6327 26264.5
 22 09 2013  22 17  -21.0133 26031.6 -03488.4 -07.6325 26264.3
 22 09 2013  22 18  -21.0133 26031.5 -03488.3 -07.6324 26264.2
 22 09 2013  22 19  -21.0134 26031.4 -03488.3 -07.6324 26264.1
 22 09 2013  22 20  -21.0134 26031.4 -03488.4 -07.6325 26264.1
 22 09 2013  22 21  -21.0136 26031.6 -03488.5 -07.6327 26264.3
 22 09 2013  22 22  -21.0136 26031.9 -03488.6 -07.6329 26264.6
 22 09 2013  22 23  -21.0138 26031.9 -03488.7 -07.6331 26264.7
 22 09 2013  22 24  -21.0139 26032.1 -03488.8 -07.6332 26264.8
 22 09 2013  22 25  -21.0139 26032.1 -03488.8 -07.6332 26264.8
 22 09 2013  22 26  -21.0141 26032.1 -03488.8 -07.6332 26264.8
 22 09 2013  22 27  -21.0141 26032.1 -03488.8 -07.6332 26264.8
 22 09 2013  22 28  -21.0141 26032.1 -03488.7 -07.6331 26264.8
 22 09 2013  22 29  -21.0141 26032.2 -03488.8 -07.6332 26265.0
 22 09 2013  22 30  -21.0141 26032.3 -03488.8 -07.6333 26265.1
 22 09 2013  22 31  -21.0141 26032.5 -03488.9 -07.6333 26265.2
 22 09 2013  22 32  -21.0143 26032.4 -03488.9 -07.6333 26265.2
 22 09 2013  22 33  -21.0144 26032.5 -03488.9 -07.6333 26265.2
 22 09 2013  22 34  -21.0145 26032.4 -03488.9 -07.6333 26265.2
 22 09 2013  22 35  -21.0144 26032.5 -03488.9 -07.6333 26265.2
 22 09 2013  22 36  -21.0144 26032.4 -03488.8 -07.6332 26265.1
 22 09 2013  22 37  -21.0144 26032.3 -03488.7 -07.6330 26265.0
 22 09 2013  22 38  -21.0144 26032.1 -03488.6 -07.6329 26264.8
 22 09 2013  22 39  -21.0145 26032.0 -03488.6 -07.6328 26264.7
 22 09 2013  22 40  -21.0145 26032.0 -03488.5 -07.6327 26264.7
 22 09 2013  22 41  -21.0145 26032.0 -03488.6 -07.6328 26264.7
 22 09 2013  22 42  -21.0146 26032.1 -03488.6 -07.6328 26264.8
 22 09 2013  22 43  -21.0147 26032.1 -03488.7 -07.6329 26264.8
 22 09 2013  22 44  -21.0147 26032.1 -03488.6 -07.6328 26264.8
 22 09 2013  22 45  -21.0147 26032.1 -03488.6 -07.6329 26264.8
 22 09 2013  22 46  -21.0148 26032.0 -03488.6 -07.6328 26264.7
 22 09 2013  22 47  -21.0149 26031.9 -03488.5 -07.6327 26264.6
 22 09 2013  22 48  -21.0149 26031.7 -03488.4 -07.6325 26264.4
 22 09 2013  22 49  -21.0150 26031.5 -03488.3 -07.6324 26264.2
 22 09 2013  22 50  -21.0149 26031.4 -03488.2 -07.6322 26264.0
 22 09 2013  22 51  -21.0149 26031.3 -03488.2 -07.6322 26264.0
 22 09 2013  22 52  -21.0148 26031.2 -03488.2 -07.6322 26263.9
 22 09 2013  22 53  -21.0148 26031.2 -03488.2 -07.6321 26263.8
 22 09 2013  22 54  -21.0148 26031.0 -03488.1 -07.6321 26263.7
 22 09 2013  22 55  -21.0148 26031.0 -03488.1 -07.6321 26263.6
 22 09 2013  22 56  -21.0148 26031.0 -03488.1 -07.6321 26263.6
 22 09 2013  22 57  -21.0150 26030.9 -03488.1 -07.6322 26263.5
 22 09 2013  22 58  -21.0150 26030.8 -03488.1 -07.6321 26263.4
 22 09 2013  22 59  -21.0150 26030.8 -03488.1 -07.6322 26263.5
 22 09 2013  23 00  -21.0150 26030.8 -03488.1 -07.6321 26263.5
 22 09 2013  23 01  -21.0150 26030.8 -03488.1 -07.6322 26263.5
 22 09 2013  23 02  -21.0151 26030.9 -03488.2 -07.6323 26263.5
 22 09 2013  23 03  -21.0151 26031.0 -03488.3 -07.6324 26263.7
 22 09 2013  23 04  -21.0149 26031.1 -03488.3 -07.6325 26263.8
 22 09 2013  23 05  -21.0148 26031.0 -03488.3 -07.6325 26263.7
 22 09 2013  23 06  -21.0146 26030.9 -03488.3 -07.6324 26263.6
 22 09 2013  23 07  -21.0145 26030.9 -03488.3 -07.6324 26263.6
 22 09 2013  23 08  -21.0143 26030.9 -03488.3 -07.6325 26263.6
 22 09 2013  23 09  -21.0143 26031.0 -03488.4 -07.6326 26263.7
 22 09 2013  23 10  -21.0141 26030.9 -03488.4 -07.6326 26263.6
 22 09 2013  23 11  -21.0140 26031.0 -03488.4 -07.6327 26263.7
 22 09 2013  23 12  -21.0139 26031.1 -03488.5 -07.6328 26263.8
 22 09 2013  23 13  -21.0138 26031.1 -03488.5 -07.6329 26263.8
 22 09 2013  23 14  -21.0137 26031.1 -03488.5 -07.6329 26263.9
 22 09 2013  23 15  -21.0138 26031.2 -03488.6 -07.6330 26264.0
 22 09 2013  23 16  -21.0136 26031.4 -03488.6 -07.6331 26264.1
 22 09 2013  23 17  -21.0136 26031.5 -03488.7 -07.6333 26264.2
 22 09 2013  23 18  -21.0134 26031.7 -03488.8 -07.6334 26264.4
 22 09 2013  23 19  -21.0132 26031.8 -03488.9 -07.6335 26264.5
 22 09 2013  23 20  -21.0132 26031.7 -03488.9 -07.6335 26264.4
 22 09 2013  23 21  -21.0131 26031.8 -03488.9 -07.6335 26264.5
 22 09 2013  23 22  -21.0130 26031.9 -03488.9 -07.6336 26264.7
 22 09 2013  23 23  -21.0129 26031.9 -03488.9 -07.6336 26264.6
 22 09 2013  23 24  -21.0127 26031.8 -03488.9 -07.6335 26264.6
 22 09 2013  23 25  -21.0127 26031.7 -03488.8 -07.6334 26264.4
 22 09 2013  23 26  -21.0127 26031.6 -03488.7 -07.6333 26264.4
 22 09 2013  23 27  -21.0128 26031.7 -03488.8 -07.6334 26264.4
 22 09 2013  23 28  -21.0128 26031.8 -03488.8 -07.6334 26264.5
 22 09 2013  23 29  -21.0129 26031.7 -03488.8 -07.6334 26264.5
 22 09 2013  23 30  -21.0129 26031.5 -03488.7 -07.6332 26264.2
 22 09 2013  23 31  -21.0129 26031.2 -03488.6 -07.6330 26263.9
 22 09 2013  23 32  -21.0128 26030.9 -03488.4 -07.6326 26263.6
 22 09 2013  23 33  -21.0127 26030.7 -03488.3 -07.6325 26263.4
 22 09 2013  23 34  -21.0126 26030.5 -03488.2 -07.6323 26263.2
 22 09 2013  23 35  -21.0125 26030.4 -03488.1 -07.6323 26263.1
 22 09 2013  23 36  -21.0124 26030.4 -03488.2 -07.6323 26263.1
 22 09 2013  23 37  -21.0125 26030.5 -03488.3 -07.6325 26263.2
 22 09 2013  23 38  -21.0125 26030.5 -03488.3 -07.6326 26263.2
 22 09 2013  23 39  -21.0125 26030.5 -03488.3 -07.6327 26263.2
 22 09 2013  23 40  -21.0125 26030.4 -03488.3 -07.6327 26263.1
 22 09 2013  23 41  -21.0123 26030.4 -03488.3 -07.6326 26263.1
 22 09 2013  23 42  -21.0122 26030.3 -03488.3 -07.6327 26263.0
 22 09 2013  23 43  -21.0121 26030.3 -03488.3 -07.6326 26263.0
 22 09 2013  23 44  -21.0119 26030.3 -03488.2 -07.6325 26263.0
 22 09 2013  23 45  -21.0118 26030.2 -03488.2 -07.6326 26262.9
 22 09 2013  23 46  -21.0119 26030.2 -03488.3 -07.6327 26262.8
 22 09 2013  23 47  -21.0118 26030.1 -03488.3 -07.6327 26262.8
 22 09 2013  23 48  -21.0118 26030.2 -03488.3 -07.6326 26262.8
 22 09 2013  23 49  -21.0116 26030.1 -03488.3 -07.6326 26262.8
 22 09 2013  23 50  -21.0115 26030.1 -03488.3 -07.6327 26262.8
 22 09 2013  23 51  -21.0114 26030.2 -03488.3 -07.6327 26262.8
 22 09 2013  23 52  -21.0114 26030.1 -03488.3 -07.6327 26262.8
 22 09 2013  23 53  -21.0115 26030.1 -03488.3 -07.6328 26262.8
 22 09 2013  23 54  -21.0113 26030.0 -03488.3 -07.6327 26262.7
 22 09 2013  23 55  -21.0113 26030.1 -03488.3 -07.6328 26262.8
 22 09 2013  23 56  -21.0113 26030.1 -03488.4 -07.6329 26262.8
 22 09 2013  23 57  -21.0111 26030.0 -03488.3 -07.6328 26262.7
