SAO LUIS EMBRACE-03 <295> 1 Min. Reported data

 DD MM YYYY  HH MM   D(Deg)  H(nT)   Z(nT)   I(Deg)   F(nT)

 22 10 2013  00 00  -20.9966 26030.0 -03498.9 -07.6557 26264.1
 22 10 2013  00 01  -20.9966 26029.9 -03498.9 -07.6557 26264.1
 22 10 2013  00 02  -20.9965 26029.9 -03498.9 -07.6556 26264.0
 22 10 2013  00 03  -20.9965 26029.8 -03498.8 -07.6556 26263.9
 22 10 2013  00 04  -20.9966 26029.7 -03498.8 -07.6555 26263.8
 22 10 2013  00 05  -20.9965 26029.7 -03498.7 -07.6554 26263.7
 22 10 2013  00 06  -20.9965 26029.7 -03498.8 -07.6555 26263.8
 22 10 2013  00 07  -20.9964 26029.7 -03498.8 -07.6555 26263.8
 22 10 2013  00 08  -20.9964 26029.8 -03498.8 -07.6556 26263.9
 22 10 2013  00 09  -20.9964 26029.8 -03498.8 -07.6556 26263.9
 22 10 2013  00 10  -20.9964 26029.9 -03498.9 -07.6556 26264.0
 22 10 2013  00 11  -20.9964 26030.0 -03498.9 -07.6557 26264.1
 22 10 2013  00 12  -20.9964 26030.1 -03499.0 -07.6558 26264.2
 22 10 2013  00 13  -20.9962 26030.2 -03499.0 -07.6558 26264.3
 22 10 2013  00 14  -20.9963 26030.2 -03499.0 -07.6558 26264.4
 22 10 2013  00 15  -20.9962 26030.2 -03499.0 -07.6559 26264.3
 22 10 2013  00 16  -20.9962 26030.3 -03499.0 -07.6559 26264.4
 22 10 2013  00 17  -20.9962 26030.3 -03499.0 -07.6558 26264.4
 22 10 2013  00 18  -20.9963 26030.4 -03499.1 -07.6559 26264.6
 22 10 2013  00 19  -20.9962 26030.5 -03499.1 -07.6560 26264.6
 22 10 2013  00 20  -20.9963 26030.5 -03499.1 -07.6560 26264.7
 22 10 2013  00 21  -20.9964 26030.6 -03499.1 -07.6560 26264.7
 22 10 2013  00 22  -20.9965 26030.6 -03499.1 -07.6559 26264.7
 22 10 2013  00 23  -20.9965 26030.6 -03499.1 -07.6558 26264.7
 22 10 2013  00 24  -20.9965 26030.6 -03499.1 -07.6559 26264.7
 22 10 2013  00 25  -20.9965 26030.6 -03499.1 -07.6558 26264.7
 22 10 2013  00 26  -20.9964 26030.6 -03499.0 -07.6558 26264.7
 22 10 2013  00 27  -20.9964 26030.5 -03499.0 -07.6557 26264.6
 22 10 2013  00 28  -20.9967 26030.3 -03498.9 -07.6556 26264.4
 22 10 2013  00 29  -20.9967 26030.2 -03498.8 -07.6554 26264.3
 22 10 2013  00 30  -20.9968 26030.1 -03498.7 -07.6553 26264.2
 22 10 2013  00 31  -20.9968 26030.0 -03498.7 -07.6552 26264.1
 22 10 2013  00 32  -20.9969 26029.9 -03498.7 -07.6552 26264.0
 22 10 2013  00 33  -20.9969 26029.9 -03498.6 -07.6551 26263.9
 22 10 2013  00 34  -20.9970 26029.8 -03498.6 -07.6550 26263.8
 22 10 2013  00 35  -20.9970 26029.7 -03498.5 -07.6550 26263.7
 22 10 2013  00 36  -20.9969 26029.6 -03498.5 -07.6548 26263.7
 22 10 2013  00 37  -20.9966 26029.6 -03498.5 -07.6548 26263.7
 22 10 2013  00 38  -20.9965 26029.7 -03498.5 -07.6549 26263.8
 22 10 2013  00 39  -20.9963 26029.8 -03498.5 -07.6549 26263.9
 22 10 2013  00 40  -20.9963 26029.9 -03498.6 -07.6551 26263.9
 22 10 2013  00 41  -20.9962 26030.0 -03498.6 -07.6551 26264.0
 22 10 2013  00 42  -20.9961 26030.1 -03498.7 -07.6552 26264.2
 22 10 2013  00 43  -20.9962 26030.2 -03498.8 -07.6553 26264.3
 22 10 2013  00 44  -20.9962 26030.3 -03498.8 -07.6553 26264.4
 22 10 2013  00 45  -20.9962 26030.3 -03498.8 -07.6554 26264.4
 22 10 2013  00 46  -20.9962 26030.4 -03498.8 -07.6553 26264.5
 22 10 2013  00 47  -20.9962 26030.6 -03498.9 -07.6554 26264.7
 22 10 2013  00 48  -20.9961 26030.8 -03498.9 -07.6555 26264.9
 22 10 2013  00 49  -20.9961 26030.9 -03499.0 -07.6555 26265.0
 22 10 2013  00 50  -20.9961 26031.0 -03499.0 -07.6556 26265.1
 22 10 2013  00 51  -20.9960 26031.0 -03499.0 -07.6556 26265.1
 22 10 2013  00 52  -20.9959 26031.1 -03499.0 -07.6555 26265.2
 22 10 2013  00 53  -20.9957 26031.2 -03499.0 -07.6556 26265.4
 22 10 2013  00 54  -20.9956 26031.4 -03499.1 -07.6556 26265.5
 22 10 2013  00 55  -20.9955 26031.6 -03499.1 -07.6557 26265.7
 22 10 2013  00 56  -20.9954 26031.6 -03499.1 -07.6557 26265.7
 22 10 2013  00 57  -20.9953 26031.5 -03499.0 -07.6555 26265.6
 22 10 2013  00 58  -20.9951 26031.3 -03498.9 -07.6554 26265.4
 22 10 2013  00 59  -20.9949 26031.2 -03498.8 -07.6552 26265.3
 22 10 2013  01 00  -20.9947 26031.3 -03498.8 -07.6552 26265.3
 22 10 2013  01 01  -20.9947 26031.4 -03498.9 -07.6552 26265.5
 22 10 2013  01 02  -20.9946 26031.5 -03498.9 -07.6552 26265.6
 22 10 2013  01 03  -20.9946 26031.5 -03498.9 -07.6553 26265.6
 22 10 2013  01 04  -20.9945 26031.4 -03498.9 -07.6552 26265.5
 22 10 2013  01 05  -20.9945 26031.4 -03498.8 -07.6552 26265.5
 22 10 2013  01 06  -20.9944 26031.4 -03498.8 -07.6551 26265.5
 22 10 2013  01 07  -20.9943 26031.4 -03498.8 -07.6550 26265.5
 22 10 2013  01 08  -20.9941 26031.4 -03498.7 -07.6549 26265.5
 22 10 2013  01 09  -20.9939 26031.4 -03498.7 -07.6549 26265.5
 22 10 2013  01 10  -20.9938 26031.4 -03498.7 -07.6549 26265.5
 22 10 2013  01 11  -20.9938 26031.4 -03498.8 -07.6550 26265.5
 22 10 2013  01 12  -20.9936 26031.4 -03498.8 -07.6550 26265.5
 22 10 2013  01 13  -20.9936 26031.5 -03498.8 -07.6549 26265.5
 22 10 2013  01 14  -20.9936 26031.5 -03498.7 -07.6549 26265.5
 22 10 2013  01 15  -20.9935 26031.4 -03498.7 -07.6549 26265.5
 22 10 2013  01 16  -20.9935 26031.5 -03498.7 -07.6549 26265.5
 22 10 2013  01 17  -20.9935 26031.5 -03498.7 -07.6549 26265.5
 22 10 2013  01 18  -20.9935 26031.5 -03498.7 -07.6548 26265.5
 22 10 2013  01 19  -20.9935 26031.5 -03498.8 -07.6549 26265.6
 22 10 2013  01 20  -20.9934 26031.5 -03498.7 -07.6549 26265.6
 22 10 2013  01 21  -20.9934 26031.5 -03498.7 -07.6548 26265.5
 22 10 2013  01 22  -20.9934 26031.4 -03498.7 -07.6548 26265.5
 22 10 2013  01 23  -20.9933 26031.4 -03498.7 -07.6548 26265.5
 22 10 2013  01 24  -20.9934 26031.4 -03498.7 -07.6548 26265.5
 22 10 2013  01 25  -20.9934 26031.3 -03498.7 -07.6548 26265.4
 22 10 2013  01 26  -20.9935 26031.2 -03498.6 -07.6547 26265.3
 22 10 2013  01 27  -20.9935 26031.2 -03498.6 -07.6547 26265.2
 22 10 2013  01 28  -20.9936 26031.2 -03498.6 -07.6547 26265.3
 22 10 2013  01 29  -20.9936 26031.2 -03498.7 -07.6548 26265.3
 22 10 2013  01 30  -20.9936 26031.2 -03498.6 -07.6548 26265.3
 22 10 2013  01 31  -20.9936 26031.2 -03498.6 -07.6547 26265.2
 22 10 2013  01 32  -20.9936 26031.1 -03498.6 -07.6548 26265.2
 22 10 2013  01 33  -20.9936 26031.0 -03498.6 -07.6547 26265.0
 22 10 2013  01 34  -20.9936 26030.9 -03498.5 -07.6546 26265.0
 22 10 2013  01 35  -20.9936 26030.9 -03498.6 -07.6547 26264.9
 22 10 2013  01 36  -20.9935 26030.9 -03498.6 -07.6548 26264.9
 22 10 2013  01 37  -20.9935 26030.9 -03498.6 -07.6547 26265.0
 22 10 2013  01 38  -20.9936 26030.9 -03498.6 -07.6548 26264.9
 22 10 2013  01 39  -20.9935 26030.8 -03498.6 -07.6548 26264.9
 22 10 2013  01 40  -20.9935 26030.8 -03498.6 -07.6548 26264.8
 22 10 2013  01 41  -20.9934 26030.7 -03498.6 -07.6548 26264.8
 22 10 2013  01 42  -20.9934 26030.7 -03498.6 -07.6548 26264.8
 22 10 2013  01 43  -20.9934 26030.7 -03498.6 -07.6549 26264.8
 22 10 2013  01 44  -20.9934 26030.7 -03498.6 -07.6549 26264.8
 22 10 2013  01 45  -20.9934 26030.7 -03498.7 -07.6550 26264.8
 22 10 2013  01 46  -20.9933 26030.7 -03498.7 -07.6550 26264.8
 22 10 2013  01 47  -20.9933 26030.7 -03498.7 -07.6550 26264.8
 22 10 2013  01 48  -20.9933 26030.8 -03498.8 -07.6551 26264.8
 22 10 2013  01 49  -20.9932 26030.8 -03498.8 -07.6552 26264.9
 22 10 2013  01 50  -20.9933 26030.8 -03498.8 -07.6552 26264.9
 22 10 2013  01 51  -20.9934 26030.8 -03498.8 -07.6553 26264.9
 22 10 2013  01 52  -20.9935 26030.8 -03498.8 -07.6552 26264.8
 22 10 2013  01 53  -20.9934 26030.7 -03498.8 -07.6552 26264.8
 22 10 2013  01 54  -20.9934 26030.8 -03498.8 -07.6553 26264.8
 22 10 2013  01 55  -20.9933 26030.8 -03498.8 -07.6553 26264.9
 22 10 2013  01 56  -20.9933 26030.8 -03498.9 -07.6554 26264.9
 22 10 2013  01 57  -20.9934 26030.8 -03498.9 -07.6554 26264.9
 22 10 2013  01 58  -20.9935 26030.8 -03498.9 -07.6555 26264.9
 22 10 2013  01 59  -20.9935 26030.8 -03498.9 -07.6555 26264.9
 22 10 2013  02 00  -20.9935 26030.8 -03498.9 -07.6555 26264.9
 22 10 2013  02 01  -20.9935 26030.8 -03499.0 -07.6556 26264.9
 22 10 2013  02 02  -20.9934 26030.9 -03499.0 -07.6556 26265.0
 22 10 2013  02 03  -20.9934 26030.9 -03499.0 -07.6557 26265.1
 22 10 2013  02 04  -20.9934 26031.0 -03499.1 -07.6558 26265.1
 22 10 2013  02 05  -20.9936 26031.0 -03499.1 -07.6558 26265.1
 22 10 2013  02 06  -20.9937 26030.9 -03499.1 -07.6558 26265.0
 22 10 2013  02 07  -20.9938 26030.8 -03499.1 -07.6558 26264.9
 22 10 2013  02 08  -20.9939 26030.7 -03499.0 -07.6557 26264.8
 22 10 2013  02 09  -20.9940 26030.7 -03499.0 -07.6557 26264.8
 22 10 2013  02 10  -20.9940 26030.6 -03499.0 -07.6556 26264.7
 22 10 2013  02 11  -20.9940 26030.5 -03499.0 -07.6556 26264.6
 22 10 2013  02 12  -20.9941 26030.5 -03498.9 -07.6556 26264.6
 22 10 2013  02 13  -20.9942 26030.5 -03499.0 -07.6556 26264.6
 22 10 2013  02 14  -20.9942 26030.5 -03499.0 -07.6557 26264.6
 22 10 2013  02 15  -20.9941 26030.6 -03499.0 -07.6558 26264.7
 22 10 2013  02 16  -20.9942 26030.6 -03499.0 -07.6558 26264.7
 22 10 2013  02 17  -20.9942 26030.6 -03499.1 -07.6559 26264.7
 22 10 2013  02 18  -20.9942 26030.6 -03499.0 -07.6558 26264.7
 22 10 2013  02 19  -20.9943 26030.6 -03499.1 -07.6559 26264.7
 22 10 2013  02 20  -20.9942 26030.6 -03499.1 -07.6559 26264.7
 22 10 2013  02 21  -20.9943 26030.6 -03499.1 -07.6559 26264.7
 22 10 2013  02 22  -20.9943 26030.7 -03499.1 -07.6559 26264.8
 22 10 2013  02 23  -20.9943 26030.6 -03499.1 -07.6560 26264.8
 22 10 2013  02 24  -20.9942 26030.6 -03499.1 -07.6559 26264.8
 22 10 2013  02 25  -20.9943 26030.5 -03499.1 -07.6559 26264.7
 22 10 2013  02 26  -20.9943 26030.5 -03499.0 -07.6558 26264.6
 22 10 2013  02 27  -20.9943 26030.4 -03499.0 -07.6558 26264.5
 22 10 2013  02 28  -20.9944 26030.4 -03499.0 -07.6558 26264.5
 22 10 2013  02 29  -20.9943 26030.4 -03498.9 -07.6557 26264.5
 22 10 2013  02 30  -20.9943 26030.3 -03498.9 -07.6556 26264.5
 22 10 2013  02 31  -20.9944 26030.3 -03498.9 -07.6557 26264.4
 22 10 2013  02 32  -20.9945 26030.3 -03499.0 -07.6557 26264.4
 22 10 2013  02 33  -20.9946 26030.3 -03499.0 -07.6557 26264.4
 22 10 2013  02 34  -20.9946 26030.3 -03499.0 -07.6557 26264.4
 22 10 2013  02 35  -20.9946 26030.3 -03498.9 -07.6557 26264.4
 22 10 2013  02 36  -20.9947 26030.3 -03498.9 -07.6557 26264.4
 22 10 2013  02 37  -20.9948 26030.3 -03498.9 -07.6557 26264.4
 22 10 2013  02 38  -20.9949 26030.3 -03498.9 -07.6556 26264.4
 22 10 2013  02 39  -20.9950 26030.3 -03498.9 -07.6555 26264.4
 22 10 2013  02 40  -20.9950 26030.2 -03498.8 -07.6555 26264.3
 22 10 2013  02 41  -20.9952 26030.2 -03498.8 -07.6554 26264.3
 22 10 2013  02 42  -20.9952 26030.2 -03498.8 -07.6553 26264.2
 22 10 2013  02 43  -20.9953 26030.1 -03498.7 -07.6553 26264.2
 22 10 2013  02 44  -20.9953 26030.0 -03498.7 -07.6552 26264.1
 22 10 2013  02 45  -20.9954 26030.0 -03498.7 -07.6552 26264.1
 22 10 2013  02 46  -20.9954 26030.0 -03498.7 -07.6551 26264.1
 22 10 2013  02 47  -20.9955 26030.0 -03498.6 -07.6550 26264.0
 22 10 2013  02 48  -20.9956 26029.8 -03498.5 -07.6549 26263.8
 22 10 2013  02 49  -20.9956 26029.6 -03498.4 -07.6547 26263.6
 22 10 2013  02 50  -20.9956 26029.5 -03498.3 -07.6546 26263.5
 22 10 2013  02 51  -20.9957 26029.5 -03498.4 -07.6547 26263.6
 22 10 2013  02 52  -20.9958 26029.6 -03498.4 -07.6547 26263.6
 22 10 2013  02 53  -20.9960 26029.7 -03498.4 -07.6547 26263.7
 22 10 2013  02 54  -20.9961 26029.6 -03498.4 -07.6547 26263.6
 22 10 2013  02 55  -20.9963 26029.5 -03498.3 -07.6546 26263.5
 22 10 2013  02 56  -20.9965 26029.3 -03498.3 -07.6545 26263.4
 22 10 2013  02 57  -20.9968 26029.2 -03498.2 -07.6544 26263.3
 22 10 2013  02 58  -20.9969 26029.2 -03498.2 -07.6544 26263.2
 22 10 2013  02 59  -20.9970 26029.2 -03498.2 -07.6544 26263.2
 22 10 2013  03 00  -20.9971 26029.3 -03498.2 -07.6544 26263.3
 22 10 2013  03 01  -20.9971 26029.3 -03498.2 -07.6545 26263.3
 22 10 2013  03 02  -20.9972 26029.3 -03498.3 -07.6545 26263.4
 22 10 2013  03 03  -20.9973 26029.4 -03498.3 -07.6545 26263.4
 22 10 2013  03 04  -20.9972 26029.6 -03498.3 -07.6546 26263.6
 22 10 2013  03 05  -20.9968 26030.1 -03498.6 -07.6549 26264.1
 22 10 2013  03 06  -20.9965 26030.8 -03498.9 -07.6555 26264.9
 22 10 2013  03 07  -20.9961 26031.5 -03499.2 -07.6560 26265.6
 22 10 2013  03 08  -20.9958 26032.0 -03499.5 -07.6564 26266.2
 22 10 2013  03 09  -20.9955 26032.3 -03499.6 -07.6566 26266.5
 22 10 2013  03 10  -20.9954 26032.5 -03499.6 -07.6565 26266.7
 22 10 2013  03 11  -20.9952 26032.5 -03499.6 -07.6565 26266.7
 22 10 2013  03 12  -20.9951 26032.4 -03499.5 -07.6564 26266.6
 22 10 2013  03 13  -20.9949 26032.4 -03499.4 -07.6562 26266.5
 22 10 2013  03 14  -20.9949 26032.4 -03499.4 -07.6561 26266.5
 22 10 2013  03 15  -20.9949 26032.5 -03499.5 -07.6563 26266.7
 22 10 2013  03 16  -20.9949 26032.7 -03499.6 -07.6564 26266.9
 22 10 2013  03 17  -20.9948 26032.8 -03499.6 -07.6564 26267.0
 22 10 2013  03 18  -20.9947 26032.9 -03499.6 -07.6565 26267.1
 22 10 2013  03 19  -20.9945 26033.0 -03499.7 -07.6565 26267.2
 22 10 2013  03 20  -20.9944 26033.2 -03499.8 -07.6566 26267.4
 22 10 2013  03 21  -20.9944 26033.4 -03499.8 -07.6567 26267.6
 22 10 2013  03 22  -20.9943 26033.5 -03499.9 -07.6567 26267.7
 22 10 2013  03 23  -20.9941 26033.6 -03499.9 -07.6568 26267.8
 22 10 2013  03 24  -20.9938 26033.7 -03500.0 -07.6569 26267.9
 22 10 2013  03 25  -20.9936 26033.8 -03500.0 -07.6569 26268.0
 22 10 2013  03 26  -20.9933 26033.9 -03500.0 -07.6569 26268.1
 22 10 2013  03 27  -20.9931 26034.1 -03500.1 -07.6570 26268.3
 22 10 2013  03 28  -20.9928 26034.2 -03500.1 -07.6571 26268.5
 22 10 2013  03 29  -20.9926 26034.3 -03500.2 -07.6573 26268.6
 22 10 2013  03 30  -20.9925 26034.4 -03500.2 -07.6573 26268.6
 22 10 2013  03 31  -20.9922 26034.4 -03500.3 -07.6573 26268.6
 22 10 2013  03 32  -20.9919 26034.4 -03500.2 -07.6573 26268.6
 22 10 2013  03 33  -20.9918 26034.3 -03500.2 -07.6572 26268.5
 22 10 2013  03 34  -20.9917 26034.3 -03500.2 -07.6573 26268.5
 22 10 2013  03 35  -20.9917 26034.3 -03500.3 -07.6574 26268.6
 22 10 2013  03 36  -20.9916 26034.4 -03500.3 -07.6575 26268.7
 22 10 2013  03 37  -20.9917 26034.5 -03500.4 -07.6576 26268.8
 22 10 2013  03 38  -20.9918 26034.6 -03500.4 -07.6577 26268.9
 22 10 2013  03 39  -20.9917 26034.6 -03500.5 -07.6577 26268.9
 22 10 2013  03 40  -20.9916 26034.7 -03500.5 -07.6578 26269.0
 22 10 2013  03 41  -20.9916 26035.0 -03500.6 -07.6580 26269.2
 22 10 2013  03 42  -20.9917 26035.1 -03500.7 -07.6580 26269.4
 22 10 2013  03 43  -20.9918 26035.2 -03500.8 -07.6582 26269.5
 22 10 2013  03 44  -20.9917 26035.2 -03500.7 -07.6581 26269.5
 22 10 2013  03 45  -20.9916 26035.3 -03500.7 -07.6581 26269.6
 22 10 2013  03 46  -20.9915 26035.2 -03500.7 -07.6580 26269.5
 22 10 2013  03 47  -20.9916 26035.2 -03500.7 -07.6580 26269.5
 22 10 2013  03 48  -20.9918 26035.2 -03500.7 -07.6580 26269.5
 22 10 2013  03 49  -20.9920 26035.1 -03500.6 -07.6580 26269.4
 22 10 2013  03 50  -20.9920 26035.2 -03500.7 -07.6580 26269.5
 22 10 2013  03 51  -20.9919 26035.3 -03500.7 -07.6580 26269.6
 22 10 2013  03 52  -20.9918 26035.4 -03500.7 -07.6580 26269.7
 22 10 2013  03 53  -20.9917 26035.5 -03500.7 -07.6581 26269.8
 22 10 2013  03 54  -20.9919 26035.4 -03500.7 -07.6580 26269.7
 22 10 2013  03 55  -20.9921 26035.2 -03500.6 -07.6578 26269.5
 22 10 2013  03 56  -20.9922 26034.9 -03500.5 -07.6576 26269.2
 22 10 2013  03 57  -20.9923 26034.6 -03500.3 -07.6573 26268.9
 22 10 2013  03 58  -20.9924 26034.3 -03500.1 -07.6571 26268.5
 22 10 2013  03 59  -20.9922 26034.0 -03500.0 -07.6568 26268.2
 22 10 2013  04 00  -20.9923 26033.9 -03499.9 -07.6568 26268.1
 22 10 2013  04 01  -20.9924 26033.9 -03499.9 -07.6568 26268.1
 22 10 2013  04 02  -20.9926 26033.9 -03500.0 -07.6569 26268.2
 22 10 2013  04 03  -20.9927 26034.0 -03500.0 -07.6569 26268.2
 22 10 2013  04 04  -20.9927 26033.9 -03500.0 -07.6569 26268.1
 22 10 2013  04 05  -20.9927 26033.9 -03500.0 -07.6568 26268.1
 22 10 2013  04 06  -20.9928 26033.8 -03499.9 -07.6568 26268.0
 22 10 2013  04 07  -20.9926 26033.8 -03499.9 -07.6568 26268.0
 22 10 2013  04 08  -20.9925 26033.8 -03499.9 -07.6568 26268.0
 22 10 2013  04 09  -20.9925 26033.8 -03499.9 -07.6568 26268.0
 22 10 2013  04 10  -20.9924 26033.9 -03500.0 -07.6568 26268.1
 22 10 2013  04 11  -20.9924 26034.0 -03500.1 -07.6570 26268.2
 22 10 2013  04 12  -20.9923 26034.0 -03500.1 -07.6570 26268.2
 22 10 2013  04 13  -20.9922 26033.9 -03500.0 -07.6569 26268.2
 22 10 2013  04 14  -20.9921 26033.8 -03500.0 -07.6569 26268.0
 22 10 2013  04 15  -20.9921 26033.7 -03499.9 -07.6568 26267.9
 22 10 2013  04 16  -20.9921 26033.6 -03499.9 -07.6567 26267.8
 22 10 2013  04 17  -20.9923 26033.6 -03499.9 -07.6568 26267.8
 22 10 2013  04 18  -20.9923 26033.6 -03499.9 -07.6568 26267.8
 22 10 2013  04 19  -20.9923 26033.6 -03499.9 -07.6569 26267.8
 22 10 2013  04 20  -20.9923 26033.7 -03499.9 -07.6568 26267.9
 22 10 2013  04 21  -20.9923 26033.8 -03500.0 -07.6569 26268.0
 22 10 2013  04 22  -20.9924 26033.9 -03500.1 -07.6570 26268.1
 22 10 2013  04 23  -20.9925 26034.0 -03500.1 -07.6571 26268.3
 22 10 2013  04 24  -20.9925 26034.1 -03500.2 -07.6572 26268.3
 22 10 2013  04 25  -20.9923 26034.1 -03500.1 -07.6571 26268.3
 22 10 2013  04 26  -20.9923 26033.9 -03500.0 -07.6570 26268.1
 22 10 2013  04 27  -20.9924 26033.8 -03500.0 -07.6569 26268.0
 22 10 2013  04 28  -20.9924 26033.7 -03499.9 -07.6569 26267.9
 22 10 2013  04 29  -20.9924 26033.7 -03499.9 -07.6568 26267.9
 22 10 2013  04 30  -20.9924 26033.6 -03499.9 -07.6569 26267.9
 22 10 2013  04 31  -20.9922 26033.7 -03499.9 -07.6568 26267.9
 22 10 2013  04 32  -20.9921 26033.7 -03499.9 -07.6568 26267.9
 22 10 2013  04 33  -20.9921 26033.7 -03499.9 -07.6568 26267.9
 22 10 2013  04 34  -20.9921 26033.6 -03499.9 -07.6568 26267.9
 22 10 2013  04 35  -20.9922 26033.6 -03499.9 -07.6568 26267.8
 22 10 2013  04 36  -20.9920 26033.6 -03499.9 -07.6567 26267.8
 22 10 2013  04 37  -20.9921 26033.5 -03499.9 -07.6568 26267.7
 22 10 2013  04 38  -20.9922 26033.4 -03499.8 -07.6567 26267.6
 22 10 2013  04 39  -20.9923 26033.2 -03499.7 -07.6565 26267.4
 22 10 2013  04 40  -20.9922 26033.1 -03499.7 -07.6565 26267.3
 22 10 2013  04 41  -20.9921 26033.1 -03499.7 -07.6565 26267.3
 22 10 2013  04 42  -20.9919 26033.1 -03499.7 -07.6564 26267.2
 22 10 2013  04 43  -20.9919 26033.0 -03499.6 -07.6564 26267.2
 22 10 2013  04 44  -20.9919 26033.1 -03499.7 -07.6566 26267.3
 22 10 2013  04 45  -20.9919 26033.2 -03499.8 -07.6567 26267.4
 22 10 2013  04 46  -20.9920 26033.3 -03499.9 -07.6568 26267.5
 22 10 2013  04 47  -20.9920 26033.3 -03499.9 -07.6569 26267.5
 22 10 2013  04 48  -20.9918 26033.3 -03499.9 -07.6569 26267.5
 22 10 2013  04 49  -20.9917 26033.3 -03499.9 -07.6569 26267.5
 22 10 2013  04 50  -20.9916 26033.2 -03499.8 -07.6567 26267.4
 22 10 2013  04 51  -20.9916 26033.1 -03499.8 -07.6567 26267.3
 22 10 2013  04 52  -20.9918 26033.1 -03499.8 -07.6568 26267.3
 22 10 2013  04 53  -20.9918 26033.1 -03499.8 -07.6568 26267.3
 22 10 2013  04 54  -20.9917 26033.1 -03499.9 -07.6568 26267.3
 22 10 2013  04 55  -20.9915 26033.2 -03499.9 -07.6569 26267.4
 22 10 2013  04 56  -20.9916 26033.3 -03499.9 -07.6569 26267.5
 22 10 2013  04 57  -20.9915 26033.4 -03500.0 -07.6570 26267.6
 22 10 2013  04 58  -20.9914 26033.4 -03500.0 -07.6571 26267.6
 22 10 2013  04 59  -20.9912 26033.5 -03500.1 -07.6571 26267.7
 22 10 2013  05 00  -20.9910 26033.7 -03500.2 -07.6573 26268.0
 22 10 2013  05 01  -20.9909 26033.9 -03500.3 -07.6576 26268.1
 22 10 2013  05 02  -20.9911 26033.9 -03500.4 -07.6577 26268.2
 22 10 2013  05 03  -20.9911 26033.8 -03500.3 -07.6576 26268.0
 22 10 2013  05 04  -20.9910 26033.8 -03500.3 -07.6575 26268.0
 22 10 2013  05 05  -20.9909 26033.7 -03500.2 -07.6575 26268.0
 22 10 2013  05 06  -20.9909 26033.7 -03500.2 -07.6575 26267.9
 22 10 2013  05 07  -20.9910 26033.6 -03500.2 -07.6574 26267.9
 22 10 2013  05 08  -20.9910 26033.6 -03500.2 -07.6574 26267.8
 22 10 2013  05 09  -20.9910 26033.5 -03500.2 -07.6574 26267.8
 22 10 2013  05 10  -20.9910 26033.6 -03500.2 -07.6574 26267.9
 22 10 2013  05 11  -20.9909 26033.6 -03500.2 -07.6575 26267.9
 22 10 2013  05 12  -20.9908 26033.7 -03500.2 -07.6575 26267.9
 22 10 2013  05 13  -20.9906 26033.7 -03500.2 -07.6575 26268.0
 22 10 2013  05 14  -20.9905 26033.8 -03500.3 -07.6576 26268.0
 22 10 2013  05 15  -20.9904 26033.8 -03500.3 -07.6576 26268.1
 22 10 2013  05 16  -20.9904 26033.8 -03500.3 -07.6577 26268.1
 22 10 2013  05 17  -20.9905 26033.8 -03500.3 -07.6577 26268.1
 22 10 2013  05 18  -20.9905 26033.7 -03500.3 -07.6577 26268.0
 22 10 2013  05 19  -20.9905 26033.6 -03500.3 -07.6576 26267.9
 22 10 2013  05 20  -20.9904 26033.5 -03500.2 -07.6575 26267.8
 22 10 2013  05 21  -20.9904 26033.4 -03500.2 -07.6576 26267.7
 22 10 2013  05 22  -20.9901 26033.3 -03500.2 -07.6575 26267.6
 22 10 2013  05 23  -20.9900 26033.3 -03500.2 -07.6575 26267.5
 22 10 2013  05 24  -20.9900 26033.3 -03500.2 -07.6575 26267.5
 22 10 2013  05 25  -20.9902 26033.2 -03500.2 -07.6576 26267.5
 22 10 2013  05 26  -20.9902 26033.2 -03500.3 -07.6578 26267.5
 22 10 2013  05 27  -20.9902 26033.2 -03500.3 -07.6578 26267.5
 22 10 2013  05 28  -20.9903 26033.3 -03500.4 -07.6580 26267.6
 22 10 2013  05 29  -20.9903 26033.4 -03500.5 -07.6581 26267.7
 22 10 2013  05 30  -20.9906 26033.5 -03500.5 -07.6582 26267.8
 22 10 2013  05 31  -20.9907 26033.6 -03500.6 -07.6582 26267.9
 22 10 2013  05 32  -20.9908 26033.7 -03500.6 -07.6583 26268.0
 22 10 2013  05 33  -20.9908 26033.7 -03500.7 -07.6584 26268.1
 22 10 2013  05 34  -20.9909 26033.7 -03500.7 -07.6584 26268.0
 22 10 2013  05 35  -20.9910 26033.7 -03500.6 -07.6584 26268.0
 22 10 2013  05 36  -20.9910 26033.7 -03500.7 -07.6584 26268.0
 22 10 2013  05 37  -20.9910 26033.9 -03500.8 -07.6586 26268.3
 22 10 2013  05 38  -20.9910 26034.4 -03501.0 -07.6590 26268.7
 22 10 2013  05 39  -20.9911 26034.9 -03501.3 -07.6594 26269.3
 22 10 2013  05 40  -20.9911 26035.1 -03501.4 -07.6596 26269.5
 22 10 2013  05 41  -20.9912 26035.2 -03501.4 -07.6597 26269.6
 22 10 2013  05 42  -20.9912 26035.1 -03501.4 -07.6595 26269.5
 22 10 2013  05 43  -20.9911 26035.0 -03501.3 -07.6593 26269.4
 22 10 2013  05 44  -20.9911 26034.8 -03501.1 -07.6591 26269.2
 22 10 2013  05 45  -20.9910 26034.7 -03501.0 -07.6589 26269.0
 22 10 2013  05 46  -20.9909 26034.4 -03500.9 -07.6587 26268.7
 22 10 2013  05 47  -20.9910 26034.2 -03500.8 -07.6585 26268.5
 22 10 2013  05 48  -20.9911 26034.0 -03500.7 -07.6584 26268.3
 22 10 2013  05 49  -20.9912 26033.9 -03500.7 -07.6584 26268.2
 22 10 2013  05 50  -20.9914 26033.8 -03500.6 -07.6583 26268.1
 22 10 2013  05 51  -20.9914 26033.7 -03500.6 -07.6583 26268.0
 22 10 2013  05 52  -20.9915 26033.7 -03500.6 -07.6583 26268.0
 22 10 2013  05 53  -20.9916 26033.6 -03500.6 -07.6582 26267.9
 22 10 2013  05 54  -20.9918 26033.5 -03500.5 -07.6582 26267.8
 22 10 2013  05 55  -20.9919 26033.4 -03500.5 -07.6582 26267.7
 22 10 2013  05 56  -20.9922 26033.4 -03500.5 -07.6582 26267.7
 22 10 2013  05 57  -20.9924 26033.4 -03500.5 -07.6582 26267.6
 22 10 2013  05 58  -20.9924 26033.3 -03500.5 -07.6582 26267.6
 22 10 2013  05 59  -20.9926 26033.3 -03500.5 -07.6581 26267.6
 22 10 2013  06 00  -20.9928 26033.3 -03500.5 -07.6581 26267.5
 22 10 2013  06 01  -20.9929 26033.2 -03500.4 -07.6580 26267.5
 22 10 2013  06 02  -20.9930 26033.2 -03500.4 -07.6581 26267.5
 22 10 2013  06 03  -20.9932 26033.2 -03500.4 -07.6581 26267.4
 22 10 2013  06 04  -20.9934 26033.2 -03500.4 -07.6581 26267.4
 22 10 2013  06 05  -20.9936 26033.3 -03500.5 -07.6581 26267.5
 22 10 2013  06 06  -20.9938 26033.3 -03500.5 -07.6581 26267.6
 22 10 2013  06 07  -20.9937 26033.3 -03500.5 -07.6582 26267.6
 22 10 2013  06 08  -20.9937 26033.3 -03500.4 -07.6581 26267.6
 22 10 2013  06 09  -20.9936 26033.3 -03500.4 -07.6580 26267.6
 22 10 2013  06 10  -20.9936 26033.3 -03500.4 -07.6580 26267.5
 22 10 2013  06 11  -20.9937 26033.2 -03500.4 -07.6580 26267.4
 22 10 2013  06 12  -20.9938 26033.1 -03500.3 -07.6579 26267.4
 22 10 2013  06 13  -20.9938 26033.1 -03500.4 -07.6579 26267.4
 22 10 2013  06 14  -20.9938 26033.4 -03500.5 -07.6581 26267.7
 22 10 2013  06 15  -20.9939 26033.8 -03500.7 -07.6585 26268.1
 22 10 2013  06 16  -20.9941 26034.3 -03501.0 -07.6590 26268.6
 22 10 2013  06 17  -20.9940 26034.8 -03501.3 -07.6594 26269.2
 22 10 2013  06 18  -20.9940 26035.3 -03501.5 -07.6598 26269.8
 22 10 2013  06 19  -20.9940 26035.6 -03501.7 -07.6600 26270.1
 22 10 2013  06 20  -20.9939 26035.8 -03501.7 -07.6600 26270.2
 22 10 2013  06 21  -20.9938 26035.7 -03501.6 -07.6599 26270.1
 22 10 2013  06 22  -20.9937 26035.4 -03501.4 -07.6595 26269.8
 22 10 2013  06 23  -20.9937 26035.1 -03501.1 -07.6590 26269.4
 22 10 2013  06 24  -20.9936 26034.8 -03500.9 -07.6587 26269.1
 22 10 2013  06 25  -20.9933 26034.5 -03500.8 -07.6585 26268.8
 22 10 2013  06 26  -20.9933 26034.2 -03500.7 -07.6584 26268.5
 22 10 2013  06 27  -20.9933 26033.9 -03500.5 -07.6581 26268.2
 22 10 2013  06 28  -20.9932 26033.7 -03500.5 -07.6580 26268.0
 22 10 2013  06 29  -20.9933 26033.5 -03500.4 -07.6580 26267.8
 22 10 2013  06 30  -20.9934 26033.3 -03500.4 -07.6579 26267.6
 22 10 2013  06 31  -20.9933 26033.2 -03500.4 -07.6580 26267.5
 22 10 2013  06 32  -20.9933 26033.2 -03500.4 -07.6580 26267.5
 22 10 2013  06 33  -20.9933 26033.2 -03500.5 -07.6581 26267.5
 22 10 2013  06 34  -20.9934 26033.2 -03500.5 -07.6583 26267.5
 22 10 2013  06 35  -20.9934 26033.3 -03500.6 -07.6584 26267.6
 22 10 2013  06 36  -20.9936 26033.3 -03500.7 -07.6585 26267.6
 22 10 2013  06 37  -20.9936 26033.3 -03500.7 -07.6586 26267.7
 22 10 2013  06 38  -20.9937 26033.3 -03500.8 -07.6587 26267.7
 22 10 2013  06 39  -20.9937 26033.4 -03500.8 -07.6588 26267.7
 22 10 2013  06 40  -20.9938 26033.3 -03500.8 -07.6588 26267.6
 22 10 2013  06 41  -20.9939 26033.3 -03500.8 -07.6587 26267.6
 22 10 2013  06 42  -20.9938 26033.3 -03500.8 -07.6587 26267.6
 22 10 2013  06 43  -20.9940 26033.2 -03500.8 -07.6588 26267.5
 22 10 2013  06 44  -20.9941 26033.1 -03500.8 -07.6588 26267.4
 22 10 2013  06 45  -20.9942 26033.0 -03500.7 -07.6587 26267.3
 22 10 2013  06 46  -20.9943 26032.9 -03500.6 -07.6586 26267.2
 22 10 2013  06 47  -20.9943 26032.9 -03500.7 -07.6587 26267.2
 22 10 2013  06 48  -20.9944 26032.9 -03500.7 -07.6587 26267.3
 22 10 2013  06 49  -20.9944 26032.9 -03500.7 -07.6588 26267.2
 22 10 2013  06 50  -20.9944 26032.8 -03500.7 -07.6587 26267.1
 22 10 2013  06 51  -20.9943 26032.8 -03500.7 -07.6588 26267.1
 22 10 2013  06 52  -20.9944 26032.7 -03500.7 -07.6588 26267.0
 22 10 2013  06 53  -20.9945 26032.7 -03500.7 -07.6587 26267.0
 22 10 2013  06 54  -20.9946 26032.6 -03500.7 -07.6588 26267.0
 22 10 2013  06 55  -20.9946 26032.7 -03500.7 -07.6588 26267.0
 22 10 2013  06 56  -20.9946 26032.8 -03500.8 -07.6589 26267.1
 22 10 2013  06 57  -20.9947 26032.7 -03500.8 -07.6589 26267.1
 22 10 2013  06 58  -20.9946 26032.8 -03500.8 -07.6591 26267.1
 22 10 2013  06 59  -20.9942 26033.0 -03500.9 -07.6592 26267.3
 22 10 2013  07 00  -20.9941 26033.0 -03501.0 -07.6593 26267.4
 22 10 2013  07 01  -20.9942 26033.0 -03501.0 -07.6593 26267.4
 22 10 2013  07 02  -20.9941 26032.9 -03500.9 -07.6592 26267.3
 22 10 2013  07 03  -20.9941 26032.9 -03500.9 -07.6592 26267.2
 22 10 2013  07 04  -20.9942 26032.9 -03500.9 -07.6593 26267.2
 22 10 2013  07 05  -20.9942 26032.9 -03501.0 -07.6593 26267.2
 22 10 2013  07 06  -20.9942 26033.0 -03501.0 -07.6594 26267.3
 22 10 2013  07 07  -20.9943 26033.1 -03501.1 -07.6595 26267.4
 22 10 2013  07 08  -20.9943 26033.1 -03501.1 -07.6596 26267.5
 22 10 2013  07 09  -20.9942 26033.2 -03501.2 -07.6596 26267.6
 22 10 2013  07 10  -20.9941 26033.2 -03501.2 -07.6597 26267.6
 22 10 2013  07 11  -20.9941 26033.3 -03501.2 -07.6598 26267.7
 22 10 2013  07 12  -20.9942 26033.3 -03501.3 -07.6599 26267.7
 22 10 2013  07 13  -20.9941 26033.4 -03501.3 -07.6600 26267.8
 22 10 2013  07 14  -20.9941 26033.4 -03501.3 -07.6599 26267.8
 22 10 2013  07 15  -20.9942 26033.4 -03501.3 -07.6600 26267.8
 22 10 2013  07 16  -20.9943 26033.4 -03501.4 -07.6600 26267.8
 22 10 2013  07 17  -20.9943 26033.4 -03501.4 -07.6600 26267.8
 22 10 2013  07 18  -20.9943 26033.4 -03501.4 -07.6601 26267.8
 22 10 2013  07 19  -20.9943 26033.4 -03501.4 -07.6600 26267.8
 22 10 2013  07 20  -20.9943 26033.2 -03501.4 -07.6601 26267.7
 22 10 2013  07 21  -20.9942 26033.2 -03501.4 -07.6600 26267.6
 22 10 2013  07 22  -20.9941 26033.3 -03501.4 -07.6601 26267.7
 22 10 2013  07 23  -20.9941 26033.3 -03501.4 -07.6602 26267.7
 22 10 2013  07 24  -20.9940 26033.3 -03501.5 -07.6602 26267.7
 22 10 2013  07 25  -20.9941 26033.4 -03501.5 -07.6603 26267.8
 22 10 2013  07 26  -20.9941 26033.4 -03501.5 -07.6603 26267.8
 22 10 2013  07 27  -20.9940 26033.4 -03501.5 -07.6603 26267.8
 22 10 2013  07 28  -20.9939 26033.4 -03501.5 -07.6603 26267.8
 22 10 2013  07 29  -20.9938 26033.4 -03501.5 -07.6603 26267.8
 22 10 2013  07 30  -20.9936 26033.4 -03501.5 -07.6603 26267.8
 22 10 2013  07 31  -20.9937 26033.4 -03501.5 -07.6603 26267.9
 22 10 2013  07 32  -20.9936 26033.6 -03501.6 -07.6604 26268.0
 22 10 2013  07 33  -20.9936 26033.7 -03501.6 -07.6605 26268.1
 22 10 2013  07 34  -20.9935 26033.8 -03501.8 -07.6607 26268.3
 22 10 2013  07 35  -20.9934 26033.9 -03501.8 -07.6608 26268.4
 22 10 2013  07 36  -20.9934 26034.0 -03501.8 -07.6609 26268.5
 22 10 2013  07 37  -20.9932 26034.1 -03501.9 -07.6609 26268.6
 22 10 2013  07 38  -20.9930 26034.4 -03502.0 -07.6611 26268.9
 22 10 2013  07 39  -20.9928 26034.8 -03502.2 -07.6614 26269.3
 22 10 2013  07 40  -20.9927 26035.2 -03502.4 -07.6617 26269.7
 22 10 2013  07 41  -20.9928 26035.7 -03502.6 -07.6621 26270.2
 22 10 2013  07 42  -20.9928 26036.1 -03502.9 -07.6625 26270.7
 22 10 2013  07 43  -20.9926 26036.6 -03503.1 -07.6628 26271.2
 22 10 2013  07 44  -20.9921 26036.9 -03503.2 -07.6630 26271.5
 22 10 2013  07 45  -20.9916 26037.2 -03503.3 -07.6632 26271.8
 22 10 2013  07 46  -20.9910 26037.3 -03503.4 -07.6632 26272.0
 22 10 2013  07 47  -20.9900 26037.4 -03503.3 -07.6631 26272.0
 22 10 2013  07 48  -20.9891 26037.3 -03503.3 -07.6630 26271.9
 22 10 2013  07 49  -20.9884 26037.0 -03503.1 -07.6627 26271.6
 22 10 2013  07 50  -20.9878 26036.5 -03502.8 -07.6623 26271.1
 22 10 2013  07 51  -20.9877 26035.9 -03502.5 -07.6618 26270.4
 22 10 2013  07 52  -20.9878 26035.3 -03502.2 -07.6613 26269.8
 22 10 2013  07 53  -20.9877 26035.0 -03502.0 -07.6610 26269.5
 22 10 2013  07 54  -20.9876 26035.3 -03502.1 -07.6611 26269.8
 22 10 2013  07 55  -20.9879 26036.0 -03502.5 -07.6617 26270.5
 22 10 2013  07 56  -20.9873 26036.4 -03502.8 -07.6623 26271.0
 22 10 2013  07 57  -20.9861 26036.8 -03503.0 -07.6626 26271.4
 22 10 2013  07 58  -20.9858 26037.3 -03503.3 -07.6631 26271.9
 22 10 2013  07 59  -20.9853 26037.8 -03503.6 -07.6636 26272.5
 22 10 2013  08 00  -20.9844 26037.3 -03503.5 -07.6634 26271.9
 22 10 2013  08 01  -20.9832 26035.7 -03502.6 -07.6620 26270.2
 22 10 2013  08 02  -20.9830 26033.8 -03501.6 -07.6603 26268.2
 22 10 2013  08 03  -20.9837 26032.2 -03500.8 -07.6591 26266.5
 22 10 2013  08 04  -20.9848 26031.3 -03500.4 -07.6586 26265.6
 22 10 2013  08 05  -20.9858 26030.9 -03500.4 -07.6586 26265.2
 22 10 2013  08 06  -20.9859 26030.9 -03500.5 -07.6589 26265.2
 22 10 2013  08 07  -20.9853 26030.9 -03500.6 -07.6592 26265.3
 22 10 2013  08 08  -20.9848 26031.1 -03500.8 -07.6595 26265.4
 22 10 2013  08 09  -20.9845 26031.1 -03501.0 -07.6598 26265.5
 22 10 2013  08 10  -20.9845 26031.1 -03501.1 -07.6600 26265.5
 22 10 2013  08 11  -20.9845 26031.3 -03501.2 -07.6603 26265.7
 22 10 2013  08 12  -20.9843 26031.4 -03501.3 -07.6605 26265.8
 22 10 2013  08 13  -20.9840 26031.5 -03501.4 -07.6607 26265.9
 22 10 2013  08 14  -20.9838 26031.6 -03501.5 -07.6608 26266.1
 22 10 2013  08 15  -20.9835 26031.5 -03501.5 -07.6608 26265.9
 22 10 2013  08 16  -20.9831 26031.1 -03501.3 -07.6605 26265.5
 22 10 2013  08 17  -20.9828 26030.6 -03501.0 -07.6601 26265.0
 22 10 2013  08 18  -20.9827 26030.2 -03500.8 -07.6597 26264.6
 22 10 2013  08 19  -20.9829 26030.0 -03500.7 -07.6596 26264.4
 22 10 2013  08 20  -20.9831 26030.0 -03500.7 -07.6596 26264.3
 22 10 2013  08 21  -20.9830 26029.8 -03500.7 -07.6596 26264.2
 22 10 2013  08 22  -20.9825 26029.7 -03500.6 -07.6594 26264.1
 22 10 2013  08 23  -20.9822 26029.6 -03500.6 -07.6594 26263.9
 22 10 2013  08 24  -20.9818 26029.3 -03500.5 -07.6593 26263.7
 22 10 2013  08 25  -20.9813 26029.4 -03500.5 -07.6593 26263.7
 22 10 2013  08 26  -20.9810 26029.4 -03500.6 -07.6595 26263.8
 22 10 2013  08 27  -20.9807 26029.6 -03500.8 -07.6598 26263.9
 22 10 2013  08 28  -20.9799 26029.8 -03500.9 -07.6601 26264.1
 22 10 2013  08 29  -20.9788 26029.8 -03501.0 -07.6603 26264.2
 22 10 2013  08 30  -20.9776 26029.8 -03501.1 -07.6605 26264.2
 22 10 2013  08 31  -20.9766 26030.4 -03501.5 -07.6613 26264.9
 22 10 2013  08 32  -20.9759 26031.8 -03502.4 -07.6627 26266.3
 22 10 2013  08 33  -20.9748 26033.1 -03503.3 -07.6643 26267.8
 22 10 2013  08 34  -20.9730 26034.1 -03503.9 -07.6653 26268.8
 22 10 2013  08 35  -20.9713 26034.6 -03504.3 -07.6660 26269.4
 22 10 2013  08 36  -20.9700 26034.3 -03504.4 -07.6662 26269.1
 22 10 2013  08 37  -20.9676 26031.1 -03503.0 -07.6642 26265.7
 22 10 2013  08 38  -20.9667 26028.1 -03501.5 -07.6618 26262.6
 22 10 2013  08 39  -20.9678 26025.9 -03500.5 -07.6603 26260.2
 22 10 2013  08 40  -20.9704 26024.8 -03500.3 -07.6602 26259.2
 22 10 2013  08 41  -20.9729 26024.3 -03500.5 -07.6609 26258.7
 22 10 2013  08 42  -20.9734 26024.1 -03500.8 -07.6614 26258.6
 22 10 2013  08 43  -20.9716 26024.1 -03501.4 -07.6627 26258.6
 22 10 2013  08 44  -20.9697 26024.2 -03501.9 -07.6637 26258.8
 22 10 2013  08 45  -20.9687 26024.5 -03502.4 -07.6649 26259.2
 22 10 2013  08 46  -20.9686 26025.0 -03503.0 -07.6660 26259.7
 22 10 2013  08 47  -20.9695 26025.8 -03503.8 -07.6675 26260.6
 22 10 2013  08 48  -20.9708 26027.0 -03504.6 -07.6690 26261.9
 22 10 2013  08 49  -20.9717 26028.3 -03505.5 -07.6705 26263.3
 22 10 2013  08 50  -20.9724 26029.5 -03506.3 -07.6718 26264.6
 22 10 2013  08 51  -20.9730 26030.6 -03507.0 -07.6729 26265.8
 22 10 2013  08 52  -20.9739 26031.8 -03507.6 -07.6739 26267.1
 22 10 2013  08 53  -20.9730 26032.1 -03507.7 -07.6742 26267.4
 22 10 2013  08 54  -20.9710 26031.8 -03507.5 -07.6737 26267.0
 22 10 2013  08 55  -20.9712 26031.8 -03507.5 -07.6736 26267.1
 22 10 2013  08 56  -20.9727 26031.7 -03507.3 -07.6734 26266.9
 22 10 2013  08 57  -20.9734 26031.3 -03507.1 -07.6730 26266.5
 22 10 2013  08 58  -20.9732 26030.5 -03506.7 -07.6724 26265.7
 22 10 2013  08 59  -20.9728 26029.7 -03506.4 -07.6719 26264.8
 22 10 2013  09 00  -20.9735 26029.2 -03506.2 -07.6717 26264.3
 22 10 2013  09 01  -20.9749 26029.3 -03506.4 -07.6721 26264.4
 22 10 2013  09 02  -20.9757 26029.3 -03506.6 -07.6725 26264.4
 22 10 2013  09 03  -20.9765 26029.4 -03506.7 -07.6728 26264.5
 22 10 2013  09 04  -20.9772 26029.0 -03506.8 -07.6730 26264.2
 22 10 2013  09 05  -20.9773 26028.9 -03506.9 -07.6734 26264.1
 22 10 2013  09 06  -20.9774 26028.7 -03507.2 -07.6739 26264.0
 22 10 2013  09 07  -20.9766 26027.9 -03507.0 -07.6739 26263.1
 22 10 2013  09 08  -20.9770 26027.5 -03507.0 -07.6739 26262.8
 22 10 2013  09 09  -20.9787 26027.6 -03507.1 -07.6741 26262.8
 22 10 2013  09 10  -20.9815 26028.8 -03507.7 -07.6750 26264.1
 22 10 2013  09 11  -20.9821 26029.4 -03508.2 -07.6759 26264.8
 22 10 2013  09 12  -20.9769 26028.6 -03507.7 -07.6751 26263.9
 22 10 2013  09 13  -20.9716 26027.8 -03507.9 -07.6757 26263.2
 22 10 2013  09 14  -20.9730 26028.7 -03508.7 -07.6772 26264.2
 22 10 2013  09 15  -20.9761 26030.0 -03509.6 -07.6788 26265.5
 22 10 2013  09 16  -20.9782 26030.9 -03510.0 -07.6793 26266.5
 22 10 2013  09 17  -20.9793 26031.0 -03509.9 -07.6791 26266.5
 22 10 2013  09 18  -20.9826 26031.2 -03509.8 -07.6789 26266.7
 22 10 2013  09 19  -20.9878 26032.0 -03509.9 -07.6790 26267.6
 22 10 2013  09 20  -20.9913 26033.2 -03510.1 -07.6790 26268.8
 22 10 2013  09 21  -20.9882 26033.1 -03509.7 -07.6781 26268.6
 22 10 2013  09 22  -20.9828 26032.2 -03509.2 -07.6773 26267.7
 22 10 2013  09 23  -20.9782 26031.6 -03509.2 -07.6776 26267.1
 22 10 2013  09 24  -20.9779 26032.3 -03510.0 -07.6789 26267.9
 22 10 2013  09 25  -20.9797 26033.8 -03510.9 -07.6805 26269.4
 22 10 2013  09 26  -20.9814 26034.8 -03511.4 -07.6814 26270.5
 22 10 2013  09 27  -20.9830 26035.8 -03511.8 -07.6819 26271.6
 22 10 2013  09 28  -20.9854 26036.3 -03511.9 -07.6819 26272.1
 22 10 2013  09 29  -20.9867 26036.4 -03511.7 -07.6815 26272.1
 22 10 2013  09 30  -20.9870 26035.9 -03511.3 -07.6808 26271.6
 22 10 2013  09 31  -20.9863 26034.8 -03510.7 -07.6798 26270.4
 22 10 2013  09 32  -20.9874 26034.3 -03510.4 -07.6793 26269.9
 22 10 2013  09 33  -20.9896 26034.1 -03510.3 -07.6791 26269.7
 22 10 2013  09 34  -20.9900 26034.1 -03510.3 -07.6791 26269.6
 22 10 2013  09 35  -20.9878 26033.8 -03510.3 -07.6793 26269.4
 22 10 2013  09 36  -20.9848 26033.4 -03510.3 -07.6793 26269.0
 22 10 2013  09 37  -20.9862 26034.2 -03510.9 -07.6804 26269.8
 22 10 2013  09 38  -20.9859 26034.6 -03511.2 -07.6810 26270.4
 22 10 2013  09 39  -20.9856 26034.9 -03511.4 -07.6814 26270.6
 22 10 2013  09 40  -20.9858 26035.3 -03511.7 -07.6817 26271.0
 22 10 2013  09 41  -20.9869 26035.8 -03511.9 -07.6820 26271.6
 22 10 2013  09 42  -20.9885 26036.3 -03512.0 -07.6822 26272.1
 22 10 2013  09 43  -20.9898 26036.6 -03512.0 -07.6822 26272.4
 22 10 2013  09 44  -20.9903 26036.8 -03512.0 -07.6821 26272.6
 22 10 2013  09 45  -20.9913 26037.1 -03512.1 -07.6820 26272.9
 22 10 2013  09 46  -20.9926 26037.8 -03512.2 -07.6822 26273.6
 22 10 2013  09 47  -20.9931 26037.8 -03512.1 -07.6821 26273.6
 22 10 2013  09 48  -20.9927 26037.7 -03512.1 -07.6819 26273.5
 22 10 2013  09 49  -20.9919 26037.3 -03511.9 -07.6817 26273.1
 22 10 2013  09 50  -20.9920 26037.4 -03512.0 -07.6819 26273.2
 22 10 2013  09 51  -20.9932 26037.7 -03512.1 -07.6821 26273.5
 22 10 2013  09 52  -20.9939 26037.6 -03512.1 -07.6819 26273.4
 22 10 2013  09 53  -20.9937 26037.3 -03511.9 -07.6817 26273.1
 22 10 2013  09 54  -20.9935 26037.5 -03512.0 -07.6818 26273.3
 22 10 2013  09 55  -20.9948 26038.0 -03512.2 -07.6821 26273.8
 22 10 2013  09 56  -20.9958 26038.1 -03512.3 -07.6822 26273.9
 22 10 2013  09 57  -20.9956 26037.6 -03511.9 -07.6817 26273.3
 22 10 2013  09 58  -20.9954 26037.2 -03511.7 -07.6813 26273.0
 22 10 2013  09 59  -20.9953 26037.0 -03511.6 -07.6812 26272.7
 22 10 2013  10 00  -20.9964 26037.8 -03511.9 -07.6816 26273.6
 22 10 2013  10 01  -20.9971 26039.0 -03512.4 -07.6823 26274.8
 22 10 2013  10 02  -20.9974 26039.8 -03512.7 -07.6828 26275.6
 22 10 2013  10 03  -20.9977 26040.0 -03512.8 -07.6828 26275.9
 22 10 2013  10 04  -20.9985 26040.1 -03512.7 -07.6826 26276.0
 22 10 2013  10 05  -20.9996 26040.1 -03512.6 -07.6824 26276.0
 22 10 2013  10 06  -21.0006 26040.4 -03512.6 -07.6823 26276.2
 22 10 2013  10 07  -21.0007 26040.1 -03512.5 -07.6821 26276.0
 22 10 2013  10 08  -21.0009 26039.7 -03512.3 -07.6819 26275.5
 22 10 2013  10 09  -21.0006 26038.8 -03512.0 -07.6815 26274.6
 22 10 2013  10 10  -21.0004 26038.0 -03511.7 -07.6811 26273.7
 22 10 2013  10 11  -21.0007 26037.6 -03511.8 -07.6814 26273.4
 22 10 2013  10 12  -21.0005 26037.4 -03511.9 -07.6816 26273.1
 22 10 2013  10 13  -21.0011 26037.6 -03512.2 -07.6822 26273.4
 22 10 2013  10 14  -21.0023 26038.6 -03512.7 -07.6831 26274.5
 22 10 2013  10 15  -21.0025 26039.3 -03513.1 -07.6837 26275.2
 22 10 2013  10 16  -21.0020 26039.7 -03513.2 -07.6838 26275.6
 22 10 2013  10 17  -21.0018 26039.8 -03513.2 -07.6837 26275.7
 22 10 2013  10 18  -21.0013 26039.8 -03513.2 -07.6837 26275.7
 22 10 2013  10 19  -21.0017 26040.0 -03513.3 -07.6840 26275.9
 22 10 2013  10 20  -21.0035 26040.5 -03513.6 -07.6844 26276.5
 22 10 2013  10 21  -21.0051 26041.1 -03513.9 -07.6848 26277.1
 22 10 2013  10 22  -21.0051 26041.4 -03514.0 -07.6849 26277.4
 22 10 2013  10 23  -21.0059 26042.0 -03514.2 -07.6852 26278.0
 22 10 2013  10 24  -21.0063 26042.3 -03514.2 -07.6852 26278.4
 22 10 2013  10 25  -21.0071 26042.7 -03514.2 -07.6851 26278.7
 22 10 2013  10 26  -21.0067 26043.0 -03514.3 -07.6853 26279.0
 22 10 2013  10 27  -21.0072 26043.7 -03514.6 -07.6857 26279.8
 22 10 2013  10 28  -21.0075 26044.3 -03514.8 -07.6858 26280.4
 22 10 2013  10 29  -21.0087 26045.1 -03515.0 -07.6861 26281.3
 22 10 2013  10 30  -21.0089 26045.8 -03515.2 -07.6863 26281.9
 22 10 2013  10 31  -21.0084 26046.0 -03515.1 -07.6860 26282.1
 22 10 2013  10 32  -21.0083 26046.2 -03515.0 -07.6858 26282.3
 22 10 2013  10 33  -21.0083 26046.2 -03514.9 -07.6855 26282.3
 22 10 2013  10 34  -21.0088 26046.5 -03514.9 -07.6855 26282.6
 22 10 2013  10 35  -21.0100 26046.8 -03514.9 -07.6853 26282.8
 22 10 2013  10 36  -21.0113 26047.3 -03514.8 -07.6851 26283.3
 22 10 2013  10 37  -21.0108 26047.4 -03514.7 -07.6847 26283.4
 22 10 2013  10 38  -21.0108 26047.2 -03514.5 -07.6843 26283.2
 22 10 2013  10 39  -21.0143 26047.0 -03514.3 -07.6840 26283.0
 22 10 2013  10 40  -21.0164 26047.0 -03514.1 -07.6837 26283.0
 22 10 2013  10 41  -21.0165 26046.7 -03513.8 -07.6831 26282.7
 22 10 2013  10 42  -21.0162 26046.8 -03513.7 -07.6829 26282.8
 22 10 2013  10 43  -21.0160 26046.9 -03513.7 -07.6827 26282.8
 22 10 2013  10 44  -21.0161 26047.1 -03513.7 -07.6827 26283.0
 22 10 2013  10 45  -21.0158 26047.2 -03513.7 -07.6826 26283.2
 22 10 2013  10 46  -21.0153 26047.7 -03513.8 -07.6827 26283.6
 22 10 2013  10 47  -21.0152 26048.1 -03513.9 -07.6829 26284.0
 22 10 2013  10 48  -21.0156 26048.3 -03514.0 -07.6830 26284.3
 22 10 2013  10 49  -21.0163 26048.8 -03514.1 -07.6831 26284.8
 22 10 2013  10 50  -21.0166 26049.2 -03514.1 -07.6830 26285.2
 22 10 2013  10 51  -21.0167 26049.6 -03514.1 -07.6829 26285.6
 22 10 2013  10 52  -21.0168 26049.9 -03514.1 -07.6827 26285.9
 22 10 2013  10 53  -21.0168 26050.2 -03514.1 -07.6826 26286.2
 22 10 2013  10 54  -21.0169 26050.5 -03514.0 -07.6823 26286.5
 22 10 2013  10 55  -21.0172 26051.0 -03514.0 -07.6823 26286.9
 22 10 2013  10 56  -21.0182 26051.6 -03514.2 -07.6825 26287.6
 22 10 2013  10 57  -21.0194 26052.1 -03514.3 -07.6824 26288.1
 22 10 2013  10 58  -21.0198 26052.6 -03514.3 -07.6823 26288.6
 22 10 2013  10 59  -21.0198 26052.8 -03514.1 -07.6820 26288.7
 22 10 2013  11 00  -21.0198 26053.0 -03514.0 -07.6817 26288.9
 22 10 2013  11 01  -21.0196 26053.1 -03514.0 -07.6815 26289.0
 22 10 2013  11 02  -21.0195 26053.3 -03513.8 -07.6811 26289.2
 22 10 2013  11 03  -21.0196 26053.6 -03513.7 -07.6807 26289.5
 22 10 2013  11 04  -21.0199 26053.6 -03513.4 -07.6802 26289.5
 22 10 2013  11 05  -21.0202 26053.8 -03513.3 -07.6799 26289.7
 22 10 2013  11 06  -21.0204 26054.2 -03513.2 -07.6796 26290.0
 22 10 2013  11 07  -21.0210 26054.4 -03513.2 -07.6794 26290.2
 22 10 2013  11 08  -21.0218 26054.9 -03513.1 -07.6792 26290.7
 22 10 2013  11 09  -21.0223 26055.3 -03513.1 -07.6790 26291.1
 22 10 2013  11 10  -21.0225 26055.6 -03513.0 -07.6787 26291.3
 22 10 2013  11 11  -21.0228 26055.9 -03512.9 -07.6785 26291.7
 22 10 2013  11 12  -21.0234 26056.1 -03512.8 -07.6782 26291.9
 22 10 2013  11 13  -21.0237 26056.4 -03512.8 -07.6780 26292.1
 22 10 2013  11 14  -21.0243 26056.8 -03512.8 -07.6780 26292.5
 22 10 2013  11 15  -21.0252 26057.0 -03512.7 -07.6776 26292.7
 22 10 2013  11 16  -21.0256 26057.3 -03512.6 -07.6773 26293.0
 22 10 2013  11 17  -21.0261 26057.8 -03512.5 -07.6770 26293.4
 22 10 2013  11 18  -21.0266 26058.1 -03512.4 -07.6766 26293.7
 22 10 2013  11 19  -21.0272 26058.4 -03512.3 -07.6763 26294.1
 22 10 2013  11 20  -21.0278 26058.5 -03512.1 -07.6758 26294.1
 22 10 2013  11 21  -21.0286 26058.6 -03511.9 -07.6755 26294.1
 22 10 2013  11 22  -21.0295 26058.9 -03511.9 -07.6754 26294.5
 22 10 2013  11 23  -21.0301 26059.3 -03511.9 -07.6752 26294.8
 22 10 2013  11 24  -21.0305 26059.6 -03511.8 -07.6750 26295.1
 22 10 2013  11 25  -21.0311 26060.3 -03511.8 -07.6748 26295.8
 22 10 2013  11 26  -21.0318 26060.9 -03511.8 -07.6747 26296.5
 22 10 2013  11 27  -21.0324 26061.5 -03511.7 -07.6743 26297.0
 22 10 2013  11 28  -21.0329 26061.9 -03511.6 -07.6739 26297.4
 22 10 2013  11 29  -21.0338 26062.3 -03511.5 -07.6736 26297.8
 22 10 2013  11 30  -21.0348 26062.9 -03511.5 -07.6733 26298.4
 22 10 2013  11 31  -21.0353 26063.7 -03511.5 -07.6731 26299.2
 22 10 2013  11 32  -21.0355 26064.3 -03511.4 -07.6728 26299.8
 22 10 2013  11 33  -21.0355 26065.0 -03511.3 -07.6723 26300.4
 22 10 2013  11 34  -21.0355 26065.4 -03511.1 -07.6717 26300.8
 22 10 2013  11 35  -21.0359 26066.0 -03510.9 -07.6712 26301.3
 22 10 2013  11 36  -21.0365 26066.7 -03510.9 -07.6708 26302.1
 22 10 2013  11 37  -21.0369 26067.3 -03510.7 -07.6703 26302.6
 22 10 2013  11 38  -21.0369 26067.8 -03510.5 -07.6697 26303.1
 22 10 2013  11 39  -21.0369 26068.2 -03510.3 -07.6692 26303.5
 22 10 2013  11 40  -21.0365 26068.7 -03510.2 -07.6688 26303.9
 22 10 2013  11 41  -21.0364 26069.1 -03510.0 -07.6684 26304.3
 22 10 2013  11 42  -21.0366 26069.5 -03510.0 -07.6681 26304.8
 22 10 2013  11 43  -21.0371 26070.1 -03510.0 -07.6680 26305.3
 22 10 2013  11 44  -21.0379 26070.7 -03510.0 -07.6678 26306.0
 22 10 2013  11 45  -21.0386 26071.4 -03510.0 -07.6677 26306.7
 22 10 2013  11 46  -21.0387 26072.1 -03510.0 -07.6674 26307.3
 22 10 2013  11 47  -21.0389 26072.9 -03510.0 -07.6672 26308.1
 22 10 2013  11 48  -21.0390 26073.5 -03509.9 -07.6668 26308.6
 22 10 2013  11 49  -21.0392 26073.8 -03509.7 -07.6663 26308.9
 22 10 2013  11 50  -21.0395 26074.0 -03509.5 -07.6658 26309.1
 22 10 2013  11 51  -21.0397 26074.2 -03509.3 -07.6653 26309.3
 22 10 2013  11 52  -21.0399 26074.5 -03509.1 -07.6649 26309.5
 22 10 2013  11 53  -21.0405 26074.8 -03509.1 -07.6647 26309.9
 22 10 2013  11 54  -21.0410 26075.3 -03509.1 -07.6644 26310.4
 22 10 2013  11 55  -21.0415 26075.7 -03508.9 -07.6641 26310.7
 22 10 2013  11 56  -21.0420 26075.9 -03508.8 -07.6636 26310.9
 22 10 2013  11 57  -21.0421 26076.0 -03508.6 -07.6632 26311.0
 22 10 2013  11 58  -21.0422 26076.2 -03508.4 -07.6628 26311.1
 22 10 2013  11 59  -21.0425 26076.5 -03508.3 -07.6626 26311.4
 22 10 2013  12 00  -21.0428 26077.0 -03508.4 -07.6625 26312.0
 22 10 2013  12 01  -21.0429 26077.5 -03508.4 -07.6624 26312.5
 22 10 2013  12 02  -21.0430 26078.1 -03508.4 -07.6621 26313.0
 22 10 2013  12 03  -21.0429 26078.6 -03508.2 -07.6618 26313.5
 22 10 2013  12 04  -21.0429 26078.9 -03508.1 -07.6613 26313.8
 22 10 2013  12 05  -21.0429 26079.2 -03507.9 -07.6609 26314.0
 22 10 2013  12 06  -21.0432 26079.9 -03508.0 -07.6608 26314.8
 22 10 2013  12 07  -21.0432 26080.4 -03507.9 -07.6605 26315.3
 22 10 2013  12 08  -21.0429 26080.7 -03507.7 -07.6599 26315.5
 22 10 2013  12 09  -21.0428 26080.9 -03507.5 -07.6594 26315.7
 22 10 2013  12 10  -21.0430 26081.2 -03507.3 -07.6590 26316.0
 22 10 2013  12 11  -21.0435 26081.6 -03507.3 -07.6588 26316.4
 22 10 2013  12 12  -21.0441 26082.1 -03507.2 -07.6586 26316.9
 22 10 2013  12 13  -21.0443 26082.7 -03507.2 -07.6584 26317.4
 22 10 2013  12 14  -21.0444 26083.4 -03507.2 -07.6582 26318.1
 22 10 2013  12 15  -21.0442 26084.2 -03507.3 -07.6580 26318.9
 22 10 2013  12 16  -21.0441 26084.7 -03507.1 -07.6575 26319.4
 22 10 2013  12 17  -21.0439 26085.0 -03506.9 -07.6569 26319.7
 22 10 2013  12 18  -21.0435 26085.5 -03506.7 -07.6564 26320.2
 22 10 2013  12 19  -21.0432 26085.8 -03506.5 -07.6558 26320.4
 22 10 2013  12 20  -21.0431 26086.1 -03506.3 -07.6553 26320.7
 22 10 2013  12 21  -21.0429 26086.3 -03506.1 -07.6549 26320.9
 22 10 2013  12 22  -21.0426 26086.6 -03506.0 -07.6546 26321.2
 22 10 2013  12 23  -21.0423 26087.4 -03506.1 -07.6545 26321.9
 22 10 2013  12 24  -21.0421 26087.9 -03506.0 -07.6543 26322.5
 22 10 2013  12 25  -21.0415 26088.4 -03505.9 -07.6539 26322.9
 22 10 2013  12 26  -21.0409 26088.8 -03505.8 -07.6536 26323.3
 22 10 2013  12 27  -21.0403 26089.2 -03505.7 -07.6532 26323.6
 22 10 2013  12 28  -21.0396 26089.2 -03505.4 -07.6527 26323.6
 22 10 2013  12 29  -21.0390 26089.5 -03505.4 -07.6524 26324.0
 22 10 2013  12 30  -21.0386 26089.8 -03505.3 -07.6522 26324.3
 22 10 2013  12 31  -21.0379 26090.0 -03505.3 -07.6520 26324.4
 22 10 2013  12 32  -21.0374 26090.5 -03505.3 -07.6520 26324.9
 22 10 2013  12 33  -21.0368 26090.6 -03505.2 -07.6518 26325.0
 22 10 2013  12 34  -21.0363 26091.1 -03505.3 -07.6518 26325.5
 22 10 2013  12 35  -21.0361 26091.8 -03505.4 -07.6518 26326.2
 22 10 2013  12 36  -21.0359 26092.3 -03505.3 -07.6515 26326.7
 22 10 2013  12 37  -21.0354 26092.8 -03505.3 -07.6513 26327.2
 22 10 2013  12 38  -21.0348 26093.1 -03505.1 -07.6508 26327.4
 22 10 2013  12 39  -21.0343 26093.2 -03504.9 -07.6503 26327.5
 22 10 2013  12 40  -21.0338 26093.2 -03504.7 -07.6499 26327.5
 22 10 2013  12 41  -21.0334 26093.5 -03504.6 -07.6497 26327.8
 22 10 2013  12 42  -21.0329 26094.0 -03504.6 -07.6495 26328.3
 22 10 2013  12 43  -21.0323 26094.5 -03504.6 -07.6493 26328.8
 22 10 2013  12 44  -21.0317 26095.0 -03504.5 -07.6490 26329.3
 22 10 2013  12 45  -21.0309 26095.3 -03504.4 -07.6486 26329.5
 22 10 2013  12 46  -21.0302 26095.7 -03504.3 -07.6483 26330.0
 22 10 2013  12 47  -21.0297 26096.3 -03504.3 -07.6482 26330.6
 22 10 2013  12 48  -21.0294 26096.9 -03504.3 -07.6479 26331.1
 22 10 2013  12 49  -21.0292 26097.5 -03504.2 -07.6476 26331.7
 22 10 2013  12 50  -21.0288 26097.7 -03504.0 -07.6471 26331.9
 22 10 2013  12 51  -21.0282 26098.1 -03503.9 -07.6467 26332.3
 22 10 2013  12 52  -21.0279 26098.3 -03503.7 -07.6461 26332.4
 22 10 2013  12 53  -21.0276 26098.5 -03503.5 -07.6457 26332.6
 22 10 2013  12 54  -21.0274 26099.0 -03503.4 -07.6454 26333.0
 22 10 2013  12 55  -21.0271 26098.9 -03503.2 -07.6449 26333.0
 22 10 2013  12 56  -21.0265 26098.8 -03502.9 -07.6444 26332.9
 22 10 2013  12 57  -21.0261 26099.0 -03502.9 -07.6443 26333.0
 22 10 2013  12 58  -21.0254 26098.9 -03502.8 -07.6440 26332.9
 22 10 2013  12 59  -21.0250 26099.2 -03502.8 -07.6441 26333.2
 22 10 2013  13 00  -21.0248 26099.6 -03502.9 -07.6442 26333.6
 22 10 2013  13 01  -21.0242 26099.5 -03502.8 -07.6440 26333.5
 22 10 2013  13 02  -21.0237 26099.5 -03502.7 -07.6438 26333.5
 22 10 2013  13 03  -21.0237 26099.7 -03502.7 -07.6437 26333.7
 22 10 2013  13 04  -21.0238 26099.6 -03502.6 -07.6435 26333.6
 22 10 2013  13 05  -21.0236 26099.7 -03502.6 -07.6435 26333.7
 22 10 2013  13 06  -21.0234 26100.2 -03502.7 -07.6436 26334.2
 22 10 2013  13 07  -21.0234 26100.4 -03502.7 -07.6435 26334.4
 22 10 2013  13 08  -21.0233 26100.7 -03502.8 -07.6436 26334.7
 22 10 2013  13 09  -21.0233 26101.1 -03502.9 -07.6436 26335.1
 22 10 2013  13 10  -21.0231 26101.8 -03503.0 -07.6436 26335.8
 22 10 2013  13 11  -21.0231 26102.5 -03503.1 -07.6437 26336.5
 22 10 2013  13 12  -21.0232 26102.9 -03503.0 -07.6433 26336.9
 22 10 2013  13 13  -21.0231 26103.2 -03502.9 -07.6430 26337.2
 22 10 2013  13 14  -21.0231 26103.4 -03502.7 -07.6427 26337.4
 22 10 2013  13 15  -21.0231 26103.4 -03502.5 -07.6421 26337.3
 22 10 2013  13 16  -21.0231 26103.3 -03502.3 -07.6417 26337.2
 22 10 2013  13 17  -21.0231 26103.6 -03502.2 -07.6415 26337.4
 22 10 2013  13 18  -21.0231 26104.0 -03502.3 -07.6415 26337.9
 22 10 2013  13 19  -21.0229 26104.2 -03502.1 -07.6411 26338.0
 22 10 2013  13 20  -21.0230 26104.2 -03501.9 -07.6407 26338.0
 22 10 2013  13 21  -21.0232 26104.5 -03501.9 -07.6405 26338.3
 22 10 2013  13 22  -21.0233 26104.8 -03501.9 -07.6404 26338.6
 22 10 2013  13 23  -21.0230 26104.9 -03501.8 -07.6401 26338.8
 22 10 2013  13 24  -21.0227 26105.5 -03501.8 -07.6401 26339.3
 22 10 2013  13 25  -21.0226 26105.8 -03501.8 -07.6401 26339.6
 22 10 2013  13 26  -21.0225 26105.8 -03501.7 -07.6397 26339.6
 22 10 2013  13 27  -21.0227 26106.0 -03501.7 -07.6397 26339.8
 22 10 2013  13 28  -21.0227 26106.1 -03501.6 -07.6395 26339.9
 22 10 2013  13 29  -21.0228 26106.7 -03501.7 -07.6396 26340.5
 22 10 2013  13 30  -21.0233 26107.4 -03502.0 -07.6399 26341.2
 22 10 2013  13 31  -21.0235 26107.5 -03501.9 -07.6396 26341.3
 22 10 2013  13 32  -21.0238 26107.3 -03501.6 -07.6390 26341.0
 22 10 2013  13 33  -21.0239 26107.0 -03501.3 -07.6386 26340.8
 22 10 2013  13 34  -21.0240 26106.4 -03501.0 -07.6380 26340.1
 22 10 2013  13 35  -21.0244 26106.4 -03500.8 -07.6376 26340.0
 22 10 2013  13 36  -21.0247 26106.0 -03500.6 -07.6373 26339.6
 22 10 2013  13 37  -21.0245 26105.4 -03500.3 -07.6370 26339.0
 22 10 2013  13 38  -21.0244 26105.5 -03500.4 -07.6370 26339.1
 22 10 2013  13 39  -21.0244 26105.3 -03500.4 -07.6370 26339.0
 22 10 2013  13 40  -21.0243 26105.2 -03500.3 -07.6370 26338.8
 22 10 2013  13 41  -21.0243 26105.2 -03500.4 -07.6371 26338.8
 22 10 2013  13 42  -21.0243 26105.0 -03500.3 -07.6371 26338.6
 22 10 2013  13 43  -21.0241 26105.0 -03500.4 -07.6371 26338.7
 22 10 2013  13 44  -21.0239 26105.2 -03500.5 -07.6372 26338.8
 22 10 2013  13 45  -21.0238 26105.4 -03500.6 -07.6374 26339.1
 22 10 2013  13 46  -21.0240 26105.6 -03500.6 -07.6375 26339.3
 22 10 2013  13 47  -21.0243 26105.9 -03500.8 -07.6377 26339.6
 22 10 2013  13 48  -21.0247 26106.1 -03500.8 -07.6378 26339.8
 22 10 2013  13 49  -21.0250 26106.3 -03500.9 -07.6378 26340.0
 22 10 2013  13 50  -21.0253 26106.4 -03500.8 -07.6377 26340.1
 22 10 2013  13 51  -21.0257 26106.3 -03500.7 -07.6375 26340.0
 22 10 2013  13 52  -21.0260 26106.2 -03500.6 -07.6373 26339.9
 22 10 2013  13 53  -21.0263 26106.3 -03500.6 -07.6372 26340.0
 22 10 2013  13 54  -21.0267 26106.6 -03500.6 -07.6372 26340.3
 22 10 2013  13 55  -21.0271 26106.4 -03500.4 -07.6369 26340.0
 22 10 2013  13 56  -21.0272 26106.2 -03500.3 -07.6366 26339.8
 22 10 2013  13 57  -21.0273 26106.3 -03500.3 -07.6365 26339.9
 22 10 2013  13 58  -21.0271 26106.2 -03500.2 -07.6364 26339.8
 22 10 2013  13 59  -21.0267 26105.9 -03500.1 -07.6362 26339.5
 22 10 2013  14 00  -21.0266 26106.1 -03500.2 -07.6364 26339.7
 22 10 2013  14 01  -21.0263 26106.1 -03500.2 -07.6365 26339.7
 22 10 2013  14 02  -21.0261 26106.1 -03500.3 -07.6365 26339.8
 22 10 2013  14 03  -21.0266 26106.5 -03500.4 -07.6368 26340.2
 22 10 2013  14 04  -21.0267 26106.5 -03500.4 -07.6367 26340.1
 22 10 2013  14 05  -21.0269 26106.4 -03500.3 -07.6366 26340.1
 22 10 2013  14 06  -21.0271 26106.3 -03500.3 -07.6366 26339.9
 22 10 2013  14 07  -21.0273 26106.4 -03500.3 -07.6366 26340.0
 22 10 2013  14 08  -21.0276 26106.2 -03500.3 -07.6366 26339.8
 22 10 2013  14 09  -21.0276 26106.1 -03500.3 -07.6366 26339.7
 22 10 2013  14 10  -21.0282 26106.0 -03500.3 -07.6367 26339.6
 22 10 2013  14 11  -21.0284 26105.8 -03500.3 -07.6367 26339.4
 22 10 2013  14 12  -21.0287 26105.5 -03500.1 -07.6365 26339.1
 22 10 2013  14 13  -21.0287 26105.1 -03500.1 -07.6364 26338.7
 22 10 2013  14 14  -21.0293 26105.3 -03500.2 -07.6366 26338.9
 22 10 2013  14 15  -21.0297 26105.1 -03500.1 -07.6364 26338.7
 22 10 2013  14 16  -21.0300 26104.7 -03499.9 -07.6362 26338.2
 22 10 2013  14 17  -21.0303 26104.2 -03499.8 -07.6361 26337.7
 22 10 2013  14 18  -21.0305 26103.7 -03499.7 -07.6361 26337.3
 22 10 2013  14 19  -21.0309 26103.3 -03499.7 -07.6361 26336.9
 22 10 2013  14 20  -21.0312 26103.1 -03499.7 -07.6362 26336.7
 22 10 2013  14 21  -21.0314 26102.7 -03499.6 -07.6362 26336.3
 22 10 2013  14 22  -21.0311 26102.2 -03499.5 -07.6361 26335.7
 22 10 2013  14 23  -21.0312 26102.0 -03499.6 -07.6363 26335.5
 22 10 2013  14 24  -21.0310 26101.9 -03499.7 -07.6366 26335.5
 22 10 2013  14 25  -21.0311 26101.8 -03499.8 -07.6369 26335.4
 22 10 2013  14 26  -21.0312 26101.9 -03500.0 -07.6373 26335.5
 22 10 2013  14 27  -21.0312 26101.9 -03500.1 -07.6375 26335.5
 22 10 2013  14 28  -21.0312 26101.6 -03500.1 -07.6375 26335.2
 22 10 2013  14 29  -21.0315 26101.4 -03500.1 -07.6376 26335.0
 22 10 2013  14 30  -21.0316 26101.2 -03500.2 -07.6378 26334.9
 22 10 2013  14 31  -21.0318 26101.2 -03500.3 -07.6380 26334.9
 22 10 2013  14 32  -21.0319 26101.1 -03500.3 -07.6382 26334.8
 22 10 2013  14 33  -21.0319 26101.3 -03500.5 -07.6384 26335.0
 22 10 2013  14 34  -21.0322 26101.5 -03500.6 -07.6386 26335.2
 22 10 2013  14 35  -21.0323 26101.5 -03500.6 -07.6386 26335.2
 22 10 2013  14 36  -21.0326 26101.6 -03500.6 -07.6386 26335.3
 22 10 2013  14 37  -21.0328 26101.6 -03500.6 -07.6385 26335.3
 22 10 2013  14 38  -21.0328 26101.6 -03500.5 -07.6384 26335.3
 22 10 2013  14 39  -21.0329 26101.6 -03500.5 -07.6385 26335.3
 22 10 2013  14 40  -21.0330 26101.7 -03500.6 -07.6385 26335.4
 22 10 2013  14 41  -21.0330 26101.9 -03500.6 -07.6385 26335.6
 22 10 2013  14 42  -21.0329 26101.8 -03500.5 -07.6383 26335.5
 22 10 2013  14 43  -21.0327 26101.7 -03500.5 -07.6382 26335.4
 22 10 2013  14 44  -21.0325 26101.8 -03500.5 -07.6384 26335.5
 22 10 2013  14 45  -21.0323 26101.9 -03500.6 -07.6385 26335.6
 22 10 2013  14 46  -21.0327 26102.6 -03500.8 -07.6388 26336.3
 22 10 2013  14 47  -21.0328 26102.6 -03500.7 -07.6385 26336.3
 22 10 2013  14 48  -21.0324 26102.2 -03500.3 -07.6379 26335.9
 22 10 2013  14 49  -21.0322 26102.1 -03500.2 -07.6376 26335.8
 22 10 2013  14 50  -21.0322 26102.3 -03500.2 -07.6375 26336.0
 22 10 2013  14 51  -21.0320 26102.3 -03500.0 -07.6372 26335.9
 22 10 2013  14 52  -21.0318 26101.8 -03499.7 -07.6366 26335.4
 22 10 2013  14 53  -21.0318 26101.4 -03499.5 -07.6362 26334.9
 22 10 2013  14 54  -21.0318 26101.0 -03499.3 -07.6359 26334.5
 22 10 2013  14 55  -21.0316 26100.9 -03499.3 -07.6359 26334.4
 22 10 2013  14 56  -21.0321 26101.4 -03499.4 -07.6361 26334.9
 22 10 2013  14 57  -21.0332 26101.6 -03499.2 -07.6357 26335.1
 22 10 2013  14 58  -21.0334 26101.0 -03498.7 -07.6347 26334.4
 22 10 2013  14 59  -21.0334 26100.0 -03498.2 -07.6340 26333.4
 22 10 2013  15 00  -21.0337 26099.0 -03497.7 -07.6332 26332.4
 22 10 2013  15 01  -21.0340 26097.9 -03497.1 -07.6322 26331.2
 22 10 2013  15 02  -21.0338 26095.5 -03496.1 -07.6306 26328.7
 22 10 2013  15 03  -21.0329 26093.2 -03495.4 -07.6298 26326.2
 22 10 2013  15 04  -21.0330 26092.0 -03495.5 -07.6303 26325.1
 22 10 2013  15 05  -21.0335 26091.8 -03495.9 -07.6313 26325.0
 22 10 2013  15 06  -21.0340 26092.0 -03496.3 -07.6322 26325.2
 22 10 2013  15 07  -21.0339 26092.6 -03496.8 -07.6331 26325.9
 22 10 2013  15 08  -21.0338 26093.2 -03497.2 -07.6337 26326.5
 22 10 2013  15 09  -21.0338 26093.8 -03497.5 -07.6342 26327.2
 22 10 2013  15 10  -21.0343 26094.5 -03497.7 -07.6345 26327.9
 22 10 2013  15 11  -21.0349 26094.7 -03497.7 -07.6343 26328.1
 22 10 2013  15 12  -21.0352 26094.9 -03497.6 -07.6341 26328.3
 22 10 2013  15 13  -21.0356 26094.8 -03497.5 -07.6338 26328.2
 22 10 2013  15 14  -21.0357 26094.5 -03497.2 -07.6333 26327.9
 22 10 2013  15 15  -21.0360 26094.5 -03497.1 -07.6331 26327.8
 22 10 2013  15 16  -21.0365 26094.3 -03496.9 -07.6328 26327.6
 22 10 2013  15 17  -21.0367 26094.0 -03496.7 -07.6323 26327.3
 22 10 2013  15 18  -21.0364 26093.4 -03496.4 -07.6319 26326.6
 22 10 2013  15 19  -21.0367 26093.1 -03496.4 -07.6320 26326.3
 22 10 2013  15 20  -21.0371 26092.8 -03496.3 -07.6319 26326.0
 22 10 2013  15 21  -21.0374 26092.5 -03496.3 -07.6319 26325.7
 22 10 2013  15 22  -21.0374 26092.0 -03496.2 -07.6319 26325.2
 22 10 2013  15 23  -21.0374 26091.7 -03496.4 -07.6323 26325.0
 22 10 2013  15 24  -21.0375 26091.7 -03496.6 -07.6329 26324.9
 22 10 2013  15 25  -21.0381 26091.8 -03496.8 -07.6333 26325.0
 22 10 2013  15 26  -21.0384 26091.7 -03496.9 -07.6334 26325.0
 22 10 2013  15 27  -21.0384 26091.5 -03496.8 -07.6334 26324.8
 22 10 2013  15 28  -21.0382 26091.3 -03496.8 -07.6334 26324.6
 22 10 2013  15 29  -21.0381 26091.0 -03496.9 -07.6336 26324.3
 22 10 2013  15 30  -21.0383 26090.9 -03496.9 -07.6338 26324.2
 22 10 2013  15 31  -21.0382 26090.5 -03496.9 -07.6338 26323.8
 22 10 2013  15 32  -21.0382 26090.2 -03496.9 -07.6340 26323.5
 22 10 2013  15 33  -21.0390 26090.2 -03497.1 -07.6344 26323.6
 22 10 2013  15 34  -21.0396 26090.2 -03497.1 -07.6345 26323.5
 22 10 2013  15 35  -21.0397 26089.8 -03497.1 -07.6344 26323.1
 22 10 2013  15 36  -21.0402 26089.6 -03497.1 -07.6346 26322.9
 22 10 2013  15 37  -21.0406 26089.5 -03497.2 -07.6348 26322.8
 22 10 2013  15 38  -21.0410 26089.2 -03497.2 -07.6348 26322.6
 22 10 2013  15 39  -21.0415 26089.1 -03497.2 -07.6350 26322.4
 22 10 2013  15 40  -21.0422 26089.1 -03497.3 -07.6352 26322.4
 22 10 2013  15 41  -21.0429 26088.9 -03497.4 -07.6354 26322.3
 22 10 2013  15 42  -21.0432 26088.5 -03497.2 -07.6351 26321.9
 22 10 2013  15 43  -21.0433 26088.0 -03497.2 -07.6351 26321.4
 22 10 2013  15 44  -21.0437 26087.9 -03497.3 -07.6354 26321.3
 22 10 2013  15 45  -21.0443 26088.2 -03497.6 -07.6360 26321.6
 22 10 2013  15 46  -21.0451 26088.3 -03497.8 -07.6363 26321.8
 22 10 2013  15 47  -21.0457 26088.6 -03497.9 -07.6366 26322.0
 22 10 2013  15 48  -21.0462 26088.4 -03497.9 -07.6367 26321.9
 22 10 2013  15 49  -21.0466 26088.0 -03497.8 -07.6365 26321.4
 22 10 2013  15 50  -21.0468 26087.6 -03497.7 -07.6364 26321.0
 22 10 2013  15 51  -21.0470 26087.1 -03497.6 -07.6363 26320.6
 22 10 2013  15 52  -21.0472 26086.9 -03497.7 -07.6366 26320.3
 22 10 2013  15 53  -21.0478 26087.2 -03498.1 -07.6373 26320.7
 22 10 2013  15 54  -21.0484 26087.2 -03498.2 -07.6375 26320.7
 22 10 2013  15 55  -21.0487 26087.2 -03498.2 -07.6377 26320.7
 22 10 2013  15 56  -21.0494 26087.4 -03498.4 -07.6380 26320.9
 22 10 2013  15 57  -21.0499 26087.0 -03498.3 -07.6378 26320.5
 22 10 2013  15 58  -21.0500 26086.5 -03498.2 -07.6377 26320.0
 22 10 2013  15 59  -21.0504 26086.0 -03498.2 -07.6379 26319.5
 22 10 2013  16 00  -21.0510 26085.6 -03498.2 -07.6380 26319.1
 22 10 2013  16 01  -21.0513 26085.0 -03498.1 -07.6379 26318.5
 22 10 2013  16 02  -21.0519 26084.5 -03498.1 -07.6381 26318.0
 22 10 2013  16 03  -21.0524 26084.3 -03498.2 -07.6384 26317.8
 22 10 2013  16 04  -21.0533 26084.0 -03498.3 -07.6386 26317.5
 22 10 2013  16 05  -21.0540 26083.7 -03498.2 -07.6387 26317.2
 22 10 2013  16 06  -21.0544 26083.1 -03498.1 -07.6385 26316.6
 22 10 2013  16 07  -21.0546 26082.7 -03498.1 -07.6387 26316.2
 22 10 2013  16 08  -21.0551 26082.3 -03498.1 -07.6388 26315.9
 22 10 2013  16 09  -21.0555 26082.0 -03498.1 -07.6390 26315.5
 22 10 2013  16 10  -21.0560 26081.8 -03498.3 -07.6393 26315.4
 22 10 2013  16 11  -21.0564 26081.7 -03498.4 -07.6396 26315.3
 22 10 2013  16 12  -21.0565 26081.8 -03498.6 -07.6401 26315.4
 22 10 2013  16 13  -21.0571 26082.1 -03498.9 -07.6407 26315.8
 22 10 2013  16 14  -21.0578 26082.3 -03499.1 -07.6408 26316.0
 22 10 2013  16 15  -21.0584 26082.5 -03499.1 -07.6408 26316.1
 22 10 2013  16 16  -21.0591 26082.3 -03499.0 -07.6407 26316.0
 22 10 2013  16 17  -21.0599 26082.3 -03498.9 -07.6405 26315.9
 22 10 2013  16 18  -21.0605 26081.8 -03498.7 -07.6402 26315.4
 22 10 2013  16 19  -21.0610 26081.5 -03498.6 -07.6401 26315.1
 22 10 2013  16 20  -21.0616 26081.3 -03498.6 -07.6401 26314.9
 22 10 2013  16 21  -21.0625 26081.0 -03498.5 -07.6399 26314.6
 22 10 2013  16 22  -21.0632 26081.0 -03498.4 -07.6398 26314.6
 22 10 2013  16 23  -21.0639 26080.6 -03498.1 -07.6394 26314.2
 22 10 2013  16 24  -21.0645 26080.5 -03498.1 -07.6392 26314.0
 22 10 2013  16 25  -21.0652 26080.4 -03498.0 -07.6391 26314.0
 22 10 2013  16 26  -21.0658 26080.2 -03497.9 -07.6389 26313.7
 22 10 2013  16 27  -21.0666 26079.9 -03497.6 -07.6384 26313.4
 22 10 2013  16 28  -21.0675 26079.2 -03497.1 -07.6375 26312.6
 22 10 2013  16 29  -21.0681 26078.2 -03496.6 -07.6367 26311.6
 22 10 2013  16 30  -21.0689 26077.5 -03496.2 -07.6361 26310.8
 22 10 2013  16 31  -21.0697 26076.4 -03495.7 -07.6353 26309.7
 22 10 2013  16 32  -21.0700 26075.2 -03495.2 -07.6346 26308.4
 22 10 2013  16 33  -21.0701 26074.1 -03494.8 -07.6341 26307.3
 22 10 2013  16 34  -21.0703 26073.4 -03494.7 -07.6340 26306.6
 22 10 2013  16 35  -21.0707 26072.7 -03494.6 -07.6340 26305.8
 22 10 2013  16 36  -21.0708 26071.8 -03494.4 -07.6337 26304.9
 22 10 2013  16 37  -21.0708 26071.3 -03494.3 -07.6338 26304.4
 22 10 2013  16 38  -21.0707 26071.1 -03494.3 -07.6339 26304.2
 22 10 2013  16 39  -21.0708 26070.9 -03494.4 -07.6341 26304.1
 22 10 2013  16 40  -21.0708 26070.7 -03494.5 -07.6343 26303.9
 22 10 2013  16 41  -21.0709 26070.8 -03494.5 -07.6344 26303.9
 22 10 2013  16 42  -21.0708 26070.6 -03494.4 -07.6343 26303.7
 22 10 2013  16 43  -21.0707 26070.7 -03494.6 -07.6345 26303.9
 22 10 2013  16 44  -21.0708 26070.9 -03494.6 -07.6346 26304.1
 22 10 2013  16 45  -21.0710 26071.2 -03494.6 -07.6345 26304.4
 22 10 2013  16 46  -21.0710 26071.5 -03494.6 -07.6343 26304.6
 22 10 2013  16 47  -21.0710 26071.6 -03494.5 -07.6341 26304.7
 22 10 2013  16 48  -21.0709 26071.7 -03494.4 -07.6339 26304.8
 22 10 2013  16 49  -21.0708 26071.8 -03494.3 -07.6335 26304.9
 22 10 2013  16 50  -21.0707 26071.7 -03494.1 -07.6332 26304.8
 22 10 2013  16 51  -21.0703 26071.5 -03494.0 -07.6330 26304.6
 22 10 2013  16 52  -21.0700 26071.5 -03493.9 -07.6328 26304.6
 22 10 2013  16 53  -21.0699 26071.5 -03493.8 -07.6326 26304.5
 22 10 2013  16 54  -21.0697 26071.4 -03493.7 -07.6325 26304.5
 22 10 2013  16 55  -21.0696 26071.3 -03493.6 -07.6323 26304.3
 22 10 2013  16 56  -21.0693 26071.2 -03493.6 -07.6322 26304.3
 22 10 2013  16 57  -21.0692 26071.0 -03493.5 -07.6321 26304.1
 22 10 2013  16 58  -21.0690 26070.9 -03493.4 -07.6320 26303.9
 22 10 2013  16 59  -21.0690 26070.9 -03493.4 -07.6320 26303.9
 22 10 2013  17 00  -21.0689 26070.9 -03493.5 -07.6321 26303.9
 22 10 2013  17 01  -21.0688 26071.2 -03493.6 -07.6324 26304.2
 22 10 2013  17 02  -21.0689 26071.5 -03493.7 -07.6325 26304.5
 22 10 2013  17 03  -21.0688 26071.6 -03493.7 -07.6323 26304.7
 22 10 2013  17 04  -21.0687 26071.7 -03493.6 -07.6322 26304.7
 22 10 2013  17 05  -21.0685 26071.6 -03493.5 -07.6320 26304.6
 22 10 2013  17 06  -21.0681 26071.6 -03493.6 -07.6321 26304.6
 22 10 2013  17 07  -21.0680 26071.8 -03493.7 -07.6323 26304.8
 22 10 2013  17 08  -21.0682 26072.0 -03493.8 -07.6325 26305.1
 22 10 2013  17 09  -21.0683 26072.1 -03493.8 -07.6325 26305.2
 22 10 2013  17 10  -21.0683 26071.9 -03493.6 -07.6322 26304.9
 22 10 2013  17 11  -21.0681 26071.6 -03493.5 -07.6320 26304.7
 22 10 2013  17 12  -21.0681 26071.5 -03493.5 -07.6320 26304.6
 22 10 2013  17 13  -21.0681 26071.5 -03493.5 -07.6321 26304.5
 22 10 2013  17 14  -21.0682 26071.4 -03493.5 -07.6321 26304.4
 22 10 2013  17 15  -21.0681 26071.1 -03493.4 -07.6319 26304.1
 22 10 2013  17 16  -21.0681 26070.8 -03493.3 -07.6318 26303.8
 22 10 2013  17 17  -21.0682 26070.5 -03493.3 -07.6319 26303.5
 22 10 2013  17 18  -21.0683 26070.2 -03493.3 -07.6320 26303.2
 22 10 2013  17 19  -21.0686 26070.0 -03493.4 -07.6321 26303.0
 22 10 2013  17 20  -21.0689 26069.7 -03493.4 -07.6322 26302.7
 22 10 2013  17 21  -21.0689 26069.5 -03493.4 -07.6323 26302.5
 22 10 2013  17 22  -21.0692 26069.5 -03493.5 -07.6325 26302.5
 22 10 2013  17 23  -21.0693 26069.4 -03493.5 -07.6326 26302.5
 22 10 2013  17 24  -21.0694 26069.3 -03493.6 -07.6327 26302.3
 22 10 2013  17 25  -21.0697 26069.1 -03493.6 -07.6329 26302.1
 22 10 2013  17 26  -21.0701 26068.8 -03493.6 -07.6329 26301.8
 22 10 2013  17 27  -21.0705 26068.5 -03493.5 -07.6328 26301.5
 22 10 2013  17 28  -21.0711 26067.9 -03493.3 -07.6327 26300.9
 22 10 2013  17 29  -21.0716 26067.4 -03493.2 -07.6326 26300.4
 22 10 2013  17 30  -21.0719 26066.8 -03493.1 -07.6325 26299.8
 22 10 2013  17 31  -21.0721 26066.4 -03493.1 -07.6325 26299.4
 22 10 2013  17 32  -21.0723 26066.0 -03493.0 -07.6326 26299.0
 22 10 2013  17 33  -21.0725 26065.7 -03493.1 -07.6328 26298.7
 22 10 2013  17 34  -21.0727 26065.6 -03493.2 -07.6331 26298.7
 22 10 2013  17 35  -21.0728 26065.5 -03493.3 -07.6333 26298.5
 22 10 2013  17 36  -21.0730 26065.4 -03493.4 -07.6334 26298.4
 22 10 2013  17 37  -21.0734 26065.1 -03493.3 -07.6334 26298.2
 22 10 2013  17 38  -21.0735 26064.8 -03493.3 -07.6334 26297.9
 22 10 2013  17 39  -21.0736 26064.5 -03493.2 -07.6334 26297.6
 22 10 2013  17 40  -21.0739 26064.3 -03493.2 -07.6335 26297.3
 22 10 2013  17 41  -21.0744 26063.9 -03493.0 -07.6331 26296.9
 22 10 2013  17 42  -21.0743 26063.4 -03492.9 -07.6329 26296.4
 22 10 2013  17 43  -21.0745 26063.2 -03492.8 -07.6330 26296.2
 22 10 2013  17 44  -21.0748 26062.9 -03492.8 -07.6330 26295.9
 22 10 2013  17 45  -21.0748 26062.4 -03492.6 -07.6327 26295.4
 22 10 2013  17 46  -21.0749 26061.8 -03492.3 -07.6322 26294.7
 22 10 2013  17 47  -21.0750 26061.1 -03492.1 -07.6319 26294.0
 22 10 2013  17 48  -21.0752 26060.6 -03491.9 -07.6316 26293.5
 22 10 2013  17 49  -21.0752 26059.9 -03491.7 -07.6314 26292.8
 22 10 2013  17 50  -21.0753 26059.3 -03491.5 -07.6312 26292.2
 22 10 2013  17 51  -21.0753 26058.8 -03491.3 -07.6310 26291.6
 22 10 2013  17 52  -21.0750 26058.2 -03491.1 -07.6306 26291.0
 22 10 2013  17 53  -21.0748 26057.6 -03490.9 -07.6304 26290.5
 22 10 2013  17 54  -21.0748 26057.3 -03490.8 -07.6302 26290.0
 22 10 2013  17 55  -21.0745 26056.8 -03490.6 -07.6300 26289.5
 22 10 2013  17 56  -21.0742 26056.2 -03490.5 -07.6299 26289.0
 22 10 2013  17 57  -21.0741 26055.8 -03490.4 -07.6297 26288.6
 22 10 2013  17 58  -21.0736 26055.3 -03490.2 -07.6294 26288.0
 22 10 2013  17 59  -21.0735 26055.2 -03490.1 -07.6293 26287.9
 22 10 2013  18 00  -21.0733 26055.1 -03490.0 -07.6291 26287.8
 22 10 2013  18 01  -21.0729 26055.0 -03489.9 -07.6289 26287.6
 22 10 2013  18 02  -21.0728 26055.1 -03489.8 -07.6288 26287.8
 22 10 2013  18 03  -21.0724 26055.2 -03489.8 -07.6287 26287.9
 22 10 2013  18 04  -21.0724 26055.6 -03489.9 -07.6288 26288.3
 22 10 2013  18 05  -21.0724 26055.8 -03489.8 -07.6286 26288.5
 22 10 2013  18 06  -21.0719 26055.7 -03489.6 -07.6282 26288.3
 22 10 2013  18 07  -21.0719 26055.9 -03489.6 -07.6280 26288.6
 22 10 2013  18 08  -21.0719 26056.2 -03489.5 -07.6278 26288.8
 22 10 2013  18 09  -21.0720 26056.3 -03489.4 -07.6276 26288.9
 22 10 2013  18 10  -21.0717 26056.2 -03489.3 -07.6272 26288.8
 22 10 2013  18 11  -21.0718 26056.0 -03489.1 -07.6269 26288.5
 22 10 2013  18 12  -21.0712 26055.5 -03488.8 -07.6264 26288.0
 22 10 2013  18 13  -21.0711 26055.3 -03488.7 -07.6263 26287.8
 22 10 2013  18 14  -21.0709 26055.3 -03488.7 -07.6262 26287.8
 22 10 2013  18 15  -21.0710 26055.0 -03488.4 -07.6258 26287.4
 22 10 2013  18 16  -21.0707 26054.6 -03488.2 -07.6254 26287.1
 22 10 2013  18 17  -21.0704 26054.0 -03488.0 -07.6252 26286.5
 22 10 2013  18 18  -21.0704 26053.8 -03488.0 -07.6252 26286.3
 22 10 2013  18 19  -21.0702 26053.9 -03488.1 -07.6254 26286.4
 22 10 2013  18 20  -21.0701 26053.3 -03487.8 -07.6249 26285.7
 22 10 2013  18 21  -21.0693 26052.4 -03487.4 -07.6243 26284.8
 22 10 2013  18 22  -21.0691 26052.0 -03487.4 -07.6244 26284.4
 22 10 2013  18 23  -21.0691 26051.7 -03487.3 -07.6244 26284.0
 22 10 2013  18 24  -21.0689 26051.2 -03487.2 -07.6243 26283.5
 22 10 2013  18 25  -21.0683 26050.8 -03487.2 -07.6243 26283.2
 22 10 2013  18 26  -21.0675 26050.4 -03487.2 -07.6244 26282.7
 22 10 2013  18 27  -21.0671 26049.9 -03487.1 -07.6244 26282.3
 22 10 2013  18 28  -21.0669 26049.7 -03487.2 -07.6246 26282.1
 22 10 2013  18 29  -21.0665 26049.6 -03487.2 -07.6248 26282.0
 22 10 2013  18 30  -21.0665 26049.9 -03487.4 -07.6252 26282.3
 22 10 2013  18 31  -21.0663 26049.3 -03487.2 -07.6248 26281.7
 22 10 2013  18 32  -21.0657 26049.1 -03487.1 -07.6246 26281.4
 22 10 2013  18 33  -21.0651 26048.8 -03487.1 -07.6246 26281.2
 22 10 2013  18 34  -21.0648 26048.4 -03487.0 -07.6245 26280.8
 22 10 2013  18 35  -21.0647 26048.5 -03487.0 -07.6247 26280.9
 22 10 2013  18 36  -21.0645 26048.1 -03486.9 -07.6246 26280.5
 22 10 2013  18 37  -21.0642 26048.6 -03487.1 -07.6249 26281.0
 22 10 2013  18 38  -21.0640 26048.4 -03487.1 -07.6249 26280.8
 22 10 2013  18 39  -21.0636 26048.6 -03487.2 -07.6250 26280.9
 22 10 2013  18 40  -21.0631 26048.8 -03487.3 -07.6252 26281.2
 22 10 2013  18 41  -21.0625 26047.4 -03486.8 -07.6244 26279.7
 22 10 2013  18 42  -21.0617 26047.4 -03486.9 -07.6248 26279.7
 22 10 2013  18 43  -21.0619 26046.2 -03486.6 -07.6244 26278.5
 22 10 2013  18 44  -21.0610 26045.8 -03486.6 -07.6245 26278.1
 22 10 2013  18 45  -21.0608 26044.7 -03486.4 -07.6243 26277.1
 22 10 2013  18 46  -21.0598 26045.1 -03486.8 -07.6251 26277.5
 22 10 2013  18 47  -21.0591 26045.0 -03486.9 -07.6254 26277.4
 22 10 2013  18 48  -21.0582 26045.0 -03487.1 -07.6257 26277.4
 22 10 2013  18 49  -21.0577 26044.7 -03487.1 -07.6260 26277.1
 22 10 2013  18 50  -21.0567 26044.2 -03487.2 -07.6262 26276.6
 22 10 2013  18 51  -21.0562 26044.4 -03487.6 -07.6270 26276.9
 22 10 2013  18 52  -21.0562 26044.3 -03487.8 -07.6275 26276.8
 22 10 2013  18 53  -21.0557 26043.8 -03487.6 -07.6273 26276.3
 22 10 2013  18 54  -21.0547 26043.4 -03487.6 -07.6273 26275.9
 22 10 2013  18 55  -21.0541 26043.3 -03487.8 -07.6278 26275.8
 22 10 2013  18 56  -21.0536 26043.1 -03488.0 -07.6282 26275.6
 22 10 2013  18 57  -21.0531 26042.9 -03488.1 -07.6286 26275.5
 22 10 2013  18 58  -21.0527 26042.7 -03488.3 -07.6290 26275.3
 22 10 2013  18 59  -21.0526 26042.7 -03488.4 -07.6294 26275.3
 22 10 2013  19 00  -21.0521 26042.7 -03488.6 -07.6298 26275.3
 22 10 2013  19 01  -21.0517 26042.5 -03488.7 -07.6299 26275.2
 22 10 2013  19 02  -21.0513 26042.5 -03488.8 -07.6302 26275.1
 22 10 2013  19 03  -21.0511 26042.5 -03489.0 -07.6306 26275.2
 22 10 2013  19 04  -21.0510 26042.3 -03489.0 -07.6308 26275.0
 22 10 2013  19 05  -21.0507 26042.7 -03489.2 -07.6311 26275.4
 22 10 2013  19 06  -21.0506 26042.1 -03489.2 -07.6311 26274.8
 22 10 2013  19 07  -21.0502 26042.4 -03489.4 -07.6315 26275.1
 22 10 2013  19 08  -21.0497 26042.2 -03489.5 -07.6317 26275.0
 22 10 2013  19 09  -21.0498 26041.9 -03489.5 -07.6318 26274.7
 22 10 2013  19 10  -21.0494 26042.0 -03489.5 -07.6319 26274.8
 22 10 2013  19 11  -21.0494 26041.6 -03489.4 -07.6318 26274.3
 22 10 2013  19 12  -21.0490 26041.4 -03489.4 -07.6319 26274.2
 22 10 2013  19 13  -21.0487 26041.4 -03489.5 -07.6321 26274.2
 22 10 2013  19 14  -21.0485 26041.3 -03489.6 -07.6323 26274.1
 22 10 2013  19 15  -21.0485 26041.4 -03489.7 -07.6325 26274.2
 22 10 2013  19 16  -21.0481 26041.4 -03489.8 -07.6327 26274.2
 22 10 2013  19 17  -21.0476 26040.8 -03489.7 -07.6326 26273.6
 22 10 2013  19 18  -21.0474 26041.2 -03490.0 -07.6331 26274.0
 22 10 2013  19 19  -21.0474 26041.3 -03490.1 -07.6334 26274.2
 22 10 2013  19 20  -21.0472 26041.3 -03490.2 -07.6335 26274.1
 22 10 2013  19 21  -21.0467 26041.3 -03490.3 -07.6338 26274.2
 22 10 2013  19 22  -21.0470 26041.5 -03490.5 -07.6342 26274.4
 22 10 2013  19 23  -21.0470 26041.3 -03490.5 -07.6343 26274.2
 22 10 2013  19 24  -21.0467 26041.3 -03490.6 -07.6344 26274.2
 22 10 2013  19 25  -21.0465 26040.9 -03490.5 -07.6343 26273.8
 22 10 2013  19 26  -21.0461 26040.8 -03490.6 -07.6346 26273.7
 22 10 2013  19 27  -21.0462 26040.7 -03490.7 -07.6349 26273.6
 22 10 2013  19 28  -21.0456 26040.6 -03490.8 -07.6350 26273.6
 22 10 2013  19 29  -21.0455 26040.7 -03490.9 -07.6353 26273.7
 22 10 2013  19 30  -21.0455 26040.5 -03491.0 -07.6355 26273.4
 22 10 2013  19 31  -21.0453 26040.3 -03491.0 -07.6355 26273.2
 22 10 2013  19 32  -21.0449 26040.3 -03491.1 -07.6359 26273.3
 22 10 2013  19 33  -21.0447 26040.5 -03491.4 -07.6363 26273.5
 22 10 2013  19 34  -21.0445 26040.5 -03491.5 -07.6365 26273.5
 22 10 2013  19 35  -21.0444 26040.7 -03491.6 -07.6369 26273.7
 22 10 2013  19 36  -21.0445 26040.7 -03491.7 -07.6371 26273.7
 22 10 2013  19 37  -21.0442 26040.6 -03491.8 -07.6372 26273.7
 22 10 2013  19 38  -21.0439 26040.5 -03491.8 -07.6373 26273.5
 22 10 2013  19 39  -21.0438 26040.4 -03491.8 -07.6374 26273.4
 22 10 2013  19 40  -21.0437 26040.3 -03491.9 -07.6375 26273.4
 22 10 2013  19 41  -21.0435 26040.4 -03492.0 -07.6377 26273.5
 22 10 2013  19 42  -21.0433 26040.4 -03492.1 -07.6379 26273.5
 22 10 2013  19 43  -21.0432 26040.3 -03492.2 -07.6382 26273.4
 22 10 2013  19 44  -21.0429 26040.4 -03492.4 -07.6385 26273.5
 22 10 2013  19 45  -21.0428 26040.4 -03492.5 -07.6387 26273.5
 22 10 2013  19 46  -21.0427 26040.7 -03492.7 -07.6391 26273.9
 22 10 2013  19 47  -21.0426 26040.5 -03492.7 -07.6391 26273.7
 22 10 2013  19 48  -21.0423 26040.8 -03492.9 -07.6395 26274.0
 22 10 2013  19 49  -21.0421 26040.8 -03493.0 -07.6399 26274.1
 22 10 2013  19 50  -21.0420 26040.7 -03493.0 -07.6399 26273.9
 22 10 2013  19 51  -21.0418 26040.9 -03493.1 -07.6400 26274.1
 22 10 2013  19 52  -21.0417 26040.7 -03493.1 -07.6400 26273.9
 22 10 2013  19 53  -21.0416 26040.7 -03493.1 -07.6401 26273.9
 22 10 2013  19 54  -21.0415 26040.6 -03493.1 -07.6401 26273.8
 22 10 2013  19 55  -21.0413 26040.5 -03493.2 -07.6402 26273.8
 22 10 2013  19 56  -21.0413 26040.3 -03493.1 -07.6402 26273.5
 22 10 2013  19 57  -21.0410 26040.2 -03493.2 -07.6403 26273.5
 22 10 2013  19 58  -21.0409 26040.5 -03493.4 -07.6407 26273.7
 22 10 2013  19 59  -21.0408 26040.6 -03493.5 -07.6410 26273.8
 22 10 2013  20 00  -21.0407 26040.4 -03493.5 -07.6410 26273.7
 22 10 2013  20 01  -21.0405 26040.4 -03493.5 -07.6410 26273.7
 22 10 2013  20 02  -21.0403 26040.3 -03493.5 -07.6410 26273.6
 22 10 2013  20 03  -21.0400 26040.5 -03493.6 -07.6412 26273.8
 22 10 2013  20 04  -21.0395 26040.5 -03493.7 -07.6413 26273.8
 22 10 2013  20 05  -21.0389 26040.4 -03493.7 -07.6413 26273.7
 22 10 2013  20 06  -21.0384 26040.4 -03493.7 -07.6415 26273.7
 22 10 2013  20 07  -21.0379 26040.4 -03493.9 -07.6418 26273.7
 22 10 2013  20 08  -21.0374 26040.3 -03493.9 -07.6418 26273.6
 22 10 2013  20 09  -21.0371 26040.1 -03493.9 -07.6419 26273.4
 22 10 2013  20 10  -21.0366 26039.8 -03493.8 -07.6419 26273.1
 22 10 2013  20 11  -21.0360 26039.6 -03493.8 -07.6419 26272.9
 22 10 2013  20 12  -21.0355 26039.2 -03493.8 -07.6419 26272.6
 22 10 2013  20 13  -21.0350 26038.9 -03493.7 -07.6419 26272.3
 22 10 2013  20 14  -21.0345 26038.9 -03493.8 -07.6421 26272.2
 22 10 2013  20 15  -21.0340 26038.7 -03493.8 -07.6421 26272.1
 22 10 2013  20 16  -21.0338 26038.5 -03493.8 -07.6422 26271.9
 22 10 2013  20 17  -21.0335 26038.0 -03493.7 -07.6421 26271.4
 22 10 2013  20 18  -21.0331 26037.6 -03493.5 -07.6418 26270.9
 22 10 2013  20 19  -21.0327 26037.1 -03493.4 -07.6417 26270.5
 22 10 2013  20 20  -21.0322 26036.9 -03493.4 -07.6418 26270.3
 22 10 2013  20 21  -21.0317 26036.5 -03493.4 -07.6418 26269.8
 22 10 2013  20 22  -21.0313 26036.2 -03493.3 -07.6417 26269.5
 22 10 2013  20 23  -21.0305 26035.9 -03493.2 -07.6417 26269.2
 22 10 2013  20 24  -21.0301 26035.8 -03493.3 -07.6419 26269.1
 22 10 2013  20 25  -21.0294 26035.9 -03493.5 -07.6423 26269.3
 22 10 2013  20 26  -21.0286 26036.0 -03493.6 -07.6426 26269.4
 22 10 2013  20 27  -21.0279 26036.1 -03493.8 -07.6429 26269.5
 22 10 2013  20 28  -21.0272 26036.2 -03494.0 -07.6432 26269.6
 22 10 2013  20 29  -21.0265 26036.2 -03494.1 -07.6435 26269.6
 22 10 2013  20 30  -21.0259 26036.2 -03494.1 -07.6436 26269.6
 22 10 2013  20 31  -21.0254 26036.4 -03494.4 -07.6440 26269.8
 22 10 2013  20 32  -21.0251 26036.4 -03494.5 -07.6443 26269.8
 22 10 2013  20 33  -21.0248 26036.4 -03494.6 -07.6445 26269.8
 22 10 2013  20 34  -21.0246 26036.4 -03494.7 -07.6447 26269.9
 22 10 2013  20 35  -21.0243 26036.2 -03494.7 -07.6448 26269.7
 22 10 2013  20 36  -21.0241 26035.9 -03494.7 -07.6449 26269.4
 22 10 2013  20 37  -21.0238 26035.7 -03494.7 -07.6449 26269.2
 22 10 2013  20 38  -21.0236 26035.6 -03494.7 -07.6450 26269.1
 22 10 2013  20 39  -21.0240 26035.2 -03494.6 -07.6448 26268.7
 22 10 2013  20 40  -21.0253 26034.5 -03494.5 -07.6448 26268.0
 22 10 2013  20 41  -21.0248 26034.3 -03494.4 -07.6448 26267.8
 22 10 2013  20 42  -21.0243 26034.1 -03494.4 -07.6448 26267.5
 22 10 2013  20 43  -21.0239 26033.9 -03494.4 -07.6448 26267.3
 22 10 2013  20 44  -21.0235 26033.5 -03494.4 -07.6449 26267.0
 22 10 2013  20 45  -21.0231 26033.2 -03494.3 -07.6448 26266.7
 22 10 2013  20 46  -21.0211 26033.3 -03494.4 -07.6450 26266.8
 22 10 2013  20 47  -21.0203 26033.2 -03494.5 -07.6452 26266.7
 22 10 2013  20 48  -21.0199 26032.9 -03494.5 -07.6453 26266.4
 22 10 2013  20 49  -21.0196 26032.7 -03494.5 -07.6453 26266.2
 22 10 2013  20 50  -21.0192 26032.4 -03494.5 -07.6455 26265.9
 22 10 2013  20 51  -21.0188 26032.1 -03494.5 -07.6456 26265.6
 22 10 2013  20 52  -21.0184 26031.8 -03494.5 -07.6457 26265.3
 22 10 2013  20 53  -21.0179 26031.6 -03494.5 -07.6458 26265.1
 22 10 2013  20 54  -21.0176 26031.4 -03494.6 -07.6460 26264.9
 22 10 2013  20 55  -21.0172 26031.2 -03494.7 -07.6462 26264.7
 22 10 2013  20 56  -21.0168 26031.0 -03494.7 -07.6464 26264.5
 22 10 2013  20 57  -21.0164 26030.9 -03494.7 -07.6462 26264.4
 22 10 2013  20 58  -21.0164 26030.6 -03494.8 -07.6467 26264.2
 22 10 2013  20 59  -21.0158 26030.7 -03495.0 -07.6471 26264.3
 22 10 2013  21 00  -21.0157 26030.6 -03495.2 -07.6476 26264.3
 22 10 2013  21 01  -21.0155 26030.5 -03495.3 -07.6478 26264.1
 22 10 2013  21 02  -21.0153 26030.4 -03495.4 -07.6481 26264.0
 22 10 2013  21 03  -21.0151 26030.4 -03495.6 -07.6484 26264.1
 22 10 2013  21 04  -21.0147 26030.5 -03495.8 -07.6488 26264.2
 22 10 2013  21 05  -21.0148 26030.4 -03495.9 -07.6491 26264.1
 22 10 2013  21 06  -21.0146 26030.4 -03496.0 -07.6494 26264.2
 22 10 2013  21 07  -21.0144 26030.3 -03496.1 -07.6495 26264.1
 22 10 2013  21 08  -21.0144 26030.3 -03496.1 -07.6496 26264.0
 22 10 2013  21 09  -21.0144 26030.2 -03496.2 -07.6498 26264.0
 22 10 2013  21 10  -21.0145 26030.2 -03496.3 -07.6501 26264.0
 22 10 2013  21 11  -21.0142 26030.2 -03496.4 -07.6503 26264.0
 22 10 2013  21 12  -21.0140 26030.1 -03496.5 -07.6504 26263.9
 22 10 2013  21 13  -21.0138 26029.8 -03496.4 -07.6502 26263.6
 22 10 2013  21 14  -21.0137 26029.5 -03496.4 -07.6503 26263.2
 22 10 2013  21 15  -21.0138 26029.3 -03496.4 -07.6504 26263.0
 22 10 2013  21 16  -21.0139 26029.2 -03496.3 -07.6502 26263.0
 22 10 2013  21 17  -21.0139 26029.1 -03496.5 -07.6507 26262.9
 22 10 2013  21 18  -21.0137 26029.0 -03496.5 -07.6508 26262.7
 22 10 2013  21 19  -21.0135 26028.7 -03496.5 -07.6508 26262.5
 22 10 2013  21 20  -21.0138 26028.3 -03496.4 -07.6508 26262.1
 22 10 2013  21 21  -21.0146 26028.0 -03496.4 -07.6508 26261.8
 22 10 2013  21 22  -21.0147 26027.8 -03496.3 -07.6507 26261.5
 22 10 2013  21 23  -21.0144 26027.5 -03496.2 -07.6506 26261.3
 22 10 2013  21 24  -21.0139 26027.3 -03496.2 -07.6506 26261.1
 22 10 2013  21 25  -21.0135 26027.0 -03496.2 -07.6507 26260.8
 22 10 2013  21 26  -21.0130 26026.7 -03496.1 -07.6507 26260.4
 22 10 2013  21 27  -21.0127 26026.2 -03496.0 -07.6506 26260.0
 22 10 2013  21 28  -21.0125 26026.0 -03496.1 -07.6507 26259.8
 22 10 2013  21 29  -21.0124 26025.9 -03496.2 -07.6510 26259.7
 22 10 2013  21 30  -21.0121 26025.9 -03496.3 -07.6512 26259.7
 22 10 2013  21 31  -21.0119 26025.8 -03496.4 -07.6515 26259.6
 22 10 2013  21 32  -21.0119 26025.7 -03496.5 -07.6517 26259.5
 22 10 2013  21 33  -21.0118 26025.5 -03496.5 -07.6519 26259.3
 22 10 2013  21 34  -21.0117 26025.3 -03496.5 -07.6519 26259.1
 22 10 2013  21 35  -21.0117 26025.1 -03496.5 -07.6520 26259.0
 22 10 2013  21 36  -21.0118 26025.0 -03496.7 -07.6523 26258.9
 22 10 2013  21 37  -21.0117 26024.9 -03496.7 -07.6523 26258.7
 22 10 2013  21 38  -21.0116 26024.7 -03496.7 -07.6524 26258.6
 22 10 2013  21 39  -21.0114 26024.6 -03496.7 -07.6524 26258.5
 22 10 2013  21 40  -21.0112 26024.5 -03496.7 -07.6525 26258.4
 22 10 2013  21 41  -21.0111 26024.4 -03496.7 -07.6526 26258.3
 22 10 2013  21 42  -21.0110 26024.4 -03496.8 -07.6528 26258.3
 22 10 2013  21 43  -21.0109 26024.4 -03496.9 -07.6530 26258.3
 22 10 2013  21 44  -21.0108 26024.4 -03497.0 -07.6531 26258.3
 22 10 2013  21 45  -21.0108 26024.2 -03497.0 -07.6532 26258.1
 22 10 2013  21 46  -21.0108 26024.2 -03497.0 -07.6533 26258.1
 22 10 2013  21 47  -21.0107 26024.2 -03497.1 -07.6535 26258.2
 22 10 2013  21 48  -21.0107 26024.1 -03497.1 -07.6535 26258.0
 22 10 2013  21 49  -21.0106 26023.7 -03496.9 -07.6532 26257.6
 22 10 2013  21 50  -21.0107 26023.6 -03496.9 -07.6533 26257.5
 22 10 2013  21 51  -21.0105 26023.4 -03496.8 -07.6531 26257.3
 22 10 2013  21 52  -21.0104 26023.3 -03496.8 -07.6532 26257.2
 22 10 2013  21 53  -21.0104 26023.4 -03497.0 -07.6534 26257.3
 22 10 2013  21 54  -21.0102 26023.3 -03496.9 -07.6534 26257.2
 22 10 2013  21 55  -21.0101 26023.3 -03497.0 -07.6535 26257.2
 22 10 2013  21 56  -21.0102 26023.3 -03497.0 -07.6536 26257.2
 22 10 2013  21 57  -21.0101 26023.2 -03497.0 -07.6536 26257.1
 22 10 2013  21 58  -21.0098 26023.2 -03497.0 -07.6536 26257.1
 22 10 2013  21 59  -21.0100 26023.3 -03497.2 -07.6538 26257.2
 22 10 2013  22 00  -21.0099 26022.8 -03497.0 -07.6536 26256.7
 22 10 2013  22 01  -21.0098 26022.8 -03497.0 -07.6536 26256.7
 22 10 2013  22 02  -21.0099 26022.7 -03496.9 -07.6536 26256.6
 22 10 2013  22 03  -21.0099 26022.6 -03496.9 -07.6536 26256.5
 22 10 2013  22 04  -21.0098 26022.6 -03496.9 -07.6536 26256.5
 22 10 2013  22 05  -21.0097 26022.4 -03496.9 -07.6536 26256.3
 22 10 2013  22 06  -21.0098 26022.2 -03496.8 -07.6534 26256.1
 22 10 2013  22 07  -21.0099 26022.0 -03496.7 -07.6533 26255.9
 22 10 2013  22 08  -21.0099 26021.9 -03496.7 -07.6533 26255.8
 22 10 2013  22 09  -21.0098 26021.8 -03496.7 -07.6532 26255.7
 22 10 2013  22 10  -21.0097 26021.7 -03496.6 -07.6532 26255.6
 22 10 2013  22 11  -21.0098 26021.7 -03496.7 -07.6533 26255.6
 22 10 2013  22 12  -21.0098 26021.7 -03496.7 -07.6533 26255.6
 22 10 2013  22 13  -21.0096 26021.6 -03496.7 -07.6533 26255.5
 22 10 2013  22 14  -21.0095 26021.4 -03496.6 -07.6533 26255.3
 22 10 2013  22 15  -21.0095 26021.3 -03496.6 -07.6532 26255.2
 22 10 2013  22 16  -21.0097 26021.2 -03496.6 -07.6532 26255.1
 22 10 2013  22 17  -21.0098 26021.1 -03496.6 -07.6533 26255.0
 22 10 2013  22 18  -21.0099 26021.1 -03496.6 -07.6533 26255.0
 22 10 2013  22 19  -21.0100 26021.0 -03496.6 -07.6532 26254.9
 22 10 2013  22 20  -21.0101 26020.9 -03496.5 -07.6531 26254.7
 22 10 2013  22 21  -21.0102 26020.8 -03496.5 -07.6531 26254.7
 22 10 2013  22 22  -21.0102 26020.8 -03496.5 -07.6531 26254.6
 22 10 2013  22 23  -21.0102 26020.7 -03496.5 -07.6531 26254.6
 22 10 2013  22 24  -21.0105 26020.8 -03496.5 -07.6532 26254.7
 22 10 2013  22 25  -21.0104 26021.1 -03496.7 -07.6534 26255.0
 22 10 2013  22 26  -21.0105 26021.9 -03497.1 -07.6542 26255.8
 22 10 2013  22 27  -21.0106 26022.1 -03497.2 -07.6543 26256.1
 22 10 2013  22 28  -21.0106 26022.7 -03497.5 -07.6548 26256.7
 22 10 2013  22 29  -21.0109 26022.9 -03497.6 -07.6550 26256.9
 22 10 2013  22 30  -21.0115 26022.8 -03497.6 -07.6549 26256.8
 22 10 2013  22 31  -21.0120 26022.5 -03497.4 -07.6546 26256.5
 22 10 2013  22 32  -21.0125 26022.7 -03497.4 -07.6546 26256.7
 22 10 2013  22 33  -21.0128 26022.7 -03497.4 -07.6545 26256.6
 22 10 2013  22 34  -21.0130 26023.1 -03497.5 -07.6547 26257.1
 22 10 2013  22 35  -21.0132 26022.9 -03497.4 -07.6546 26256.9
 22 10 2013  22 36  -21.0134 26022.8 -03497.3 -07.6544 26256.7
 22 10 2013  22 37  -21.0136 26022.5 -03497.2 -07.6541 26256.5
 22 10 2013  22 38  -21.0132 26023.0 -03497.3 -07.6542 26256.9
 22 10 2013  22 39  -21.0127 26023.8 -03497.7 -07.6548 26257.8
 22 10 2013  22 40  -21.0121 26024.2 -03497.9 -07.6552 26258.2
 22 10 2013  22 41  -21.0121 26024.4 -03498.1 -07.6555 26258.4
 22 10 2013  22 42  -21.0123 26024.4 -03498.1 -07.6555 26258.5
 22 10 2013  22 43  -21.0126 26024.5 -03498.1 -07.6556 26258.6
 22 10 2013  22 44  -21.0126 26024.8 -03498.2 -07.6557 26258.9
 22 10 2013  22 45  -21.0125 26025.0 -03498.4 -07.6560 26259.0
 22 10 2013  22 46  -21.0126 26025.0 -03498.3 -07.6559 26259.1
 22 10 2013  22 47  -21.0126 26025.1 -03498.3 -07.6559 26259.2
 22 10 2013  22 48  -21.0127 26024.9 -03498.3 -07.6558 26259.0
 22 10 2013  22 49  -21.0129 26025.0 -03498.3 -07.6558 26259.1
 22 10 2013  22 50  -21.0131 26024.9 -03498.2 -07.6557 26259.0
 22 10 2013  22 51  -21.0135 26024.8 -03498.2 -07.6557 26258.9
 22 10 2013  22 52  -21.0137 26024.6 -03498.1 -07.6556 26258.6
 22 10 2013  22 53  -21.0139 26024.4 -03498.0 -07.6555 26258.4
 22 10 2013  22 54  -21.0140 26024.3 -03498.0 -07.6554 26258.4
 22 10 2013  22 55  -21.0143 26024.1 -03497.9 -07.6553 26258.1
 22 10 2013  22 56  -21.0143 26024.1 -03497.9 -07.6552 26258.2
 22 10 2013  22 57  -21.0142 26024.3 -03498.0 -07.6554 26258.4
 22 10 2013  22 58  -21.0145 26024.0 -03497.9 -07.6553 26258.0
 22 10 2013  22 59  -21.0147 26023.9 -03497.9 -07.6552 26257.9
 22 10 2013  23 00  -21.0149 26023.8 -03497.8 -07.6552 26257.8
 22 10 2013  23 01  -21.0153 26023.6 -03497.9 -07.6553 26257.6
 22 10 2013  23 02  -21.0155 26023.5 -03497.8 -07.6552 26257.5
 22 10 2013  23 03  -21.0154 26023.6 -03497.9 -07.6553 26257.6
 22 10 2013  23 04  -21.0153 26023.5 -03497.8 -07.6553 26257.5
 22 10 2013  23 05  -21.0151 26023.4 -03497.8 -07.6552 26257.4
 22 10 2013  23 06  -21.0148 26023.3 -03497.8 -07.6553 26257.4
 22 10 2013  23 07  -21.0144 26023.5 -03497.9 -07.6554 26257.5
 22 10 2013  23 08  -21.0140 26023.4 -03497.9 -07.6554 26257.5
 22 10 2013  23 09  -21.0139 26023.7 -03498.1 -07.6558 26257.7
 22 10 2013  23 10  -21.0136 26023.8 -03498.2 -07.6560 26257.9
 22 10 2013  23 11  -21.0137 26023.6 -03498.2 -07.6560 26257.7
 22 10 2013  23 12  -21.0137 26023.5 -03498.2 -07.6560 26257.6
 22 10 2013  23 13  -21.0133 26023.5 -03498.2 -07.6560 26257.6
 22 10 2013  23 14  -21.0134 26023.2 -03498.1 -07.6559 26257.3
 22 10 2013  23 15  -21.0133 26023.1 -03498.0 -07.6558 26257.1
 22 10 2013  23 16  -21.0132 26022.9 -03498.0 -07.6558 26257.0
 22 10 2013  23 17  -21.0132 26023.1 -03498.1 -07.6559 26257.1
 22 10 2013  23 18  -21.0132 26023.2 -03498.2 -07.6562 26257.3
 22 10 2013  23 19  -21.0133 26023.4 -03498.3 -07.6564 26257.5
 22 10 2013  23 20  -21.0134 26023.5 -03498.4 -07.6565 26257.6
 22 10 2013  23 21  -21.0133 26023.5 -03498.4 -07.6566 26257.6
 22 10 2013  23 22  -21.0130 26023.8 -03498.6 -07.6568 26257.9
 22 10 2013  23 23  -21.0129 26023.8 -03498.6 -07.6568 26257.9
 22 10 2013  23 24  -21.0131 26023.8 -03498.6 -07.6569 26258.0
 22 10 2013  23 25  -21.0128 26023.9 -03498.7 -07.6569 26258.0
 22 10 2013  23 26  -21.0123 26023.9 -03498.6 -07.6568 26258.0
 22 10 2013  23 27  -21.0118 26023.6 -03498.5 -07.6566 26257.7
 22 10 2013  23 28  -21.0118 26023.2 -03498.3 -07.6564 26257.3
 22 10 2013  23 29  -21.0117 26022.8 -03498.1 -07.6560 26256.8
 22 10 2013  23 30  -21.0115 26022.4 -03497.9 -07.6557 26256.4
 22 10 2013  23 31  -21.0114 26022.1 -03497.8 -07.6556 26256.2
 22 10 2013  23 32  -21.0111 26021.9 -03497.7 -07.6555 26255.9
 22 10 2013  23 33  -21.0110 26021.6 -03497.6 -07.6553 26255.6
 22 10 2013  23 34  -21.0108 26021.5 -03497.6 -07.6553 26255.5
 22 10 2013  23 35  -21.0103 26021.7 -03497.7 -07.6556 26255.7
 22 10 2013  23 36  -21.0099 26021.7 -03497.8 -07.6557 26255.7
 22 10 2013  23 37  -21.0097 26021.7 -03497.9 -07.6560 26255.8
 22 10 2013  23 38  -21.0093 26021.7 -03498.0 -07.6562 26255.8
 22 10 2013  23 39  -21.0092 26021.6 -03498.0 -07.6562 26255.6
 22 10 2013  23 40  -21.0092 26021.4 -03497.9 -07.6561 26255.5
 22 10 2013  23 41  -21.0094 26021.1 -03497.9 -07.6560 26255.1
 22 10 2013  23 42  -21.0094 26021.0 -03497.9 -07.6560 26255.1
 22 10 2013  23 43  -21.0093 26020.9 -03497.9 -07.6561 26255.0
 22 10 2013  23 44  -21.0096 26020.7 -03497.8 -07.6560 26254.7
 22 10 2013  23 45  -21.0099 26020.5 -03497.8 -07.6560 26254.6
 22 10 2013  23 46  -21.0101 26020.4 -03497.7 -07.6560 26254.4
 22 10 2013  23 47  -21.0100 26020.5 -03497.8 -07.6561 26254.5
 22 10 2013  23 48  -21.0098 26020.5 -03497.9 -07.6562 26254.5
 22 10 2013  23 49  -21.0096 26020.7 -03497.9 -07.6563 26254.7
 22 10 2013  23 50  -21.0096 26020.6 -03498.0 -07.6564 26254.6
 22 10 2013  23 51  -21.0095 26020.7 -03498.0 -07.6565 26254.7
 22 10 2013  23 52  -21.0095 26020.6 -03498.0 -07.6565 26254.7
 22 10 2013  23 53  -21.0095 26020.6 -03498.0 -07.6565 26254.7
 22 10 2013  23 54  -21.0095 26020.6 -03498.1 -07.6566 26254.7
 22 10 2013  23 55  -21.0096 26020.7 -03498.1 -07.6567 26254.8
 22 10 2013  23 56  -21.0094 26020.7 -03498.1 -07.6567 26254.8
 22 10 2013  23 57  -21.0094 26020.7 -03498.1 -07.6566 26254.7
