SAO LUIS EMBRACE-03 <241> 1 Min. Reported data

 DD MM YYYY  HH MM   D(Deg)  H(nT)   Z(nT)   I(Deg)   F(nT)

 29 08 2013  00 00  -21.0309 26016.4 -03479.0 -07.6167 26248.0
 29 08 2013  00 01  -21.0309 26016.3 -03479.1 -07.6167 26247.9
 29 08 2013  00 02  -21.0309 26016.3 -03479.0 -07.6167 26247.9
 29 08 2013  00 03  -21.0309 26016.2 -03479.0 -07.6166 26247.8
 29 08 2013  00 04  -21.0309 26016.2 -03479.0 -07.6167 26247.8
 29 08 2013  00 05  -21.0310 26016.1 -03479.0 -07.6167 26247.7
 29 08 2013  00 06  -21.0313 26016.1 -03479.0 -07.6168 26247.6
 29 08 2013  00 07  -21.0314 26016.0 -03479.0 -07.6168 26247.6
 29 08 2013  00 08  -21.0314 26016.0 -03479.0 -07.6167 26247.5
 29 08 2013  00 09  -21.0315 26016.0 -03479.0 -07.6167 26247.5
 29 08 2013  00 10  -21.0316 26015.9 -03479.0 -07.6167 26247.5
 29 08 2013  00 11  -21.0315 26015.9 -03479.0 -07.6167 26247.5
 29 08 2013  00 12  -21.0314 26015.9 -03479.0 -07.6167 26247.5
 29 08 2013  00 13  -21.0313 26015.9 -03479.0 -07.6168 26247.5
 29 08 2013  00 14  -21.0313 26016.0 -03479.1 -07.6168 26247.6
 29 08 2013  00 15  -21.0313 26016.0 -03479.1 -07.6169 26247.6
 29 08 2013  00 16  -21.0312 26016.1 -03479.2 -07.6170 26247.7
 29 08 2013  00 17  -21.0312 26016.2 -03479.2 -07.6171 26247.8
 29 08 2013  00 18  -21.0313 26016.3 -03479.3 -07.6172 26247.9
 29 08 2013  00 19  -21.0312 26016.3 -03479.3 -07.6172 26247.9
 29 08 2013  00 20  -21.0310 26016.3 -03479.3 -07.6172 26247.9
 29 08 2013  00 21  -21.0309 26016.4 -03479.4 -07.6173 26248.1
 29 08 2013  00 22  -21.0309 26016.5 -03479.4 -07.6174 26248.1
 29 08 2013  00 23  -21.0308 26016.5 -03479.4 -07.6175 26248.1
 29 08 2013  00 24  -21.0308 26016.6 -03479.5 -07.6176 26248.3
 29 08 2013  00 25  -21.0307 26016.8 -03479.5 -07.6176 26248.4
 29 08 2013  00 26  -21.0307 26016.9 -03479.6 -07.6178 26248.6
 29 08 2013  00 27  -21.0306 26017.1 -03479.7 -07.6179 26248.7
 29 08 2013  00 28  -21.0304 26017.1 -03479.7 -07.6179 26248.8
 29 08 2013  00 29  -21.0303 26017.1 -03479.7 -07.6179 26248.8
 29 08 2013  00 30  -21.0301 26017.3 -03479.7 -07.6180 26248.9
 29 08 2013  00 31  -21.0300 26017.3 -03479.8 -07.6180 26249.0
 29 08 2013  00 32  -21.0299 26017.4 -03479.8 -07.6180 26249.0
 29 08 2013  00 33  -21.0297 26017.4 -03479.8 -07.6181 26249.1
 29 08 2013  00 34  -21.0295 26017.5 -03479.8 -07.6181 26249.2
 29 08 2013  00 35  -21.0294 26017.5 -03479.9 -07.6182 26249.2
 29 08 2013  00 36  -21.0293 26017.6 -03479.9 -07.6182 26249.3
 29 08 2013  00 37  -21.0293 26017.6 -03479.9 -07.6182 26249.3
 29 08 2013  00 38  -21.0292 26017.6 -03479.9 -07.6182 26249.3
 29 08 2013  00 39  -21.0292 26017.6 -03479.9 -07.6182 26249.3
 29 08 2013  00 40  -21.0291 26017.6 -03479.9 -07.6182 26249.3
 29 08 2013  00 41  -21.0291 26017.6 -03480.0 -07.6183 26249.3
 29 08 2013  00 42  -21.0293 26017.6 -03479.9 -07.6183 26249.3
 29 08 2013  00 43  -21.0295 26017.6 -03479.9 -07.6183 26249.3
 29 08 2013  00 44  -21.0295 26017.5 -03479.9 -07.6182 26249.2
 29 08 2013  00 45  -21.0297 26017.5 -03479.9 -07.6182 26249.2
 29 08 2013  00 46  -21.0298 26017.4 -03479.8 -07.6181 26249.1
 29 08 2013  00 47  -21.0298 26017.3 -03479.8 -07.6180 26249.0
 29 08 2013  00 48  -21.0298 26017.3 -03479.7 -07.6179 26248.9
 29 08 2013  00 49  -21.0297 26017.2 -03479.7 -07.6179 26248.8
 29 08 2013  00 50  -21.0298 26017.1 -03479.7 -07.6178 26248.7
 29 08 2013  00 51  -21.0297 26017.0 -03479.6 -07.6178 26248.7
 29 08 2013  00 52  -21.0297 26017.0 -03479.7 -07.6178 26248.7
 29 08 2013  00 53  -21.0297 26017.1 -03479.7 -07.6179 26248.7
 29 08 2013  00 54  -21.0297 26017.0 -03479.7 -07.6179 26248.7
 29 08 2013  00 55  -21.0296 26017.0 -03479.7 -07.6179 26248.7
 29 08 2013  00 56  -21.0297 26017.0 -03479.7 -07.6179 26248.6
 29 08 2013  00 57  -21.0296 26017.0 -03479.7 -07.6179 26248.6
 29 08 2013  00 58  -21.0296 26017.0 -03479.7 -07.6179 26248.6
 29 08 2013  00 59  -21.0295 26017.0 -03479.7 -07.6180 26248.7
 29 08 2013  01 00  -21.0295 26017.0 -03479.8 -07.6180 26248.7
 29 08 2013  01 01  -21.0294 26017.0 -03479.8 -07.6182 26248.7
 29 08 2013  01 02  -21.0293 26017.1 -03479.8 -07.6182 26248.8
 29 08 2013  01 03  -21.0293 26017.1 -03479.9 -07.6182 26248.8
 29 08 2013  01 04  -21.0292 26017.2 -03479.9 -07.6184 26248.9
 29 08 2013  01 05  -21.0293 26017.3 -03479.9 -07.6184 26249.0
 29 08 2013  01 06  -21.0293 26017.3 -03480.0 -07.6184 26249.0
 29 08 2013  01 07  -21.0294 26017.3 -03480.0 -07.6184 26249.0
 29 08 2013  01 08  -21.0294 26017.3 -03480.0 -07.6185 26249.1
 29 08 2013  01 09  -21.0295 26017.4 -03480.0 -07.6185 26249.1
 29 08 2013  01 10  -21.0295 26017.4 -03480.0 -07.6184 26249.0
 29 08 2013  01 11  -21.0294 26017.4 -03480.0 -07.6184 26249.1
 29 08 2013  01 12  -21.0294 26017.4 -03480.0 -07.6184 26249.1
 29 08 2013  01 13  -21.0294 26017.3 -03480.0 -07.6184 26249.0
 29 08 2013  01 14  -21.0294 26017.3 -03480.0 -07.6184 26249.0
 29 08 2013  01 15  -21.0295 26017.3 -03480.0 -07.6185 26249.0
 29 08 2013  01 16  -21.0296 26017.4 -03480.0 -07.6185 26249.1
 29 08 2013  01 17  -21.0295 26017.4 -03480.0 -07.6185 26249.2
 29 08 2013  01 18  -21.0295 26017.5 -03480.1 -07.6186 26249.2
 29 08 2013  01 19  -21.0295 26017.6 -03480.1 -07.6186 26249.3
 29 08 2013  01 20  -21.0295 26017.6 -03480.1 -07.6186 26249.3
 29 08 2013  01 21  -21.0295 26017.7 -03480.1 -07.6187 26249.4
 29 08 2013  01 22  -21.0294 26017.7 -03480.1 -07.6187 26249.4
 29 08 2013  01 23  -21.0294 26017.6 -03480.1 -07.6186 26249.4
 29 08 2013  01 24  -21.0293 26017.6 -03480.1 -07.6187 26249.4
 29 08 2013  01 25  -21.0293 26017.7 -03480.2 -07.6187 26249.4
 29 08 2013  01 26  -21.0292 26017.8 -03480.2 -07.6187 26249.5
 29 08 2013  01 27  -21.0292 26017.9 -03480.2 -07.6188 26249.6
 29 08 2013  01 28  -21.0291 26017.9 -03480.2 -07.6188 26249.6
 29 08 2013  01 29  -21.0290 26017.9 -03480.2 -07.6188 26249.6
 29 08 2013  01 30  -21.0289 26017.9 -03480.2 -07.6188 26249.7
 29 08 2013  01 31  -21.0289 26017.9 -03480.2 -07.6188 26249.6
 29 08 2013  01 32  -21.0288 26017.9 -03480.2 -07.6188 26249.6
 29 08 2013  01 33  -21.0286 26017.8 -03480.1 -07.6186 26249.5
 29 08 2013  01 34  -21.0285 26017.7 -03480.1 -07.6186 26249.4
 29 08 2013  01 35  -21.0284 26017.8 -03480.2 -07.6187 26249.5
 29 08 2013  01 36  -21.0282 26017.9 -03480.2 -07.6188 26249.7
 29 08 2013  01 37  -21.0280 26018.1 -03480.3 -07.6189 26249.8
 29 08 2013  01 38  -21.0279 26018.2 -03480.4 -07.6190 26250.0
 29 08 2013  01 39  -21.0279 26018.3 -03480.4 -07.6191 26250.0
 29 08 2013  01 40  -21.0279 26018.2 -03480.4 -07.6191 26249.9
 29 08 2013  01 41  -21.0279 26018.1 -03480.3 -07.6189 26249.8
 29 08 2013  01 42  -21.0281 26018.0 -03480.3 -07.6189 26249.8
 29 08 2013  01 43  -21.0281 26017.9 -03480.2 -07.6188 26249.7
 29 08 2013  01 44  -21.0282 26017.8 -03480.1 -07.6186 26249.5
 29 08 2013  01 45  -21.0282 26017.6 -03480.1 -07.6185 26249.3
 29 08 2013  01 46  -21.0281 26017.6 -03480.0 -07.6184 26249.3
 29 08 2013  01 47  -21.0280 26017.5 -03480.0 -07.6185 26249.2
 29 08 2013  01 48  -21.0280 26017.4 -03480.0 -07.6184 26249.1
 29 08 2013  01 49  -21.0280 26017.3 -03479.9 -07.6183 26249.0
 29 08 2013  01 50  -21.0280 26017.3 -03480.0 -07.6184 26249.0
 29 08 2013  01 51  -21.0279 26017.3 -03480.0 -07.6185 26249.0
 29 08 2013  01 52  -21.0278 26017.4 -03480.0 -07.6186 26249.1
 29 08 2013  01 53  -21.0275 26017.5 -03480.1 -07.6187 26249.3
 29 08 2013  01 54  -21.0273 26017.7 -03480.2 -07.6189 26249.4
 29 08 2013  01 55  -21.0273 26017.8 -03480.3 -07.6190 26249.5
 29 08 2013  01 56  -21.0273 26017.8 -03480.4 -07.6191 26249.6
 29 08 2013  01 57  -21.0274 26017.8 -03480.4 -07.6191 26249.6
 29 08 2013  01 58  -21.0273 26017.8 -03480.4 -07.6191 26249.6
 29 08 2013  01 59  -21.0273 26017.8 -03480.4 -07.6191 26249.5
 29 08 2013  02 00  -21.0271 26017.8 -03480.3 -07.6191 26249.5
 29 08 2013  02 01  -21.0270 26017.7 -03480.3 -07.6191 26249.5
 29 08 2013  02 02  -21.0268 26017.8 -03480.4 -07.6191 26249.6
 29 08 2013  02 03  -21.0267 26017.9 -03480.4 -07.6192 26249.6
 29 08 2013  02 04  -21.0267 26017.9 -03480.4 -07.6192 26249.7
 29 08 2013  02 05  -21.0267 26017.9 -03480.5 -07.6193 26249.6
 29 08 2013  02 06  -21.0267 26017.9 -03480.5 -07.6194 26249.7
 29 08 2013  02 07  -21.0266 26018.0 -03480.5 -07.6193 26249.7
 29 08 2013  02 08  -21.0266 26018.1 -03480.5 -07.6194 26249.9
 29 08 2013  02 09  -21.0266 26018.2 -03480.6 -07.6195 26250.0
 29 08 2013  02 10  -21.0265 26018.2 -03480.6 -07.6195 26250.0
 29 08 2013  02 11  -21.0265 26018.2 -03480.6 -07.6196 26249.9
 29 08 2013  02 12  -21.0265 26018.2 -03480.6 -07.6195 26250.0
 29 08 2013  02 13  -21.0264 26018.2 -03480.6 -07.6195 26249.9
 29 08 2013  02 14  -21.0264 26018.2 -03480.6 -07.6194 26250.0
 29 08 2013  02 15  -21.0263 26018.0 -03480.5 -07.6194 26249.8
 29 08 2013  02 16  -21.0262 26018.0 -03480.5 -07.6193 26249.8
 29 08 2013  02 17  -21.0261 26018.1 -03480.5 -07.6193 26249.8
 29 08 2013  02 18  -21.0261 26018.0 -03480.5 -07.6193 26249.8
 29 08 2013  02 19  -21.0262 26018.0 -03480.5 -07.6193 26249.8
 29 08 2013  02 20  -21.0262 26018.0 -03480.5 -07.6193 26249.8
 29 08 2013  02 21  -21.0262 26018.0 -03480.5 -07.6193 26249.7
 29 08 2013  02 22  -21.0262 26017.9 -03480.4 -07.6192 26249.7
 29 08 2013  02 23  -21.0262 26017.9 -03480.4 -07.6192 26249.7
 29 08 2013  02 24  -21.0261 26017.9 -03480.4 -07.6193 26249.7
 29 08 2013  02 25  -21.0261 26017.8 -03480.4 -07.6192 26249.6
 29 08 2013  02 26  -21.0260 26017.8 -03480.4 -07.6192 26249.6
 29 08 2013  02 27  -21.0260 26017.9 -03480.4 -07.6193 26249.6
 29 08 2013  02 28  -21.0259 26017.8 -03480.4 -07.6192 26249.6
 29 08 2013  02 29  -21.0258 26017.8 -03480.3 -07.6191 26249.6
 29 08 2013  02 30  -21.0258 26017.7 -03480.3 -07.6191 26249.5
 29 08 2013  02 31  -21.0257 26017.7 -03480.3 -07.6191 26249.5
 29 08 2013  02 32  -21.0258 26017.7 -03480.4 -07.6192 26249.4
 29 08 2013  02 33  -21.0258 26017.6 -03480.3 -07.6191 26249.4
 29 08 2013  02 34  -21.0259 26017.6 -03480.3 -07.6191 26249.3
 29 08 2013  02 35  -21.0258 26017.5 -03480.3 -07.6190 26249.3
 29 08 2013  02 36  -21.0258 26017.5 -03480.3 -07.6191 26249.3
 29 08 2013  02 37  -21.0257 26017.5 -03480.3 -07.6190 26249.2
 29 08 2013  02 38  -21.0257 26017.4 -03480.2 -07.6190 26249.1
 29 08 2013  02 39  -21.0256 26017.5 -03480.3 -07.6191 26249.3
 29 08 2013  02 40  -21.0255 26017.4 -03480.3 -07.6191 26249.2
 29 08 2013  02 41  -21.0255 26017.3 -03480.2 -07.6190 26249.0
 29 08 2013  02 42  -21.0256 26017.3 -03480.2 -07.6190 26249.0
 29 08 2013  02 43  -21.0255 26017.2 -03480.3 -07.6191 26249.0
 29 08 2013  02 44  -21.0256 26017.2 -03480.3 -07.6191 26249.0
 29 08 2013  02 45  -21.0257 26017.2 -03480.3 -07.6191 26248.9
 29 08 2013  02 46  -21.0258 26017.2 -03480.3 -07.6191 26248.9
 29 08 2013  02 47  -21.0258 26017.3 -03480.4 -07.6192 26249.1
 29 08 2013  02 48  -21.0258 26017.4 -03480.4 -07.6193 26249.1
 29 08 2013  02 49  -21.0258 26017.7 -03480.5 -07.6195 26249.5
 29 08 2013  02 50  -21.0259 26017.7 -03480.6 -07.6196 26249.4
 29 08 2013  02 51  -21.0258 26017.8 -03480.6 -07.6196 26249.6
 29 08 2013  02 52  -21.0258 26017.9 -03480.7 -07.6198 26249.7
 29 08 2013  02 53  -21.0259 26017.8 -03480.6 -07.6196 26249.6
 29 08 2013  02 54  -21.0260 26017.7 -03480.5 -07.6195 26249.5
 29 08 2013  02 55  -21.0261 26017.7 -03480.4 -07.6193 26249.5
 29 08 2013  02 56  -21.0261 26017.7 -03480.4 -07.6193 26249.5
 29 08 2013  02 57  -21.0260 26017.7 -03480.4 -07.6193 26249.5
 29 08 2013  02 58  -21.0260 26017.8 -03480.5 -07.6195 26249.6
 29 08 2013  02 59  -21.0260 26017.9 -03480.5 -07.6194 26249.6
 29 08 2013  03 00  -21.0260 26017.9 -03480.5 -07.6194 26249.6
 29 08 2013  03 01  -21.0261 26017.8 -03480.5 -07.6194 26249.6
 29 08 2013  03 02  -21.0262 26017.7 -03480.4 -07.6193 26249.5
 29 08 2013  03 03  -21.0262 26017.6 -03480.4 -07.6192 26249.4
 29 08 2013  03 04  -21.0262 26017.6 -03480.4 -07.6192 26249.3
 29 08 2013  03 05  -21.0263 26017.5 -03480.3 -07.6191 26249.3
 29 08 2013  03 06  -21.0264 26017.5 -03480.3 -07.6191 26249.3
 29 08 2013  03 07  -21.0264 26017.5 -03480.4 -07.6192 26249.3
 29 08 2013  03 08  -21.0264 26017.6 -03480.4 -07.6192 26249.4
 29 08 2013  03 09  -21.0265 26017.7 -03480.4 -07.6193 26249.4
 29 08 2013  03 10  -21.0265 26017.7 -03480.4 -07.6193 26249.5
 29 08 2013  03 11  -21.0265 26017.7 -03480.4 -07.6193 26249.5
 29 08 2013  03 12  -21.0265 26017.8 -03480.4 -07.6193 26249.6
 29 08 2013  03 13  -21.0266 26017.8 -03480.4 -07.6193 26249.6
 29 08 2013  03 14  -21.0267 26017.9 -03480.4 -07.6193 26249.6
 29 08 2013  03 15  -21.0267 26017.9 -03480.4 -07.6192 26249.6
 29 08 2013  03 16  -21.0267 26017.8 -03480.4 -07.6192 26249.6
 29 08 2013  03 17  -21.0267 26017.8 -03480.4 -07.6191 26249.6
 29 08 2013  03 18  -21.0266 26017.8 -03480.3 -07.6191 26249.5
 29 08 2013  03 19  -21.0265 26017.8 -03480.3 -07.6191 26249.5
 29 08 2013  03 20  -21.0264 26017.8 -03480.4 -07.6191 26249.6
 29 08 2013  03 21  -21.0263 26017.9 -03480.3 -07.6191 26249.7
 29 08 2013  03 22  -21.0263 26017.9 -03480.4 -07.6191 26249.6
 29 08 2013  03 23  -21.0262 26017.8 -03480.3 -07.6190 26249.6
 29 08 2013  03 24  -21.0262 26017.8 -03480.3 -07.6190 26249.5
 29 08 2013  03 25  -21.0263 26017.7 -03480.2 -07.6189 26249.4
 29 08 2013  03 26  -21.0263 26017.7 -03480.3 -07.6190 26249.4
 29 08 2013  03 27  -21.0263 26017.6 -03480.3 -07.6190 26249.4
 29 08 2013  03 28  -21.0263 26017.7 -03480.3 -07.6190 26249.4
 29 08 2013  03 29  -21.0263 26017.7 -03480.3 -07.6190 26249.5
 29 08 2013  03 30  -21.0263 26017.8 -03480.3 -07.6191 26249.5
 29 08 2013  03 31  -21.0262 26017.9 -03480.4 -07.6191 26249.6
 29 08 2013  03 32  -21.0261 26018.0 -03480.4 -07.6192 26249.7
 29 08 2013  03 33  -21.0260 26018.1 -03480.5 -07.6193 26249.8
 29 08 2013  03 34  -21.0259 26018.2 -03480.5 -07.6193 26249.9
 29 08 2013  03 35  -21.0258 26018.3 -03480.6 -07.6194 26250.1
 29 08 2013  03 36  -21.0256 26018.4 -03480.6 -07.6195 26250.1
 29 08 2013  03 37  -21.0255 26018.4 -03480.6 -07.6194 26250.2
 29 08 2013  03 38  -21.0253 26018.4 -03480.6 -07.6195 26250.2
 29 08 2013  03 39  -21.0253 26018.5 -03480.6 -07.6195 26250.2
 29 08 2013  03 40  -21.0252 26018.5 -03480.6 -07.6195 26250.3
 29 08 2013  03 41  -21.0252 26018.5 -03480.7 -07.6196 26250.3
 29 08 2013  03 42  -21.0252 26018.5 -03480.6 -07.6195 26250.3
 29 08 2013  03 43  -21.0252 26018.5 -03480.6 -07.6195 26250.3
 29 08 2013  03 44  -21.0253 26018.5 -03480.6 -07.6195 26250.3
 29 08 2013  03 45  -21.0253 26018.5 -03480.6 -07.6195 26250.2
 29 08 2013  03 46  -21.0253 26018.4 -03480.6 -07.6194 26250.2
 29 08 2013  03 47  -21.0255 26018.5 -03480.6 -07.6194 26250.2
 29 08 2013  03 48  -21.0255 26018.4 -03480.6 -07.6194 26250.2
 29 08 2013  03 49  -21.0256 26018.4 -03480.6 -07.6194 26250.2
 29 08 2013  03 50  -21.0256 26018.4 -03480.6 -07.6194 26250.2
 29 08 2013  03 51  -21.0256 26018.4 -03480.5 -07.6193 26250.2
 29 08 2013  03 52  -21.0255 26018.4 -03480.5 -07.6193 26250.1
 29 08 2013  03 53  -21.0255 26018.4 -03480.5 -07.6192 26250.2
 29 08 2013  03 54  -21.0256 26018.4 -03480.5 -07.6193 26250.2
 29 08 2013  03 55  -21.0257 26018.3 -03480.5 -07.6193 26250.1
 29 08 2013  03 56  -21.0256 26018.4 -03480.5 -07.6192 26250.2
 29 08 2013  03 57  -21.0255 26018.5 -03480.6 -07.6194 26250.3
 29 08 2013  03 58  -21.0255 26018.6 -03480.6 -07.6194 26250.4
 29 08 2013  03 59  -21.0253 26018.8 -03480.7 -07.6196 26250.6
 29 08 2013  04 00  -21.0256 26018.7 -03480.6 -07.6194 26250.5
 29 08 2013  04 01  -21.0255 26018.8 -03480.7 -07.6196 26250.6
 29 08 2013  04 02  -21.0254 26018.9 -03480.7 -07.6196 26250.6
 29 08 2013  04 03  -21.0252 26019.1 -03480.8 -07.6196 26250.9
 29 08 2013  04 04  -21.0254 26018.9 -03480.7 -07.6195 26250.7
 29 08 2013  04 05  -21.0251 26018.9 -03480.7 -07.6195 26250.7
 29 08 2013  04 06  -21.0253 26018.9 -03480.6 -07.6193 26250.6
 29 08 2013  04 07  -21.0253 26019.0 -03480.7 -07.6195 26250.8
 29 08 2013  04 08  -21.0251 26019.6 -03481.0 -07.6199 26251.4
 29 08 2013  04 09  -21.0253 26018.9 -03480.7 -07.6195 26250.7
 29 08 2013  04 10  -21.0247 26019.9 -03481.0 -07.6199 26251.8
 29 08 2013  04 11  -21.0251 26020.0 -03481.1 -07.6201 26251.8
 29 08 2013  04 12  -21.0248 26020.1 -03481.2 -07.6202 26252.0
 29 08 2013  04 13  -21.0247 26020.1 -03481.1 -07.6201 26252.0
 29 08 2013  04 14  -21.0246 26020.2 -03481.1 -07.6200 26252.0
 29 08 2013  04 15  -21.0245 26020.3 -03481.1 -07.6200 26252.1
 29 08 2013  04 16  -21.0244 26020.3 -03481.1 -07.6201 26252.1
 29 08 2013  04 17  -21.0242 26020.0 -03480.9 -07.6197 26251.9
 29 08 2013  04 18  -21.0241 26020.0 -03480.9 -07.6196 26251.8
 29 08 2013  04 19  -21.0241 26019.9 -03480.9 -07.6196 26251.7
 29 08 2013  04 20  -21.0241 26019.8 -03480.8 -07.6195 26251.6
 29 08 2013  04 21  -21.0241 26019.7 -03480.7 -07.6194 26251.5
 29 08 2013  04 22  -21.0240 26019.4 -03480.7 -07.6193 26251.2
 29 08 2013  04 23  -21.0240 26019.4 -03480.6 -07.6192 26251.2
 29 08 2013  04 24  -21.0240 26019.5 -03480.7 -07.6193 26251.3
 29 08 2013  04 25  -21.0238 26019.5 -03480.7 -07.6194 26251.3
 29 08 2013  04 26  -21.0238 26019.5 -03480.7 -07.6194 26251.3
 29 08 2013  04 27  -21.0238 26019.5 -03480.7 -07.6194 26251.2
 29 08 2013  04 28  -21.0236 26019.6 -03480.8 -07.6195 26251.4
 29 08 2013  04 29  -21.0234 26019.8 -03480.9 -07.6197 26251.6
 29 08 2013  04 30  -21.0234 26019.8 -03481.0 -07.6198 26251.6
 29 08 2013  04 31  -21.0234 26019.9 -03481.0 -07.6199 26251.7
 29 08 2013  04 32  -21.0234 26020.0 -03481.1 -07.6200 26251.9
 29 08 2013  04 33  -21.0234 26020.1 -03481.1 -07.6200 26251.9
 29 08 2013  04 34  -21.0234 26020.1 -03481.1 -07.6200 26251.9
 29 08 2013  04 35  -21.0234 26020.2 -03481.1 -07.6200 26252.0
 29 08 2013  04 36  -21.0234 26020.4 -03481.2 -07.6202 26252.3
 29 08 2013  04 37  -21.0236 26020.2 -03481.2 -07.6201 26252.0
 29 08 2013  04 38  -21.0235 26020.5 -03481.2 -07.6202 26252.4
 29 08 2013  04 39  -21.0237 26020.4 -03481.2 -07.6201 26252.2
 29 08 2013  04 40  -21.0238 26020.4 -03481.2 -07.6201 26252.3
 29 08 2013  04 41  -21.0240 26020.4 -03481.2 -07.6202 26252.3
 29 08 2013  04 42  -21.0240 26020.3 -03481.1 -07.6199 26252.2
 29 08 2013  04 43  -21.0241 26020.5 -03481.1 -07.6200 26252.3
 29 08 2013  04 44  -21.0241 26020.2 -03481.0 -07.6198 26252.1
 29 08 2013  04 45  -21.0241 26020.3 -03481.0 -07.6198 26252.1
 29 08 2013  04 46  -21.0241 26020.3 -03481.0 -07.6198 26252.1
 29 08 2013  04 47  -21.0241 26020.0 -03480.8 -07.6195 26251.8
 29 08 2013  04 48  -21.0241 26020.2 -03480.9 -07.6196 26252.0
 29 08 2013  04 49  -21.0240 26020.3 -03481.0 -07.6197 26252.1
 29 08 2013  04 50  -21.0241 26020.2 -03480.9 -07.6196 26252.0
 29 08 2013  04 51  -21.0239 26020.5 -03481.0 -07.6197 26252.3
 29 08 2013  04 52  -21.0241 26020.3 -03481.0 -07.6197 26252.1
 29 08 2013  04 53  -21.0240 26020.5 -03481.0 -07.6197 26252.3
 29 08 2013  04 54  -21.0242 26020.5 -03481.0 -07.6197 26252.3
 29 08 2013  04 55  -21.0242 26020.5 -03481.0 -07.6197 26252.3
 29 08 2013  04 56  -21.0244 26020.4 -03480.9 -07.6196 26252.2
 29 08 2013  04 57  -21.0244 26020.5 -03480.9 -07.6196 26252.3
 29 08 2013  04 58  -21.0245 26020.4 -03480.9 -07.6195 26252.2
 29 08 2013  04 59  -21.0245 26020.4 -03480.9 -07.6195 26252.2
 29 08 2013  05 00  -21.0244 26020.3 -03480.8 -07.6193 26252.1
 29 08 2013  05 01  -21.0241 26020.3 -03480.7 -07.6192 26252.1
 29 08 2013  05 02  -21.0239 26020.3 -03480.7 -07.6191 26252.1
 29 08 2013  05 03  -21.0237 26020.4 -03480.8 -07.6192 26252.2
 29 08 2013  05 04  -21.0236 26020.4 -03480.8 -07.6192 26252.2
 29 08 2013  05 05  -21.0234 26020.5 -03480.8 -07.6192 26252.2
 29 08 2013  05 06  -21.0234 26020.5 -03480.8 -07.6193 26252.3
 29 08 2013  05 07  -21.0232 26020.6 -03480.9 -07.6194 26252.4
 29 08 2013  05 08  -21.0232 26020.5 -03480.8 -07.6193 26252.3
 29 08 2013  05 09  -21.0230 26020.5 -03480.8 -07.6192 26252.3
 29 08 2013  05 10  -21.0227 26020.4 -03480.7 -07.6192 26252.2
 29 08 2013  05 11  -21.0227 26020.4 -03480.7 -07.6192 26252.2
 29 08 2013  05 12  -21.0225 26020.4 -03480.7 -07.6191 26252.1
 29 08 2013  05 13  -21.0225 26020.3 -03480.7 -07.6192 26252.1
 29 08 2013  05 14  -21.0225 26020.2 -03480.7 -07.6191 26252.0
 29 08 2013  05 15  -21.0225 26020.2 -03480.7 -07.6191 26252.0
 29 08 2013  05 16  -21.0224 26020.2 -03480.6 -07.6191 26251.9
 29 08 2013  05 17  -21.0221 26020.2 -03480.6 -07.6190 26251.9
 29 08 2013  05 18  -21.0220 26020.2 -03480.6 -07.6190 26252.0
 29 08 2013  05 19  -21.0219 26020.2 -03480.7 -07.6192 26252.0
 29 08 2013  05 20  -21.0219 26020.3 -03480.8 -07.6193 26252.0
 29 08 2013  05 21  -21.0219 26020.2 -03480.8 -07.6193 26252.0
 29 08 2013  05 22  -21.0217 26020.3 -03480.8 -07.6193 26252.1
 29 08 2013  05 23  -21.0215 26020.3 -03480.8 -07.6193 26252.0
 29 08 2013  05 24  -21.0212 26020.3 -03480.8 -07.6193 26252.1
 29 08 2013  05 25  -21.0212 26020.3 -03480.8 -07.6193 26252.1
 29 08 2013  05 26  -21.0213 26020.3 -03480.8 -07.6194 26252.1
 29 08 2013  05 27  -21.0214 26020.3 -03480.9 -07.6195 26252.1
 29 08 2013  05 28  -21.0214 26020.4 -03480.9 -07.6195 26252.2
 29 08 2013  05 29  -21.0215 26020.4 -03481.0 -07.6197 26252.2
 29 08 2013  05 30  -21.0215 26020.5 -03481.0 -07.6197 26252.3
 29 08 2013  05 31  -21.0215 26020.4 -03480.9 -07.6196 26252.2
 29 08 2013  05 32  -21.0216 26020.4 -03480.9 -07.6196 26252.2
 29 08 2013  05 33  -21.0216 26020.4 -03480.9 -07.6196 26252.2
 29 08 2013  05 34  -21.0217 26020.4 -03481.0 -07.6197 26252.2
 29 08 2013  05 35  -21.0218 26020.4 -03481.0 -07.6197 26252.2
 29 08 2013  05 36  -21.0220 26020.4 -03481.0 -07.6197 26252.2
 29 08 2013  05 37  -21.0220 26020.5 -03481.0 -07.6197 26252.3
 29 08 2013  05 38  -21.0220 26020.5 -03481.0 -07.6197 26252.3
 29 08 2013  05 39  -21.0220 26020.5 -03481.0 -07.6197 26252.3
 29 08 2013  05 40  -21.0220 26020.5 -03481.0 -07.6198 26252.3
 29 08 2013  05 41  -21.0219 26020.6 -03481.1 -07.6198 26252.4
 29 08 2013  05 42  -21.0217 26020.6 -03481.1 -07.6198 26252.4
 29 08 2013  05 43  -21.0217 26020.6 -03481.1 -07.6199 26252.4
 29 08 2013  05 44  -21.0216 26020.6 -03481.1 -07.6199 26252.5
 29 08 2013  05 45  -21.0215 26020.6 -03481.2 -07.6200 26252.5
 29 08 2013  05 46  -21.0215 26020.7 -03481.2 -07.6200 26252.5
 29 08 2013  05 47  -21.0215 26020.6 -03481.1 -07.6200 26252.5
 29 08 2013  05 48  -21.0214 26020.6 -03481.2 -07.6200 26252.5
 29 08 2013  05 49  -21.0214 26020.6 -03481.1 -07.6200 26252.5
 29 08 2013  05 50  -21.0213 26020.7 -03481.1 -07.6200 26252.5
 29 08 2013  05 51  -21.0213 26020.7 -03481.2 -07.6200 26252.5
 29 08 2013  05 52  -21.0211 26020.7 -03481.1 -07.6200 26252.5
 29 08 2013  05 53  -21.0209 26020.7 -03481.2 -07.6201 26252.5
 29 08 2013  05 54  -21.0208 26020.7 -03481.2 -07.6201 26252.5
 29 08 2013  05 55  -21.0207 26020.7 -03481.2 -07.6201 26252.6
 29 08 2013  05 56  -21.0204 26020.7 -03481.2 -07.6201 26252.6
 29 08 2013  05 57  -21.0202 26020.7 -03481.2 -07.6202 26252.5
 29 08 2013  05 58  -21.0200 26020.7 -03481.2 -07.6202 26252.6
 29 08 2013  05 59  -21.0198 26020.7 -03481.2 -07.6202 26252.5
 29 08 2013  06 00  -21.0196 26020.7 -03481.3 -07.6203 26252.5
 29 08 2013  06 01  -21.0195 26020.6 -03481.3 -07.6202 26252.5
 29 08 2013  06 02  -21.0194 26020.6 -03481.3 -07.6203 26252.4
 29 08 2013  06 03  -21.0194 26020.6 -03481.3 -07.6203 26252.4
 29 08 2013  06 04  -21.0193 26020.5 -03481.3 -07.6203 26252.4
 29 08 2013  06 05  -21.0192 26020.5 -03481.3 -07.6203 26252.3
 29 08 2013  06 06  -21.0190 26020.5 -03481.3 -07.6205 26252.4
 29 08 2013  06 07  -21.0189 26020.5 -03481.4 -07.6206 26252.4
 29 08 2013  06 08  -21.0188 26020.5 -03481.4 -07.6206 26252.4
 29 08 2013  06 09  -21.0187 26020.6 -03481.4 -07.6206 26252.4
 29 08 2013  06 10  -21.0185 26020.6 -03481.5 -07.6208 26252.5
 29 08 2013  06 11  -21.0184 26020.6 -03481.5 -07.6208 26252.4
 29 08 2013  06 12  -21.0182 26020.6 -03481.5 -07.6209 26252.5
 29 08 2013  06 13  -21.0182 26020.6 -03481.6 -07.6209 26252.5
 29 08 2013  06 14  -21.0181 26020.7 -03481.6 -07.6209 26252.6
 29 08 2013  06 15  -21.0181 26020.7 -03481.6 -07.6210 26252.6
 29 08 2013  06 16  -21.0179 26020.7 -03481.7 -07.6211 26252.6
 29 08 2013  06 17  -21.0178 26020.7 -03481.6 -07.6211 26252.6
 29 08 2013  06 18  -21.0179 26020.6 -03481.7 -07.6211 26252.5
 29 08 2013  06 19  -21.0179 26020.6 -03481.7 -07.6211 26252.5
 29 08 2013  06 20  -21.0180 26020.6 -03481.6 -07.6211 26252.5
 29 08 2013  06 21  -21.0180 26020.6 -03481.7 -07.6211 26252.5
 29 08 2013  06 22  -21.0179 26020.6 -03481.7 -07.6212 26252.5
 29 08 2013  06 23  -21.0178 26020.6 -03481.7 -07.6212 26252.5
 29 08 2013  06 24  -21.0177 26020.7 -03481.7 -07.6213 26252.6
 29 08 2013  06 25  -21.0176 26020.7 -03481.7 -07.6212 26252.6
 29 08 2013  06 26  -21.0174 26020.7 -03481.8 -07.6214 26252.7
 29 08 2013  06 27  -21.0171 26020.8 -03481.8 -07.6214 26252.7
 29 08 2013  06 28  -21.0170 26020.8 -03481.8 -07.6214 26252.7
 29 08 2013  06 29  -21.0167 26020.8 -03481.8 -07.6214 26252.7
 29 08 2013  06 30  -21.0164 26020.8 -03481.9 -07.6215 26252.7
 29 08 2013  06 31  -21.0162 26020.8 -03481.8 -07.6215 26252.7
 29 08 2013  06 32  -21.0161 26020.7 -03481.9 -07.6215 26252.7
 29 08 2013  06 33  -21.0161 26020.8 -03481.9 -07.6216 26252.7
 29 08 2013  06 34  -21.0161 26020.7 -03481.9 -07.6216 26252.6
 29 08 2013  06 35  -21.0165 26020.6 -03481.9 -07.6216 26252.5
 29 08 2013  06 36  -21.0168 26020.5 -03481.8 -07.6216 26252.4
 29 08 2013  06 37  -21.0169 26020.5 -03481.8 -07.6215 26252.4
 29 08 2013  06 38  -21.0169 26020.5 -03481.9 -07.6216 26252.4
 29 08 2013  06 39  -21.0169 26020.5 -03481.8 -07.6215 26252.5
 29 08 2013  06 40  -21.0168 26020.6 -03481.9 -07.6217 26252.6
 29 08 2013  06 41  -21.0169 26020.7 -03482.0 -07.6217 26252.6
 29 08 2013  06 42  -21.0170 26020.7 -03482.0 -07.6218 26252.6
 29 08 2013  06 43  -21.0169 26020.7 -03482.0 -07.6218 26252.7
 29 08 2013  06 44  -21.0169 26020.8 -03482.0 -07.6218 26252.7
 29 08 2013  06 45  -21.0167 26020.8 -03482.1 -07.6219 26252.7
 29 08 2013  06 46  -21.0167 26020.8 -03482.1 -07.6219 26252.7
 29 08 2013  06 47  -21.0166 26020.8 -03482.1 -07.6219 26252.7
 29 08 2013  06 48  -21.0165 26020.8 -03482.0 -07.6218 26252.7
 29 08 2013  06 49  -21.0164 26020.8 -03482.0 -07.6219 26252.7
 29 08 2013  06 50  -21.0162 26020.7 -03482.0 -07.6218 26252.6
 29 08 2013  06 51  -21.0161 26020.6 -03481.9 -07.6217 26252.6
 29 08 2013  06 52  -21.0160 26020.5 -03481.9 -07.6217 26252.4
 29 08 2013  06 53  -21.0159 26020.5 -03481.9 -07.6217 26252.4
 29 08 2013  06 54  -21.0157 26020.4 -03481.9 -07.6217 26252.4
 29 08 2013  06 55  -21.0155 26020.4 -03481.9 -07.6218 26252.4
 29 08 2013  06 56  -21.0156 26020.4 -03482.0 -07.6218 26252.4
 29 08 2013  06 57  -21.0156 26020.5 -03482.0 -07.6219 26252.4
 29 08 2013  06 58  -21.0158 26020.5 -03482.0 -07.6220 26252.4
 29 08 2013  06 59  -21.0159 26020.5 -03482.1 -07.6220 26252.5
 29 08 2013  07 00  -21.0159 26020.6 -03482.1 -07.6221 26252.5
 29 08 2013  07 01  -21.0160 26020.6 -03482.2 -07.6222 26252.6
 29 08 2013  07 02  -21.0159 26020.7 -03482.2 -07.6222 26252.6
 29 08 2013  07 03  -21.0159 26020.7 -03482.2 -07.6223 26252.7
 29 08 2013  07 04  -21.0159 26020.8 -03482.2 -07.6223 26252.7
 29 08 2013  07 05  -21.0158 26020.8 -03482.2 -07.6223 26252.8
 29 08 2013  07 06  -21.0159 26020.9 -03482.3 -07.6224 26252.8
 29 08 2013  07 07  -21.0159 26020.9 -03482.2 -07.6223 26252.8
 29 08 2013  07 08  -21.0159 26020.8 -03482.2 -07.6223 26252.8
 29 08 2013  07 09  -21.0159 26020.8 -03482.2 -07.6222 26252.8
 29 08 2013  07 10  -21.0158 26020.7 -03482.2 -07.6222 26252.7
 29 08 2013  07 11  -21.0158 26020.8 -03482.2 -07.6223 26252.8
 29 08 2013  07 12  -21.0158 26020.8 -03482.2 -07.6223 26252.8
 29 08 2013  07 13  -21.0156 26020.9 -03482.2 -07.6223 26252.9
 29 08 2013  07 14  -21.0154 26020.9 -03482.2 -07.6223 26252.9
 29 08 2013  07 15  -21.0153 26020.9 -03482.2 -07.6223 26252.9
 29 08 2013  07 16  -21.0150 26021.0 -03482.3 -07.6224 26253.0
 29 08 2013  07 17  -21.0148 26021.0 -03482.3 -07.6224 26252.9
 29 08 2013  07 18  -21.0148 26021.0 -03482.3 -07.6225 26253.0
 29 08 2013  07 19  -21.0146 26021.0 -03482.3 -07.6224 26253.0
 29 08 2013  07 20  -21.0145 26021.0 -03482.3 -07.6225 26253.0
 29 08 2013  07 21  -21.0143 26021.1 -03482.3 -07.6225 26253.1
 29 08 2013  07 22  -21.0141 26021.1 -03482.4 -07.6225 26253.1
 29 08 2013  07 23  -21.0138 26021.1 -03482.3 -07.6225 26253.1
 29 08 2013  07 24  -21.0137 26021.1 -03482.3 -07.6225 26253.1
 29 08 2013  07 25  -21.0136 26021.1 -03482.4 -07.6225 26253.1
 29 08 2013  07 26  -21.0135 26021.1 -03482.4 -07.6225 26253.1
 29 08 2013  07 27  -21.0135 26021.1 -03482.4 -07.6226 26253.1
 29 08 2013  07 28  -21.0136 26021.1 -03482.5 -07.6227 26253.1
 29 08 2013  07 29  -21.0135 26021.1 -03482.4 -07.6226 26253.1
 29 08 2013  07 30  -21.0135 26021.1 -03482.4 -07.6226 26253.1
 29 08 2013  07 31  -21.0134 26021.1 -03482.5 -07.6227 26253.1
 29 08 2013  07 32  -21.0134 26021.1 -03482.4 -07.6226 26253.1
 29 08 2013  07 33  -21.0133 26021.1 -03482.4 -07.6226 26253.1
 29 08 2013  07 34  -21.0133 26021.1 -03482.4 -07.6226 26253.1
 29 08 2013  07 35  -21.0132 26021.1 -03482.4 -07.6226 26253.1
 29 08 2013  07 36  -21.0130 26021.2 -03482.4 -07.6226 26253.2
 29 08 2013  07 37  -21.0128 26021.3 -03482.4 -07.6226 26253.3
 29 08 2013  07 38  -21.0127 26021.3 -03482.4 -07.6226 26253.3
 29 08 2013  07 39  -21.0126 26021.3 -03482.5 -07.6227 26253.3
 29 08 2013  07 40  -21.0126 26021.4 -03482.5 -07.6227 26253.4
 29 08 2013  07 41  -21.0126 26021.4 -03482.5 -07.6227 26253.4
 29 08 2013  07 42  -21.0126 26021.3 -03482.5 -07.6227 26253.3
 29 08 2013  07 43  -21.0124 26021.3 -03482.4 -07.6226 26253.3
 29 08 2013  07 44  -21.0123 26021.3 -03482.4 -07.6226 26253.3
 29 08 2013  07 45  -21.0121 26021.3 -03482.4 -07.6226 26253.3
 29 08 2013  07 46  -21.0120 26021.3 -03482.4 -07.6225 26253.3
 29 08 2013  07 47  -21.0118 26021.1 -03482.3 -07.6224 26253.1
 29 08 2013  07 48  -21.0117 26021.2 -03482.4 -07.6225 26253.2
 29 08 2013  07 49  -21.0117 26021.2 -03482.4 -07.6225 26253.2
 29 08 2013  07 50  -21.0116 26021.3 -03482.4 -07.6226 26253.3
 29 08 2013  07 51  -21.0115 26021.2 -03482.4 -07.6225 26253.2
 29 08 2013  07 52  -21.0114 26021.2 -03482.4 -07.6226 26253.2
 29 08 2013  07 53  -21.0113 26021.2 -03482.4 -07.6225 26253.2
 29 08 2013  07 54  -21.0111 26021.2 -03482.4 -07.6226 26253.2
 29 08 2013  07 55  -21.0111 26021.2 -03482.4 -07.6226 26253.2
 29 08 2013  07 56  -21.0110 26021.3 -03482.4 -07.6226 26253.3
 29 08 2013  07 57  -21.0108 26021.4 -03482.5 -07.6227 26253.4
 29 08 2013  07 58  -21.0107 26021.4 -03482.5 -07.6227 26253.4
 29 08 2013  07 59  -21.0104 26021.4 -03482.5 -07.6226 26253.4
 29 08 2013  08 00  -21.0102 26021.4 -03482.5 -07.6226 26253.4
 29 08 2013  08 01  -21.0102 26021.4 -03482.5 -07.6227 26253.4
 29 08 2013  08 02  -21.0100 26021.4 -03482.5 -07.6227 26253.4
 29 08 2013  08 03  -21.0097 26021.4 -03482.4 -07.6226 26253.4
 29 08 2013  08 04  -21.0096 26021.4 -03482.5 -07.6226 26253.4
 29 08 2013  08 05  -21.0094 26021.3 -03482.4 -07.6226 26253.3
 29 08 2013  08 06  -21.0092 26021.3 -03482.4 -07.6226 26253.3
 29 08 2013  08 07  -21.0089 26021.1 -03482.4 -07.6225 26253.1
 29 08 2013  08 08  -21.0087 26021.3 -03482.4 -07.6226 26253.3
 29 08 2013  08 09  -21.0085 26021.0 -03482.4 -07.6225 26253.0
 29 08 2013  08 10  -21.0086 26021.3 -03482.5 -07.6227 26253.3
 29 08 2013  08 11  -21.0085 26021.2 -03482.4 -07.6226 26253.2
 29 08 2013  08 12  -21.0084 26021.4 -03482.5 -07.6227 26253.4
 29 08 2013  08 13  -21.0082 26021.4 -03482.5 -07.6228 26253.4
 29 08 2013  08 14  -21.0078 26021.6 -03482.6 -07.6229 26253.6
 29 08 2013  08 15  -21.0076 26021.6 -03482.6 -07.6229 26253.6
 29 08 2013  08 16  -21.0073 26021.7 -03482.6 -07.6229 26253.7
 29 08 2013  08 17  -21.0069 26021.7 -03482.6 -07.6229 26253.7
 29 08 2013  08 18  -21.0064 26021.9 -03482.7 -07.6230 26253.9
 29 08 2013  08 19  -21.0059 26021.8 -03482.6 -07.6229 26253.8
 29 08 2013  08 20  -21.0056 26021.8 -03482.6 -07.6228 26253.8
 29 08 2013  08 21  -21.0055 26021.6 -03482.6 -07.6228 26253.6
 29 08 2013  08 22  -21.0055 26021.6 -03482.6 -07.6229 26253.7
 29 08 2013  08 23  -21.0056 26021.6 -03482.7 -07.6230 26253.7
 29 08 2013  08 24  -21.0057 26021.6 -03482.7 -07.6230 26253.6
 29 08 2013  08 25  -21.0056 26021.6 -03482.7 -07.6231 26253.6
 29 08 2013  08 26  -21.0055 26021.6 -03482.7 -07.6230 26253.7
 29 08 2013  08 27  -21.0055 26021.8 -03482.7 -07.6230 26253.8
 29 08 2013  08 28  -21.0054 26021.8 -03482.7 -07.6230 26253.8
 29 08 2013  08 29  -21.0052 26021.7 -03482.6 -07.6229 26253.7
 29 08 2013  08 30  -21.0049 26021.7 -03482.6 -07.6228 26253.7
 29 08 2013  08 31  -21.0044 26021.8 -03482.6 -07.6227 26253.8
 29 08 2013  08 32  -21.0039 26021.7 -03482.5 -07.6226 26253.7
 29 08 2013  08 33  -21.0033 26021.7 -03482.5 -07.6226 26253.7
 29 08 2013  08 34  -21.0029 26021.7 -03482.5 -07.6226 26253.7
 29 08 2013  08 35  -21.0024 26021.6 -03482.4 -07.6225 26253.6
 29 08 2013  08 36  -21.0017 26021.6 -03482.3 -07.6223 26253.6
 29 08 2013  08 37  -21.0011 26021.7 -03482.4 -07.6225 26253.7
 29 08 2013  08 38  -21.0007 26021.7 -03482.5 -07.6225 26253.7
 29 08 2013  08 39  -21.0003 26021.6 -03482.5 -07.6226 26253.6
 29 08 2013  08 40  -20.9998 26021.5 -03482.4 -07.6225 26253.5
 29 08 2013  08 41  -20.9994 26021.5 -03482.3 -07.6223 26253.5
 29 08 2013  08 42  -20.9988 26021.3 -03482.3 -07.6223 26253.3
 29 08 2013  08 43  -20.9984 26021.5 -03482.5 -07.6227 26253.5
 29 08 2013  08 44  -20.9979 26021.5 -03482.5 -07.6228 26253.5
 29 08 2013  08 45  -20.9974 26021.5 -03482.6 -07.6229 26253.5
 29 08 2013  08 46  -20.9970 26021.6 -03482.7 -07.6231 26253.7
 29 08 2013  08 47  -20.9966 26021.7 -03482.8 -07.6233 26253.7
 29 08 2013  08 48  -20.9964 26021.7 -03482.9 -07.6235 26253.7
 29 08 2013  08 49  -20.9960 26021.7 -03483.0 -07.6237 26253.8
 29 08 2013  08 50  -20.9952 26021.8 -03483.1 -07.6238 26253.9
 29 08 2013  08 51  -20.9947 26021.9 -03483.1 -07.6239 26253.9
 29 08 2013  08 52  -20.9943 26021.7 -03483.1 -07.6239 26253.8
 29 08 2013  08 53  -20.9940 26021.6 -03483.1 -07.6240 26253.7
 29 08 2013  08 54  -20.9937 26021.5 -03483.2 -07.6241 26253.5
 29 08 2013  08 55  -20.9933 26021.4 -03483.2 -07.6242 26253.5
 29 08 2013  08 56  -20.9932 26021.4 -03483.3 -07.6245 26253.5
 29 08 2013  08 57  -20.9928 26021.5 -03483.4 -07.6246 26253.6
 29 08 2013  08 58  -20.9924 26021.5 -03483.5 -07.6248 26253.7
 29 08 2013  08 59  -20.9921 26021.5 -03483.6 -07.6250 26253.6
 29 08 2013  09 00  -20.9916 26021.4 -03483.6 -07.6250 26253.6
 29 08 2013  09 01  -20.9913 26021.3 -03483.7 -07.6252 26253.5
 29 08 2013  09 02  -20.9909 26021.3 -03483.8 -07.6255 26253.5
 29 08 2013  09 03  -20.9905 26021.3 -03483.9 -07.6257 26253.5
 29 08 2013  09 04  -20.9904 26021.3 -03484.0 -07.6259 26253.5
 29 08 2013  09 05  -20.9902 26021.2 -03484.0 -07.6261 26253.4
 29 08 2013  09 06  -20.9897 26021.1 -03484.1 -07.6262 26253.3
 29 08 2013  09 07  -20.9897 26021.0 -03484.2 -07.6264 26253.2
 29 08 2013  09 08  -20.9898 26020.9 -03484.3 -07.6267 26253.1
 29 08 2013  09 09  -20.9897 26020.9 -03484.4 -07.6270 26253.1
 29 08 2013  09 10  -20.9895 26020.9 -03484.5 -07.6273 26253.2
 29 08 2013  09 11  -20.9894 26020.9 -03484.7 -07.6275 26253.2
 29 08 2013  09 12  -20.9893 26020.9 -03484.8 -07.6278 26253.2
 29 08 2013  09 13  -20.9890 26020.9 -03484.9 -07.6280 26253.2
 29 08 2013  09 14  -20.9889 26020.9 -03485.0 -07.6282 26253.2
 29 08 2013  09 15  -20.9886 26020.9 -03485.0 -07.6282 26253.3
 29 08 2013  09 16  -20.9886 26020.8 -03485.2 -07.6287 26253.2
 29 08 2013  09 17  -20.9885 26020.8 -03485.3 -07.6290 26253.1
 29 08 2013  09 18  -20.9885 26020.7 -03485.4 -07.6293 26253.1
 29 08 2013  09 19  -20.9887 26020.7 -03485.6 -07.6297 26253.1
 29 08 2013  09 20  -20.9888 26020.6 -03485.8 -07.6300 26253.1
 29 08 2013  09 21  -20.9888 26020.4 -03485.9 -07.6302 26252.9
 29 08 2013  09 22  -20.9887 26020.3 -03485.9 -07.6305 26252.7
 29 08 2013  09 23  -20.9887 26020.2 -03486.0 -07.6307 26252.6
 29 08 2013  09 24  -20.9884 26020.1 -03486.1 -07.6310 26252.6
 29 08 2013  09 25  -20.9883 26020.1 -03486.3 -07.6313 26252.6
 29 08 2013  09 26  -20.9882 26020.2 -03486.3 -07.6313 26252.7
 29 08 2013  09 27  -20.9882 26020.1 -03486.6 -07.6319 26252.7
 29 08 2013  09 28  -20.9882 26020.0 -03486.7 -07.6323 26252.6
 29 08 2013  09 29  -20.9885 26020.0 -03486.9 -07.6327 26252.6
 29 08 2013  09 30  -20.9891 26020.0 -03487.1 -07.6330 26252.6
 29 08 2013  09 31  -20.9896 26019.9 -03487.2 -07.6333 26252.5
 29 08 2013  09 32  -20.9894 26019.8 -03487.3 -07.6335 26252.4
 29 08 2013  09 33  -20.9890 26019.6 -03487.3 -07.6337 26252.3
 29 08 2013  09 34  -20.9891 26019.6 -03487.5 -07.6340 26252.3
 29 08 2013  09 35  -20.9893 26019.6 -03487.6 -07.6343 26252.3
 29 08 2013  09 36  -20.9897 26019.5 -03487.8 -07.6347 26252.2
 29 08 2013  09 37  -20.9901 26019.4 -03487.9 -07.6349 26252.2
 29 08 2013  09 38  -20.9903 26019.5 -03488.0 -07.6351 26252.2
 29 08 2013  09 39  -20.9905 26019.4 -03488.1 -07.6354 26252.2
 29 08 2013  09 40  -20.9907 26019.5 -03488.2 -07.6357 26252.2
 29 08 2013  09 41  -20.9908 26019.5 -03488.3 -07.6359 26252.3
 29 08 2013  09 42  -20.9908 26019.5 -03488.5 -07.6361 26252.3
 29 08 2013  09 43  -20.9910 26019.8 -03488.6 -07.6364 26252.6
 29 08 2013  09 44  -20.9912 26019.8 -03488.8 -07.6367 26252.7
 29 08 2013  09 45  -20.9914 26019.8 -03488.9 -07.6369 26252.7
 29 08 2013  09 46  -20.9917 26019.9 -03488.9 -07.6371 26252.8
 29 08 2013  09 47  -20.9916 26019.9 -03489.1 -07.6373 26252.8
 29 08 2013  09 48  -20.9918 26019.9 -03489.1 -07.6375 26252.8
 29 08 2013  09 49  -20.9921 26019.9 -03489.2 -07.6377 26252.8
 29 08 2013  09 50  -20.9926 26020.0 -03489.4 -07.6380 26252.9
 29 08 2013  09 51  -20.9932 26019.9 -03489.5 -07.6382 26252.9
 29 08 2013  09 52  -20.9931 26019.9 -03489.5 -07.6384 26252.9
 29 08 2013  09 53  -20.9933 26019.9 -03489.6 -07.6385 26252.8
 29 08 2013  09 54  -20.9936 26019.9 -03489.7 -07.6387 26252.9
 29 08 2013  09 55  -20.9942 26019.8 -03489.8 -07.6389 26252.8
 29 08 2013  09 56  -20.9946 26019.9 -03489.9 -07.6391 26252.8
 29 08 2013  09 57  -20.9953 26020.0 -03490.0 -07.6394 26253.0
 29 08 2013  09 58  -20.9957 26020.0 -03490.1 -07.6396 26253.1
 29 08 2013  09 59  -20.9961 26020.1 -03490.2 -07.6398 26253.1
 29 08 2013  10 00  -20.9964 26020.2 -03490.3 -07.6400 26253.2
 29 08 2013  10 01  -20.9969 26020.2 -03490.5 -07.6403 26253.3
 29 08 2013  10 02  -20.9975 26020.3 -03490.6 -07.6405 26253.3
 29 08 2013  10 03  -20.9981 26020.3 -03490.7 -07.6408 26253.4
 29 08 2013  10 04  -20.9986 26020.4 -03490.8 -07.6410 26253.5
 29 08 2013  10 05  -20.9990 26020.4 -03490.9 -07.6412 26253.5
 29 08 2013  10 06  -20.9997 26020.3 -03491.0 -07.6413 26253.5
 29 08 2013  10 07  -21.0002 26020.3 -03491.1 -07.6415 26253.5
 29 08 2013  10 08  -21.0008 26020.5 -03491.2 -07.6418 26253.6
 29 08 2013  10 09  -21.0012 26020.5 -03491.3 -07.6420 26253.7
 29 08 2013  10 10  -21.0014 26020.6 -03491.4 -07.6422 26253.8
 29 08 2013  10 11  -21.0016 26020.7 -03491.5 -07.6424 26253.9
 29 08 2013  10 12  -21.0023 26020.8 -03491.7 -07.6427 26254.0
 29 08 2013  10 13  -21.0029 26020.9 -03491.8 -07.6430 26254.1
 29 08 2013  10 14  -21.0034 26020.8 -03491.8 -07.6430 26254.1
 29 08 2013  10 15  -21.0037 26020.8 -03491.8 -07.6430 26254.1
 29 08 2013  10 16  -21.0043 26020.8 -03491.9 -07.6432 26254.1
 29 08 2013  10 17  -21.0048 26020.7 -03491.9 -07.6433 26254.0
 29 08 2013  10 18  -21.0055 26020.6 -03491.9 -07.6434 26253.8
 29 08 2013  10 19  -21.0064 26020.4 -03492.0 -07.6435 26253.6
 29 08 2013  10 20  -21.0076 26020.2 -03492.0 -07.6437 26253.5
 29 08 2013  10 21  -21.0086 26020.1 -03492.1 -07.6439 26253.4
 29 08 2013  10 22  -21.0096 26020.1 -03492.2 -07.6442 26253.4
 29 08 2013  10 23  -21.0104 26020.1 -03492.4 -07.6445 26253.4
 29 08 2013  10 24  -21.0106 26020.2 -03492.5 -07.6447 26253.5
 29 08 2013  10 25  -21.0103 26020.2 -03492.5 -07.6448 26253.5
 29 08 2013  10 26  -21.0102 26020.2 -03492.6 -07.6450 26253.6
 29 08 2013  10 27  -21.0103 26020.3 -03492.8 -07.6452 26253.7
 29 08 2013  10 28  -21.0106 26020.3 -03492.8 -07.6454 26253.7
 29 08 2013  10 29  -21.0113 26020.3 -03492.9 -07.6456 26253.7
 29 08 2013  10 30  -21.0118 26020.5 -03493.1 -07.6458 26253.9
 29 08 2013  10 31  -21.0122 26020.7 -03493.2 -07.6460 26254.1
 29 08 2013  10 32  -21.0125 26020.8 -03493.3 -07.6462 26254.3
 29 08 2013  10 33  -21.0132 26021.0 -03493.4 -07.6464 26254.4
 29 08 2013  10 34  -21.0136 26021.1 -03493.5 -07.6466 26254.6
 29 08 2013  10 35  -21.0143 26021.3 -03493.6 -07.6468 26254.8
 29 08 2013  10 36  -21.0146 26021.6 -03493.7 -07.6469 26255.1
 29 08 2013  10 37  -21.0147 26021.9 -03493.9 -07.6471 26255.4
 29 08 2013  10 38  -21.0150 26022.2 -03494.0 -07.6473 26255.7
 29 08 2013  10 39  -21.0154 26022.4 -03494.0 -07.6473 26256.0
 29 08 2013  10 40  -21.0159 26022.6 -03494.1 -07.6474 26256.1
 29 08 2013  10 41  -21.0162 26022.8 -03494.1 -07.6474 26256.3
 29 08 2013  10 42  -21.0165 26023.0 -03494.2 -07.6475 26256.5
 29 08 2013  10 43  -21.0168 26023.3 -03494.3 -07.6476 26256.9
 29 08 2013  10 44  -21.0168 26023.4 -03494.3 -07.6476 26257.0
 29 08 2013  10 45  -21.0168 26023.6 -03494.2 -07.6475 26257.1
 29 08 2013  10 46  -21.0169 26023.8 -03494.3 -07.6475 26257.3
 29 08 2013  10 47  -21.0170 26024.0 -03494.3 -07.6474 26257.6
 29 08 2013  10 48  -21.0173 26024.1 -03494.3 -07.6474 26257.7
 29 08 2013  10 49  -21.0180 26024.2 -03494.2 -07.6473 26257.8
 29 08 2013  10 50  -21.0190 26024.4 -03494.3 -07.6473 26257.9
 29 08 2013  10 51  -21.0199 26024.5 -03494.3 -07.6473 26258.0
 29 08 2013  10 52  -21.0207 26024.5 -03494.3 -07.6473 26258.1
 29 08 2013  10 53  -21.0213 26024.7 -03494.3 -07.6474 26258.2
 29 08 2013  10 54  -21.0215 26024.8 -03494.3 -07.6473 26258.4
 29 08 2013  10 55  -21.0217 26024.9 -03494.3 -07.6471 26258.4
 29 08 2013  10 56  -21.0219 26025.1 -03494.3 -07.6472 26258.6
 29 08 2013  10 57  -21.0224 26025.4 -03494.3 -07.6471 26258.9
 29 08 2013  10 58  -21.0226 26025.8 -03494.4 -07.6472 26259.4
 29 08 2013  10 59  -21.0229 26026.1 -03494.4 -07.6472 26259.7
 29 08 2013  11 00  -21.0231 26026.4 -03494.4 -07.6470 26259.9
 29 08 2013  11 01  -21.0238 26026.6 -03494.4 -07.6470 26260.1
 29 08 2013  11 02  -21.0245 26026.9 -03494.5 -07.6469 26260.5
 29 08 2013  11 03  -21.0252 26027.0 -03494.4 -07.6468 26260.5
 29 08 2013  11 04  -21.0262 26027.3 -03494.4 -07.6467 26260.9
 29 08 2013  11 05  -21.0267 26027.7 -03494.4 -07.6466 26261.2
 29 08 2013  11 06  -21.0269 26028.2 -03494.4 -07.6465 26261.7
 29 08 2013  11 07  -21.0273 26028.5 -03494.4 -07.6463 26262.0
 29 08 2013  11 08  -21.0279 26028.9 -03494.3 -07.6460 26262.4
 29 08 2013  11 09  -21.0286 26029.0 -03494.2 -07.6457 26262.5
 29 08 2013  11 10  -21.0293 26029.3 -03494.1 -07.6454 26262.8
 29 08 2013  11 11  -21.0298 26029.6 -03494.0 -07.6452 26263.1
 29 08 2013  11 12  -21.0301 26029.8 -03493.9 -07.6449 26263.3
 29 08 2013  11 13  -21.0306 26029.9 -03493.7 -07.6444 26263.3
 29 08 2013  11 14  -21.0311 26030.1 -03493.7 -07.6444 26263.5
 29 08 2013  11 15  -21.0316 26030.2 -03493.6 -07.6441 26263.6
 29 08 2013  11 16  -21.0323 26030.3 -03493.5 -07.6440 26263.7
 29 08 2013  11 17  -21.0330 26030.4 -03493.5 -07.6438 26263.7
 29 08 2013  11 18  -21.0338 26030.5 -03493.4 -07.6437 26263.8
 29 08 2013  11 19  -21.0346 26030.6 -03493.4 -07.6436 26263.9
 29 08 2013  11 20  -21.0353 26030.6 -03493.3 -07.6434 26264.0
 29 08 2013  11 21  -21.0363 26030.6 -03493.3 -07.6433 26264.0
 29 08 2013  11 22  -21.0370 26030.6 -03493.2 -07.6432 26264.0
 29 08 2013  11 23  -21.0372 26030.7 -03493.2 -07.6431 26264.1
 29 08 2013  11 24  -21.0373 26031.0 -03493.2 -07.6430 26264.3
 29 08 2013  11 25  -21.0376 26031.3 -03493.2 -07.6430 26264.7
 29 08 2013  11 26  -21.0378 26031.4 -03493.1 -07.6428 26264.8
 29 08 2013  11 27  -21.0381 26031.5 -03493.0 -07.6425 26264.8
 29 08 2013  11 28  -21.0384 26031.3 -03492.8 -07.6422 26264.6
 29 08 2013  11 29  -21.0389 26031.1 -03492.6 -07.6418 26264.3
 29 08 2013  11 30  -21.0393 26030.9 -03492.5 -07.6416 26264.2
 29 08 2013  11 31  -21.0395 26030.8 -03492.4 -07.6415 26264.1
 29 08 2013  11 32  -21.0399 26031.0 -03492.5 -07.6415 26264.2
 29 08 2013  11 33  -21.0400 26031.2 -03492.5 -07.6415 26264.4
 29 08 2013  11 34  -21.0403 26031.3 -03492.5 -07.6415 26264.6
 29 08 2013  11 35  -21.0405 26031.6 -03492.5 -07.6414 26264.8
 29 08 2013  11 36  -21.0406 26031.7 -03492.5 -07.6414 26264.9
 29 08 2013  11 37  -21.0404 26032.0 -03492.5 -07.6413 26265.3
 29 08 2013  11 38  -21.0404 26032.3 -03492.5 -07.6412 26265.5
 29 08 2013  11 39  -21.0404 26032.7 -03492.6 -07.6412 26265.9
 29 08 2013  11 40  -21.0403 26033.1 -03492.6 -07.6411 26266.4
 29 08 2013  11 41  -21.0405 26033.3 -03492.5 -07.6409 26266.5
 29 08 2013  11 42  -21.0405 26033.3 -03492.3 -07.6405 26266.5
 29 08 2013  11 43  -21.0406 26033.5 -03492.3 -07.6404 26266.7
 29 08 2013  11 44  -21.0408 26034.0 -03492.4 -07.6404 26267.2
 29 08 2013  11 45  -21.0409 26034.3 -03492.4 -07.6403 26267.5
 29 08 2013  11 46  -21.0412 26034.7 -03492.3 -07.6400 26267.9
 29 08 2013  11 47  -21.0417 26035.0 -03492.2 -07.6398 26268.2
 29 08 2013  11 48  -21.0419 26035.3 -03492.1 -07.6395 26268.4
 29 08 2013  11 49  -21.0421 26035.5 -03492.0 -07.6392 26268.6
 29 08 2013  11 50  -21.0423 26035.8 -03491.9 -07.6390 26268.9
 29 08 2013  11 51  -21.0426 26036.2 -03491.9 -07.6388 26269.3
 29 08 2013  11 52  -21.0429 26036.5 -03491.8 -07.6385 26269.6
 29 08 2013  11 53  -21.0430 26036.7 -03491.7 -07.6381 26269.7
 29 08 2013  11 54  -21.0430 26036.8 -03491.5 -07.6377 26269.9
 29 08 2013  11 55  -21.0430 26037.0 -03491.3 -07.6372 26270.0
 29 08 2013  11 56  -21.0431 26037.2 -03491.2 -07.6369 26270.2
 29 08 2013  11 57  -21.0434 26037.5 -03491.1 -07.6366 26270.5
 29 08 2013  11 58  -21.0436 26037.7 -03491.0 -07.6363 26270.7
 29 08 2013  11 59  -21.0439 26037.9 -03490.8 -07.6359 26270.9
 29 08 2013  12 00  -21.0440 26038.1 -03490.7 -07.6355 26271.1
 29 08 2013  12 01  -21.0439 26038.5 -03490.6 -07.6352 26271.4
 29 08 2013  12 02  -21.0438 26038.6 -03490.4 -07.6348 26271.5
 29 08 2013  12 03  -21.0437 26038.6 -03490.2 -07.6343 26271.4
 29 08 2013  12 04  -21.0439 26038.6 -03490.0 -07.6340 26271.5
 29 08 2013  12 05  -21.0441 26038.7 -03489.9 -07.6337 26271.6
 29 08 2013  12 06  -21.0442 26039.0 -03489.9 -07.6335 26271.8
 29 08 2013  12 07  -21.0443 26039.2 -03489.8 -07.6332 26272.0
 29 08 2013  12 08  -21.0446 26039.1 -03489.6 -07.6328 26271.9
 29 08 2013  12 09  -21.0448 26039.2 -03489.4 -07.6325 26271.9
 29 08 2013  12 10  -21.0449 26039.2 -03489.3 -07.6322 26272.0
 29 08 2013  12 11  -21.0449 26039.4 -03489.2 -07.6320 26272.1
 29 08 2013  12 12  -21.0447 26039.6 -03489.2 -07.6318 26272.4
 29 08 2013  12 13  -21.0447 26039.8 -03489.1 -07.6315 26272.6
 29 08 2013  12 14  -21.0448 26039.9 -03488.9 -07.6313 26272.6
 29 08 2013  12 15  -21.0451 26040.0 -03488.8 -07.6310 26272.7
 29 08 2013  12 16  -21.0451 26040.1 -03488.7 -07.6308 26272.8
 29 08 2013  12 17  -21.0449 26040.0 -03488.6 -07.6305 26272.7
 29 08 2013  12 18  -21.0448 26039.8 -03488.4 -07.6301 26272.5
 29 08 2013  12 19  -21.0447 26039.6 -03488.3 -07.6299 26272.2
 29 08 2013  12 20  -21.0447 26039.5 -03488.1 -07.6297 26272.1
 29 08 2013  12 21  -21.0447 26039.4 -03488.1 -07.6296 26272.0
 29 08 2013  12 22  -21.0447 26039.4 -03488.1 -07.6295 26272.0
 29 08 2013  12 23  -21.0446 26039.4 -03488.0 -07.6294 26272.0
 29 08 2013  12 24  -21.0446 26039.2 -03487.9 -07.6293 26271.8
 29 08 2013  12 25  -21.0445 26039.1 -03487.9 -07.6292 26271.7
 29 08 2013  12 26  -21.0444 26039.2 -03487.9 -07.6291 26271.8
 29 08 2013  12 27  -21.0445 26039.4 -03487.9 -07.6292 26271.9
 29 08 2013  12 28  -21.0445 26039.5 -03487.9 -07.6292 26272.1
 29 08 2013  12 29  -21.0444 26039.6 -03487.9 -07.6290 26272.2
 29 08 2013  12 30  -21.0443 26039.8 -03487.9 -07.6291 26272.3
 29 08 2013  12 31  -21.0444 26039.9 -03487.9 -07.6290 26272.5
 29 08 2013  12 32  -21.0447 26039.9 -03487.9 -07.6290 26272.4
 29 08 2013  12 33  -21.0452 26040.0 -03487.9 -07.6289 26272.5
 29 08 2013  12 34  -21.0456 26040.2 -03487.9 -07.6290 26272.8
 29 08 2013  12 35  -21.0459 26040.5 -03488.0 -07.6290 26273.1
 29 08 2013  12 36  -21.0462 26040.9 -03488.0 -07.6290 26273.5
 29 08 2013  12 37  -21.0464 26041.2 -03488.0 -07.6289 26273.8
 29 08 2013  12 38  -21.0466 26041.6 -03488.1 -07.6289 26274.2
 29 08 2013  12 39  -21.0470 26042.2 -03488.1 -07.6289 26274.7
 29 08 2013  12 40  -21.0473 26042.6 -03488.2 -07.6289 26275.2
 29 08 2013  12 41  -21.0476 26043.0 -03488.2 -07.6289 26275.6
 29 08 2013  12 42  -21.0478 26043.3 -03488.2 -07.6287 26275.9
 29 08 2013  12 43  -21.0481 26043.6 -03488.2 -07.6285 26276.1
 29 08 2013  12 44  -21.0483 26043.6 -03488.1 -07.6283 26276.2
 29 08 2013  12 45  -21.0485 26043.5 -03487.9 -07.6280 26276.1
 29 08 2013  12 46  -21.0488 26043.4 -03487.8 -07.6279 26275.9
 29 08 2013  12 47  -21.0493 26043.2 -03487.8 -07.6278 26275.7
 29 08 2013  12 48  -21.0499 26043.1 -03487.8 -07.6279 26275.6
 29 08 2013  12 49  -21.0504 26043.3 -03487.9 -07.6281 26275.8
 29 08 2013  12 50  -21.0510 26043.6 -03488.1 -07.6284 26276.2
 29 08 2013  12 51  -21.0516 26044.1 -03488.3 -07.6286 26276.7
 29 08 2013  12 52  -21.0519 26044.5 -03488.3 -07.6286 26277.1
 29 08 2013  12 53  -21.0521 26044.6 -03488.2 -07.6283 26277.1
 29 08 2013  12 54  -21.0523 26044.7 -03488.2 -07.6282 26277.2
 29 08 2013  12 55  -21.0524 26044.8 -03488.1 -07.6280 26277.3
 29 08 2013  12 56  -21.0525 26044.6 -03488.0 -07.6278 26277.2
 29 08 2013  12 57  -21.0526 26044.6 -03488.0 -07.6278 26277.1
 29 08 2013  12 58  -21.0529 26044.6 -03488.0 -07.6278 26277.1
 29 08 2013  12 59  -21.0532 26044.7 -03488.0 -07.6279 26277.2
 29 08 2013  13 00  -21.0535 26044.8 -03488.0 -07.6279 26277.3
 29 08 2013  13 01  -21.0537 26045.0 -03488.1 -07.6280 26277.6
 29 08 2013  13 02  -21.0538 26045.0 -03488.1 -07.6280 26277.6
 29 08 2013  13 03  -21.0539 26045.1 -03488.2 -07.6281 26277.7
 29 08 2013  13 04  -21.0541 26045.2 -03488.1 -07.6280 26277.8
 29 08 2013  13 05  -21.0544 26045.5 -03488.2 -07.6281 26278.0
 29 08 2013  13 06  -21.0546 26045.6 -03488.2 -07.6280 26278.1
 29 08 2013  13 07  -21.0549 26045.7 -03488.1 -07.6278 26278.3
 29 08 2013  13 08  -21.0552 26045.8 -03488.1 -07.6277 26278.3
 29 08 2013  13 09  -21.0554 26045.9 -03488.0 -07.6276 26278.4
 29 08 2013  13 10  -21.0558 26046.0 -03488.0 -07.6275 26278.5
 29 08 2013  13 11  -21.0563 26046.1 -03487.9 -07.6273 26278.6
 29 08 2013  13 12  -21.0567 26046.5 -03488.1 -07.6275 26279.1
 29 08 2013  13 13  -21.0573 26047.2 -03488.2 -07.6276 26279.7
 29 08 2013  13 14  -21.0578 26047.7 -03488.3 -07.6275 26280.2
 29 08 2013  13 15  -21.0583 26048.2 -03488.3 -07.6275 26280.8
 29 08 2013  13 16  -21.0586 26048.6 -03488.2 -07.6272 26281.1
 29 08 2013  13 17  -21.0588 26048.9 -03488.1 -07.6270 26281.4
 29 08 2013  13 18  -21.0591 26049.1 -03488.1 -07.6268 26281.6
 29 08 2013  13 19  -21.0594 26049.6 -03488.1 -07.6266 26282.1
 29 08 2013  13 20  -21.0597 26049.8 -03488.0 -07.6264 26282.3
 29 08 2013  13 21  -21.0600 26050.0 -03487.9 -07.6261 26282.4
 29 08 2013  13 22  -21.0604 26050.3 -03487.9 -07.6260 26282.8
 29 08 2013  13 23  -21.0608 26050.4 -03487.8 -07.6257 26282.8
 29 08 2013  13 24  -21.0610 26050.6 -03487.7 -07.6255 26283.0
 29 08 2013  13 25  -21.0612 26050.7 -03487.6 -07.6253 26283.2
 29 08 2013  13 26  -21.0614 26051.0 -03487.6 -07.6251 26283.4
 29 08 2013  13 27  -21.0617 26051.0 -03487.5 -07.6249 26283.4
 29 08 2013  13 28  -21.0618 26050.9 -03487.4 -07.6247 26283.2
 29 08 2013  13 29  -21.0622 26051.0 -03487.4 -07.6248 26283.4
 29 08 2013  13 30  -21.0625 26050.9 -03487.3 -07.6246 26283.3
 29 08 2013  13 31  -21.0629 26050.8 -03487.3 -07.6245 26283.2
 29 08 2013  13 32  -21.0633 26050.6 -03487.2 -07.6244 26283.0
 29 08 2013  13 33  -21.0638 26050.7 -03487.3 -07.6245 26283.1
 29 08 2013  13 34  -21.0644 26050.9 -03487.4 -07.6247 26283.3
 29 08 2013  13 35  -21.0646 26050.9 -03487.3 -07.6246 26283.2
 29 08 2013  13 36  -21.0647 26050.6 -03487.3 -07.6246 26283.0
 29 08 2013  13 37  -21.0647 26050.4 -03487.2 -07.6246 26282.8
 29 08 2013  13 38  -21.0647 26050.3 -03487.2 -07.6246 26282.6
 29 08 2013  13 39  -21.0648 26050.1 -03487.3 -07.6248 26282.4
 29 08 2013  13 40  -21.0649 26050.0 -03487.3 -07.6248 26282.4
 29 08 2013  13 41  -21.0650 26049.9 -03487.3 -07.6249 26282.3
 29 08 2013  13 42  -21.0652 26049.8 -03487.3 -07.6249 26282.2
 29 08 2013  13 43  -21.0654 26049.8 -03487.3 -07.6249 26282.2
 29 08 2013  13 44  -21.0659 26050.0 -03487.4 -07.6250 26282.4
 29 08 2013  13 45  -21.0660 26050.1 -03487.4 -07.6250 26282.4
 29 08 2013  13 46  -21.0660 26050.3 -03487.4 -07.6250 26282.7
 29 08 2013  13 47  -21.0660 26050.7 -03487.5 -07.6250 26283.1
 29 08 2013  13 48  -21.0662 26051.1 -03487.6 -07.6251 26283.5
 29 08 2013  13 49  -21.0663 26051.6 -03487.6 -07.6250 26284.0
 29 08 2013  13 50  -21.0662 26052.1 -03487.6 -07.6249 26284.5
 29 08 2013  13 51  -21.0660 26052.3 -03487.5 -07.6245 26284.7
 29 08 2013  13 52  -21.0657 26052.4 -03487.3 -07.6242 26284.8
 29 08 2013  13 53  -21.0651 26052.5 -03487.2 -07.6238 26284.8
 29 08 2013  13 54  -21.0649 26052.7 -03487.1 -07.6237 26285.0
 29 08 2013  13 55  -21.0646 26052.7 -03487.0 -07.6235 26285.0
 29 08 2013  13 56  -21.0644 26052.7 -03486.9 -07.6233 26285.0
 29 08 2013  13 57  -21.0641 26052.6 -03486.8 -07.6231 26284.9
 29 08 2013  13 58  -21.0637 26052.2 -03486.7 -07.6229 26284.5
 29 08 2013  13 59  -21.0633 26052.0 -03486.7 -07.6230 26284.3
 29 08 2013  14 00  -21.0632 26052.0 -03486.8 -07.6231 26284.3
 29 08 2013  14 01  -21.0629 26051.8 -03486.7 -07.6231 26284.1
 29 08 2013  14 02  -21.0626 26051.7 -03486.8 -07.6233 26284.0
 29 08 2013  14 03  -21.0623 26051.6 -03486.9 -07.6235 26283.9
 29 08 2013  14 04  -21.0623 26051.6 -03487.0 -07.6237 26283.9
 29 08 2013  14 05  -21.0622 26051.5 -03487.0 -07.6238 26283.9
 29 08 2013  14 06  -21.0620 26051.4 -03487.0 -07.6238 26283.7
 29 08 2013  14 07  -21.0617 26051.3 -03487.0 -07.6239 26283.6
 29 08 2013  14 08  -21.0615 26051.2 -03487.1 -07.6240 26283.6
 29 08 2013  14 09  -21.0612 26051.3 -03487.2 -07.6241 26283.6
 29 08 2013  14 10  -21.0609 26051.2 -03487.2 -07.6242 26283.6
 29 08 2013  14 11  -21.0605 26051.1 -03487.2 -07.6243 26283.5
 29 08 2013  14 12  -21.0604 26051.1 -03487.3 -07.6244 26283.5
 29 08 2013  14 13  -21.0604 26051.0 -03487.3 -07.6245 26283.3
 29 08 2013  14 14  -21.0602 26050.7 -03487.3 -07.6245 26283.0
 29 08 2013  14 15  -21.0601 26050.5 -03487.3 -07.6247 26282.9
 29 08 2013  14 16  -21.0603 26050.6 -03487.4 -07.6249 26283.0
 29 08 2013  14 17  -21.0602 26050.4 -03487.4 -07.6249 26282.8
 29 08 2013  14 18  -21.0602 26050.2 -03487.4 -07.6250 26282.6
 29 08 2013  14 19  -21.0604 26050.4 -03487.5 -07.6252 26282.8
 29 08 2013  14 20  -21.0605 26050.4 -03487.5 -07.6252 26282.8
 29 08 2013  14 21  -21.0604 26050.3 -03487.5 -07.6251 26282.7
 29 08 2013  14 22  -21.0601 26049.9 -03487.3 -07.6249 26282.3
 29 08 2013  14 23  -21.0598 26049.7 -03487.3 -07.6249 26282.1
 29 08 2013  14 24  -21.0594 26049.3 -03487.2 -07.6248 26281.7
 29 08 2013  14 25  -21.0592 26049.3 -03487.3 -07.6251 26281.7
 29 08 2013  14 26  -21.0591 26049.1 -03487.4 -07.6253 26281.5
 29 08 2013  14 27  -21.0591 26049.3 -03487.6 -07.6256 26281.7
 29 08 2013  14 28  -21.0592 26049.3 -03487.6 -07.6257 26281.8
 29 08 2013  14 29  -21.0592 26049.3 -03487.7 -07.6259 26281.8
 29 08 2013  14 30  -21.0592 26049.3 -03487.7 -07.6259 26281.7
 29 08 2013  14 31  -21.0593 26049.2 -03487.8 -07.6261 26281.6
 29 08 2013  14 32  -21.0593 26049.0 -03487.7 -07.6261 26281.4
 29 08 2013  14 33  -21.0594 26048.8 -03487.7 -07.6261 26281.2
 29 08 2013  14 34  -21.0594 26048.7 -03487.8 -07.6262 26281.2
 29 08 2013  14 35  -21.0596 26048.6 -03487.8 -07.6264 26281.1
 29 08 2013  14 36  -21.0598 26048.5 -03487.9 -07.6265 26281.0
 29 08 2013  14 37  -21.0600 26048.4 -03487.9 -07.6265 26280.9
 29 08 2013  14 38  -21.0603 26048.3 -03487.9 -07.6266 26280.8
 29 08 2013  14 39  -21.0606 26048.2 -03487.9 -07.6267 26280.7
 29 08 2013  14 40  -21.0610 26048.1 -03487.9 -07.6266 26280.5
 29 08 2013  14 41  -21.0614 26047.9 -03487.8 -07.6266 26280.4
 29 08 2013  14 42  -21.0619 26047.9 -03487.8 -07.6266 26280.4
 29 08 2013  14 43  -21.0622 26047.7 -03487.8 -07.6265 26280.2
 29 08 2013  14 44  -21.0625 26047.6 -03487.7 -07.6264 26280.1
 29 08 2013  14 45  -21.0629 26047.6 -03487.6 -07.6262 26280.0
 29 08 2013  14 46  -21.0632 26047.3 -03487.5 -07.6260 26279.7
 29 08 2013  14 47  -21.0635 26047.1 -03487.4 -07.6258 26279.5
 29 08 2013  14 48  -21.0638 26046.9 -03487.3 -07.6256 26279.4
 29 08 2013  14 49  -21.0642 26046.8 -03487.2 -07.6254 26279.2
 29 08 2013  14 50  -21.0643 26046.6 -03487.0 -07.6252 26279.0
 29 08 2013  14 51  -21.0643 26046.3 -03486.8 -07.6249 26278.6
 29 08 2013  14 52  -21.0643 26046.1 -03486.8 -07.6248 26278.5
 29 08 2013  14 53  -21.0645 26045.8 -03486.7 -07.6247 26278.1
 29 08 2013  14 54  -21.0645 26045.6 -03486.6 -07.6246 26277.9
 29 08 2013  14 55  -21.0646 26045.5 -03486.6 -07.6247 26277.9
 29 08 2013  14 56  -21.0645 26045.2 -03486.5 -07.6245 26277.5
 29 08 2013  14 57  -21.0647 26045.1 -03486.6 -07.6246 26277.4
 29 08 2013  14 58  -21.0649 26045.0 -03486.6 -07.6246 26277.4
 29 08 2013  14 59  -21.0651 26044.7 -03486.4 -07.6245 26277.1
 29 08 2013  15 00  -21.0655 26044.7 -03486.5 -07.6245 26277.0
 29 08 2013  15 01  -21.0658 26044.6 -03486.4 -07.6245 26276.9
 29 08 2013  15 02  -21.0660 26044.3 -03486.3 -07.6242 26276.6
 29 08 2013  15 03  -21.0663 26044.1 -03486.2 -07.6241 26276.4
 29 08 2013  15 04  -21.0666 26044.0 -03486.1 -07.6239 26276.2
 29 08 2013  15 05  -21.0671 26043.6 -03486.0 -07.6239 26275.9
 29 08 2013  15 06  -21.0671 26043.2 -03485.8 -07.6236 26275.4
 29 08 2013  15 07  -21.0673 26042.9 -03485.8 -07.6236 26275.2
 29 08 2013  15 08  -21.0673 26042.4 -03485.6 -07.6234 26274.6
 29 08 2013  15 09  -21.0672 26041.7 -03485.5 -07.6233 26273.9
 29 08 2013  15 10  -21.0674 26041.2 -03485.5 -07.6234 26273.5
 29 08 2013  15 11  -21.0678 26041.2 -03485.6 -07.6238 26273.4
 29 08 2013  15 12  -21.0681 26040.8 -03485.6 -07.6237 26273.0
 29 08 2013  15 13  -21.0684 26040.6 -03485.6 -07.6238 26272.8
 29 08 2013  15 14  -21.0687 26040.4 -03485.5 -07.6238 26272.6
 29 08 2013  15 15  -21.0686 26040.2 -03485.5 -07.6238 26272.4
 29 08 2013  15 16  -21.0688 26040.1 -03485.6 -07.6239 26272.4
 29 08 2013  15 17  -21.0691 26040.1 -03485.6 -07.6240 26272.3
 29 08 2013  15 18  -21.0693 26040.0 -03485.6 -07.6240 26272.3
 29 08 2013  15 19  -21.0696 26040.2 -03485.7 -07.6241 26272.5
 29 08 2013  15 20  -21.0697 26040.4 -03485.7 -07.6240 26272.7
 29 08 2013  15 21  -21.0701 26040.7 -03485.7 -07.6240 26273.0
 29 08 2013  15 22  -21.0702 26040.8 -03485.6 -07.6238 26273.0
 29 08 2013  15 23  -21.0704 26041.1 -03485.7 -07.6238 26273.4
 29 08 2013  15 24  -21.0705 26041.5 -03485.6 -07.6237 26273.7
 29 08 2013  15 25  -21.0703 26041.7 -03485.6 -07.6235 26273.9
 29 08 2013  15 26  -21.0698 26042.2 -03485.6 -07.6234 26274.4
 29 08 2013  15 27  -21.0697 26042.6 -03485.7 -07.6235 26274.9
 29 08 2013  15 28  -21.0694 26042.9 -03485.7 -07.6234 26275.1
 29 08 2013  15 29  -21.0689 26043.1 -03485.6 -07.6231 26275.3
 29 08 2013  15 30  -21.0687 26043.3 -03485.6 -07.6230 26275.5
 29 08 2013  15 31  -21.0685 26043.7 -03485.7 -07.6231 26276.0
 29 08 2013  15 32  -21.0683 26043.9 -03485.6 -07.6229 26276.1
 29 08 2013  15 33  -21.0682 26043.8 -03485.5 -07.6227 26276.0
 29 08 2013  15 34  -21.0680 26043.9 -03485.5 -07.6227 26276.1
 29 08 2013  15 35  -21.0679 26043.8 -03485.4 -07.6226 26276.0
 29 08 2013  15 36  -21.0676 26043.5 -03485.3 -07.6224 26275.6
 29 08 2013  15 37  -21.0671 26043.0 -03485.1 -07.6221 26275.1
 29 08 2013  15 38  -21.0670 26042.6 -03485.1 -07.6222 26274.8
 29 08 2013  15 39  -21.0667 26042.2 -03485.0 -07.6221 26274.3
 29 08 2013  15 40  -21.0667 26041.8 -03485.1 -07.6224 26273.9
 29 08 2013  15 41  -21.0667 26041.6 -03485.2 -07.6227 26273.8
 29 08 2013  15 42  -21.0668 26041.5 -03485.3 -07.6230 26273.7
 29 08 2013  15 43  -21.0669 26041.2 -03485.3 -07.6231 26273.4
 29 08 2013  15 44  -21.0669 26040.9 -03485.3 -07.6232 26273.1
 29 08 2013  15 45  -21.0669 26040.5 -03485.3 -07.6232 26272.7
 29 08 2013  15 46  -21.0671 26040.3 -03485.3 -07.6234 26272.5
 29 08 2013  15 47  -21.0675 26040.0 -03485.3 -07.6234 26272.2
 29 08 2013  15 48  -21.0677 26039.8 -03485.3 -07.6235 26272.0
 29 08 2013  15 49  -21.0679 26039.9 -03485.4 -07.6237 26272.1
 29 08 2013  15 50  -21.0678 26039.8 -03485.4 -07.6237 26272.0
 29 08 2013  15 51  -21.0677 26039.8 -03485.5 -07.6238 26272.1
 29 08 2013  15 52  -21.0677 26040.1 -03485.6 -07.6240 26272.3
 29 08 2013  15 53  -21.0676 26040.3 -03485.6 -07.6240 26272.5
 29 08 2013  15 54  -21.0676 26040.4 -03485.7 -07.6241 26272.7
 29 08 2013  15 55  -21.0676 26040.7 -03485.7 -07.6241 26272.9
 29 08 2013  15 56  -21.0677 26041.1 -03485.8 -07.6242 26273.4
 29 08 2013  15 57  -21.0678 26041.4 -03485.8 -07.6241 26273.7
 29 08 2013  15 58  -21.0677 26041.5 -03485.8 -07.6239 26273.7
 29 08 2013  15 59  -21.0675 26041.5 -03485.7 -07.6237 26273.8
 29 08 2013  16 00  -21.0674 26041.5 -03485.6 -07.6235 26273.7
 29 08 2013  16 01  -21.0673 26041.4 -03485.4 -07.6232 26273.6
 29 08 2013  16 02  -21.0674 26041.3 -03485.3 -07.6230 26273.5
 29 08 2013  16 03  -21.0676 26041.1 -03485.2 -07.6227 26273.3
 29 08 2013  16 04  -21.0674 26041.0 -03485.0 -07.6225 26273.1
 29 08 2013  16 05  -21.0674 26040.7 -03484.9 -07.6223 26272.9
 29 08 2013  16 06  -21.0676 26040.5 -03484.8 -07.6221 26272.7
 29 08 2013  16 07  -21.0677 26040.4 -03484.7 -07.6220 26272.6
 29 08 2013  16 08  -21.0680 26040.3 -03484.6 -07.6218 26272.4
 29 08 2013  16 09  -21.0680 26040.2 -03484.5 -07.6216 26272.3
 29 08 2013  16 10  -21.0681 26040.0 -03484.4 -07.6214 26272.1
 29 08 2013  16 11  -21.0682 26040.0 -03484.4 -07.6214 26272.1
 29 08 2013  16 12  -21.0683 26040.0 -03484.3 -07.6213 26272.1
 29 08 2013  16 13  -21.0683 26040.0 -03484.3 -07.6212 26272.0
 29 08 2013  16 14  -21.0685 26040.0 -03484.2 -07.6210 26272.1
 29 08 2013  16 15  -21.0689 26040.4 -03484.3 -07.6210 26272.4
 29 08 2013  16 16  -21.0692 26040.6 -03484.2 -07.6209 26272.7
 29 08 2013  16 17  -21.0694 26040.8 -03484.2 -07.6207 26272.9
 29 08 2013  16 18  -21.0695 26040.9 -03484.0 -07.6204 26272.9
 29 08 2013  16 19  -21.0695 26041.0 -03483.9 -07.6201 26273.0
 29 08 2013  16 20  -21.0698 26041.1 -03483.8 -07.6197 26273.1
 29 08 2013  16 21  -21.0700 26041.3 -03483.7 -07.6195 26273.3
 29 08 2013  16 22  -21.0701 26041.3 -03483.5 -07.6191 26273.3
 29 08 2013  16 23  -21.0701 26041.3 -03483.3 -07.6186 26273.2
 29 08 2013  16 24  -21.0703 26041.3 -03483.1 -07.6183 26273.2
 29 08 2013  16 25  -21.0703 26041.3 -03482.9 -07.6179 26273.2
 29 08 2013  16 26  -21.0703 26041.2 -03482.7 -07.6175 26273.0
 29 08 2013  16 27  -21.0704 26041.1 -03482.6 -07.6172 26273.0
 29 08 2013  16 28  -21.0706 26041.3 -03482.5 -07.6169 26273.1
 29 08 2013  16 29  -21.0709 26041.5 -03482.3 -07.6165 26273.3
 29 08 2013  16 30  -21.0714 26041.7 -03482.2 -07.6162 26273.5
 29 08 2013  16 31  -21.0719 26042.0 -03482.0 -07.6158 26273.7
 29 08 2013  16 32  -21.0724 26042.2 -03481.9 -07.6153 26274.0
 29 08 2013  16 33  -21.0727 26042.5 -03481.7 -07.6148 26274.2
 29 08 2013  16 34  -21.0730 26042.6 -03481.4 -07.6142 26274.3
 29 08 2013  16 35  -21.0732 26042.7 -03481.2 -07.6137 26274.3
 29 08 2013  16 36  -21.0734 26042.8 -03481.0 -07.6132 26274.4
 29 08 2013  16 37  -21.0736 26042.8 -03480.7 -07.6127 26274.4
 29 08 2013  16 38  -21.0738 26042.9 -03480.5 -07.6122 26274.5
 29 08 2013  16 39  -21.0738 26042.9 -03480.3 -07.6117 26274.5
 29 08 2013  16 40  -21.0738 26042.9 -03480.0 -07.6111 26274.4
 29 08 2013  16 41  -21.0737 26042.8 -03479.7 -07.6105 26274.3
 29 08 2013  16 42  -21.0736 26042.7 -03479.5 -07.6100 26274.1
 29 08 2013  16 43  -21.0734 26042.6 -03479.2 -07.6095 26274.0
 29 08 2013  16 44  -21.0734 26042.4 -03478.9 -07.6089 26273.7
 29 08 2013  16 45  -21.0733 26042.2 -03478.6 -07.6082 26273.5
 29 08 2013  16 46  -21.0731 26042.1 -03478.3 -07.6077 26273.3
 29 08 2013  16 47  -21.0729 26041.9 -03478.1 -07.6073 26273.2
 29 08 2013  16 48  -21.0726 26041.9 -03477.9 -07.6068 26273.1
 29 08 2013  16 49  -21.0723 26042.0 -03477.6 -07.6063 26273.1
 29 08 2013  16 50  -21.0719 26042.0 -03477.4 -07.6058 26273.1
 29 08 2013  16 51  -21.0715 26042.1 -03477.2 -07.6053 26273.2
 29 08 2013  16 52  -21.0711 26042.1 -03477.0 -07.6048 26273.2
 29 08 2013  16 53  -21.0705 26042.1 -03476.7 -07.6042 26273.1
 29 08 2013  16 54  -21.0701 26042.1 -03476.5 -07.6037 26273.1
 29 08 2013  16 55  -21.0694 26042.1 -03476.2 -07.6032 26273.1
 29 08 2013  16 56  -21.0687 26042.1 -03476.0 -07.6027 26273.0
 29 08 2013  16 57  -21.0678 26042.0 -03475.8 -07.6022 26272.9
 29 08 2013  16 58  -21.0671 26041.9 -03475.5 -07.6017 26272.7
 29 08 2013  16 59  -21.0662 26041.8 -03475.3 -07.6012 26272.6
 29 08 2013  17 00  -21.0653 26041.6 -03475.1 -07.6008 26272.4
 29 08 2013  17 01  -21.0644 26041.3 -03474.8 -07.6003 26272.1
 29 08 2013  17 02  -21.0633 26041.1 -03474.6 -07.5999 26271.9
 29 08 2013  17 03  -21.0624 26040.9 -03474.4 -07.5996 26271.7
 29 08 2013  17 04  -21.0614 26040.7 -03474.2 -07.5992 26271.5
 29 08 2013  17 05  -21.0605 26040.7 -03474.1 -07.5990 26271.4
 29 08 2013  17 06  -21.0597 26040.8 -03474.1 -07.5990 26271.5
 29 08 2013  17 07  -21.0589 26040.9 -03474.1 -07.5989 26271.6
 29 08 2013  17 08  -21.0580 26040.9 -03474.0 -07.5987 26271.6
 29 08 2013  17 09  -21.0571 26041.0 -03474.0 -07.5987 26271.7
 29 08 2013  17 10  -21.0564 26041.3 -03474.1 -07.5988 26272.0
 29 08 2013  17 11  -21.0556 26041.4 -03474.1 -07.5988 26272.1
 29 08 2013  17 12  -21.0548 26041.4 -03474.1 -07.5987 26272.2
 29 08 2013  17 13  -21.0539 26041.6 -03474.1 -07.5988 26272.4
 29 08 2013  17 14  -21.0534 26041.8 -03474.2 -07.5988 26272.5
 29 08 2013  17 15  -21.0529 26042.0 -03474.2 -07.5989 26272.7
 29 08 2013  17 16  -21.0524 26042.1 -03474.3 -07.5990 26272.8
 29 08 2013  17 17  -21.0519 26042.1 -03474.3 -07.5989 26272.8
 29 08 2013  17 18  -21.0513 26042.1 -03474.3 -07.5990 26272.8
 29 08 2013  17 19  -21.0509 26042.0 -03474.3 -07.5989 26272.7
 29 08 2013  17 20  -21.0504 26042.0 -03474.3 -07.5990 26272.8
 29 08 2013  17 21  -21.0501 26042.1 -03474.4 -07.5992 26272.8
 29 08 2013  17 22  -21.0496 26042.1 -03474.5 -07.5994 26272.9
 29 08 2013  17 23  -21.0492 26042.2 -03474.6 -07.5996 26273.0
 29 08 2013  17 24  -21.0489 26042.2 -03474.7 -07.5998 26273.0
 29 08 2013  17 25  -21.0488 26042.4 -03474.8 -07.6000 26273.2
 29 08 2013  17 26  -21.0487 26042.6 -03475.0 -07.6003 26273.4
 29 08 2013  17 27  -21.0485 26042.7 -03475.1 -07.6005 26273.6
 29 08 2013  17 28  -21.0485 26042.9 -03475.2 -07.6007 26273.7
 29 08 2013  17 29  -21.0486 26043.0 -03475.3 -07.6009 26273.9
 29 08 2013  17 30  -21.0487 26043.0 -03475.3 -07.6010 26273.9
 29 08 2013  17 31  -21.0486 26043.0 -03475.3 -07.6010 26273.9
 29 08 2013  17 32  -21.0485 26042.9 -03475.4 -07.6011 26273.8
 29 08 2013  17 33  -21.0486 26043.0 -03475.5 -07.6012 26273.9
 29 08 2013  17 34  -21.0487 26043.0 -03475.5 -07.6014 26273.8
 29 08 2013  17 35  -21.0487 26043.0 -03475.6 -07.6015 26273.9
 29 08 2013  17 36  -21.0488 26042.9 -03475.6 -07.6017 26273.8
 29 08 2013  17 37  -21.0489 26042.8 -03475.7 -07.6018 26273.7
 29 08 2013  17 38  -21.0490 26042.7 -03475.7 -07.6020 26273.6
 29 08 2013  17 39  -21.0489 26042.5 -03475.8 -07.6022 26273.5
 29 08 2013  17 40  -21.0493 26042.5 -03476.0 -07.6025 26273.4
 29 08 2013  17 41  -21.0495 26042.6 -03476.1 -07.6028 26273.5
 29 08 2013  17 42  -21.0496 26042.7 -03476.3 -07.6031 26273.7
 29 08 2013  17 43  -21.0499 26042.9 -03476.4 -07.6034 26273.9
 29 08 2013  17 44  -21.0504 26043.0 -03476.5 -07.6035 26274.0
 29 08 2013  17 45  -21.0511 26043.0 -03476.6 -07.6037 26274.0
 29 08 2013  17 46  -21.0514 26043.0 -03476.7 -07.6038 26274.0
 29 08 2013  17 47  -21.0516 26043.0 -03476.7 -07.6039 26274.0
 29 08 2013  17 48  -21.0521 26043.0 -03476.7 -07.6039 26274.1
 29 08 2013  17 49  -21.0523 26043.1 -03476.7 -07.6039 26274.1
 29 08 2013  17 50  -21.0526 26043.1 -03476.7 -07.6039 26274.2
 29 08 2013  17 51  -21.0529 26043.2 -03476.7 -07.6038 26274.2
 29 08 2013  17 52  -21.0531 26043.2 -03476.6 -07.6036 26274.2
 29 08 2013  17 53  -21.0534 26043.4 -03476.6 -07.6035 26274.4
 29 08 2013  17 54  -21.0536 26043.4 -03476.5 -07.6033 26274.4
 29 08 2013  17 55  -21.0535 26043.3 -03476.3 -07.6030 26274.3
 29 08 2013  17 56  -21.0536 26043.2 -03476.2 -07.6027 26274.2
 29 08 2013  17 57  -21.0535 26043.3 -03476.1 -07.6025 26274.2
 29 08 2013  17 58  -21.0534 26043.2 -03475.9 -07.6022 26274.2
 29 08 2013  17 59  -21.0532 26043.2 -03475.8 -07.6020 26274.1
 29 08 2013  18 00  -21.0531 26043.2 -03475.7 -07.6017 26274.1
 29 08 2013  18 01  -21.0529 26043.2 -03475.6 -07.6015 26274.1
 29 08 2013  18 02  -21.0528 26043.1 -03475.5 -07.6013 26274.0
 29 08 2013  18 03  -21.0526 26043.1 -03475.4 -07.6011 26274.0
 29 08 2013  18 04  -21.0524 26043.0 -03475.3 -07.6010 26273.9
 29 08 2013  18 05  -21.0522 26042.9 -03475.2 -07.6008 26273.8
 29 08 2013  18 06  -21.0521 26042.8 -03475.1 -07.6006 26273.6
 29 08 2013  18 07  -21.0521 26042.7 -03475.1 -07.6005 26273.5
 29 08 2013  18 08  -21.0519 26042.6 -03475.0 -07.6004 26273.5
 29 08 2013  18 09  -21.0517 26042.6 -03475.0 -07.6005 26273.4
 29 08 2013  18 10  -21.0515 26042.5 -03475.1 -07.6005 26273.4
 29 08 2013  18 11  -21.0513 26042.5 -03475.0 -07.6004 26273.3
 29 08 2013  18 12  -21.0512 26042.4 -03475.0 -07.6005 26273.3
 29 08 2013  18 13  -21.0510 26042.4 -03475.0 -07.6004 26273.2
 29 08 2013  18 14  -21.0507 26042.4 -03475.0 -07.6004 26273.2
 29 08 2013  18 15  -21.0505 26042.4 -03475.1 -07.6005 26273.3
 29 08 2013  18 16  -21.0503 26042.5 -03475.1 -07.6007 26273.3
 29 08 2013  18 17  -21.0504 26042.4 -03475.2 -07.6008 26273.2
 29 08 2013  18 18  -21.0501 26042.3 -03475.1 -07.6007 26273.1
 29 08 2013  18 19  -21.0497 26042.2 -03475.1 -07.6007 26273.0
 29 08 2013  18 20  -21.0495 26042.1 -03475.2 -07.6009 26272.9
 29 08 2013  18 21  -21.0494 26042.0 -03475.2 -07.6009 26272.8
 29 08 2013  18 22  -21.0494 26042.1 -03475.2 -07.6010 26272.9
 29 08 2013  18 23  -21.0493 26042.0 -03475.2 -07.6011 26272.9
 29 08 2013  18 24  -21.0491 26041.9 -03475.2 -07.6011 26272.7
 29 08 2013  18 25  -21.0489 26041.8 -03475.2 -07.6011 26272.6
 29 08 2013  18 26  -21.0488 26041.6 -03475.2 -07.6011 26272.5
 29 08 2013  18 27  -21.0485 26041.5 -03475.2 -07.6011 26272.3
 29 08 2013  18 28  -21.0485 26041.4 -03475.2 -07.6011 26272.2
 29 08 2013  18 29  -21.0485 26041.3 -03475.2 -07.6011 26272.1
 29 08 2013  18 30  -21.0484 26041.1 -03475.1 -07.6010 26272.0
 29 08 2013  18 31  -21.0486 26041.1 -03475.1 -07.6010 26272.0
 29 08 2013  18 32  -21.0487 26041.0 -03475.0 -07.6009 26271.9
 29 08 2013  18 33  -21.0489 26041.0 -03475.0 -07.6007 26271.8
 29 08 2013  18 34  -21.0490 26041.0 -03474.9 -07.6006 26271.8
 29 08 2013  18 35  -21.0489 26040.9 -03474.8 -07.6004 26271.7
 29 08 2013  18 36  -21.0489 26040.7 -03474.7 -07.6002 26271.5
 29 08 2013  18 37  -21.0489 26040.6 -03474.6 -07.6000 26271.4
 29 08 2013  18 38  -21.0489 26040.5 -03474.5 -07.5998 26271.2
 29 08 2013  18 39  -21.0489 26040.3 -03474.3 -07.5995 26271.1
 29 08 2013  18 40  -21.0489 26040.2 -03474.2 -07.5993 26271.0
 29 08 2013  18 41  -21.0490 26040.1 -03474.1 -07.5991 26270.8
 29 08 2013  18 42  -21.0490 26040.0 -03473.9 -07.5988 26270.7
 29 08 2013  18 43  -21.0489 26039.7 -03473.7 -07.5985 26270.4
 29 08 2013  18 44  -21.0488 26039.5 -03473.6 -07.5982 26270.2
 29 08 2013  18 45  -21.0487 26039.4 -03473.5 -07.5980 26270.1
 29 08 2013  18 46  -21.0485 26039.0 -03473.2 -07.5975 26269.6
 29 08 2013  18 47  -21.0484 26039.1 -03473.2 -07.5975 26269.7
 29 08 2013  18 48  -21.0482 26038.9 -03473.0 -07.5972 26269.5
 29 08 2013  18 49  -21.0480 26038.7 -03472.9 -07.5969 26269.3
 29 08 2013  18 50  -21.0478 26038.7 -03472.8 -07.5968 26269.2
 29 08 2013  18 51  -21.0477 26038.5 -03472.7 -07.5966 26269.0
 29 08 2013  18 52  -21.0474 26038.3 -03472.6 -07.5964 26268.8
 29 08 2013  18 53  -21.0472 26038.1 -03472.5 -07.5963 26268.7
 29 08 2013  18 54  -21.0471 26038.0 -03472.4 -07.5961 26268.5
 29 08 2013  18 55  -21.0470 26037.9 -03472.3 -07.5959 26268.4
 29 08 2013  18 56  -21.0468 26037.8 -03472.3 -07.5958 26268.3
 29 08 2013  18 57  -21.0466 26037.7 -03472.2 -07.5957 26268.2
 29 08 2013  18 58  -21.0463 26037.5 -03472.1 -07.5956 26268.0
 29 08 2013  18 59  -21.0460 26037.3 -03472.0 -07.5954 26267.7
 29 08 2013  19 00  -21.0456 26037.0 -03471.9 -07.5953 26267.5
 29 08 2013  19 01  -21.0453 26036.8 -03471.9 -07.5953 26267.3
 29 08 2013  19 02  -21.0451 26036.7 -03471.9 -07.5953 26267.2
 29 08 2013  19 03  -21.0449 26036.6 -03471.8 -07.5952 26267.0
 29 08 2013  19 04  -21.0446 26036.4 -03471.8 -07.5952 26266.8
 29 08 2013  19 05  -21.0444 26036.1 -03471.7 -07.5951 26266.6
 29 08 2013  19 06  -21.0441 26035.8 -03471.6 -07.5951 26266.3
 29 08 2013  19 07  -21.0438 26035.5 -03471.6 -07.5950 26266.0
 29 08 2013  19 08  -21.0435 26035.3 -03471.6 -07.5950 26265.8
 29 08 2013  19 09  -21.0432 26035.1 -03471.6 -07.5951 26265.5
 29 08 2013  19 10  -21.0429 26034.9 -03471.5 -07.5951 26265.3
 29 08 2013  19 11  -21.0428 26034.7 -03471.6 -07.5952 26265.2
 29 08 2013  19 12  -21.0425 26034.6 -03471.6 -07.5953 26265.1
 29 08 2013  19 13  -21.0423 26034.4 -03471.6 -07.5954 26264.9
 29 08 2013  19 14  -21.0421 26034.3 -03471.6 -07.5955 26264.8
 29 08 2013  19 15  -21.0418 26034.2 -03471.7 -07.5956 26264.6
 29 08 2013  19 16  -21.0416 26034.0 -03471.7 -07.5956 26264.5
 29 08 2013  19 17  -21.0415 26034.0 -03471.7 -07.5958 26264.4
 29 08 2013  19 18  -21.0413 26034.0 -03471.8 -07.5959 26264.4
 29 08 2013  19 19  -21.0411 26033.9 -03471.9 -07.5961 26264.4
 29 08 2013  19 20  -21.0408 26033.9 -03471.9 -07.5962 26264.4
 29 08 2013  19 21  -21.0407 26033.9 -03472.0 -07.5964 26264.5
 29 08 2013  19 22  -21.0405 26033.9 -03472.1 -07.5966 26264.4
 29 08 2013  19 23  -21.0402 26034.0 -03472.2 -07.5967 26264.5
 29 08 2013  19 24  -21.0402 26034.0 -03472.3 -07.5969 26264.5
 29 08 2013  19 25  -21.0400 26034.0 -03472.3 -07.5971 26264.5
 29 08 2013  19 26  -21.0397 26033.9 -03472.4 -07.5972 26264.5
 29 08 2013  19 27  -21.0393 26033.9 -03472.4 -07.5972 26264.4
 29 08 2013  19 28  -21.0389 26033.8 -03472.4 -07.5973 26264.3
 29 08 2013  19 29  -21.0384 26033.7 -03472.5 -07.5975 26264.3
 29 08 2013  19 30  -21.0379 26033.7 -03472.6 -07.5977 26264.3
 29 08 2013  19 31  -21.0374 26033.8 -03472.8 -07.5980 26264.4
 29 08 2013  19 32  -21.0370 26034.2 -03473.1 -07.5986 26264.9
 29 08 2013  19 33  -21.0365 26034.3 -03473.2 -07.5989 26265.0
 29 08 2013  19 34  -21.0362 26034.5 -03473.4 -07.5992 26265.2
 29 08 2013  19 35  -21.0358 26034.5 -03473.4 -07.5993 26265.2
 29 08 2013  19 36  -21.0353 26034.4 -03473.5 -07.5995 26265.1
 29 08 2013  19 37  -21.0349 26034.2 -03473.5 -07.5995 26264.9
 29 08 2013  19 38  -21.0345 26034.0 -03473.5 -07.5996 26264.7
 29 08 2013  19 39  -21.0340 26033.9 -03473.5 -07.5997 26264.6
 29 08 2013  19 40  -21.0336 26033.7 -03473.6 -07.5999 26264.4
 29 08 2013  19 41  -21.0334 26033.6 -03473.6 -07.6000 26264.3
 29 08 2013  19 42  -21.0331 26033.4 -03473.6 -07.6001 26264.1
 29 08 2013  19 43  -21.0328 26033.2 -03473.7 -07.6002 26263.9
 29 08 2013  19 44  -21.0326 26033.0 -03473.7 -07.6004 26263.8
 29 08 2013  19 45  -21.0324 26033.0 -03473.8 -07.6007 26263.7
 29 08 2013  19 46  -21.0322 26032.8 -03473.9 -07.6008 26263.6
 29 08 2013  19 47  -21.0322 26032.7 -03473.9 -07.6009 26263.4
 29 08 2013  19 48  -21.0320 26032.5 -03474.0 -07.6011 26263.3
 29 08 2013  19 49  -21.0319 26032.3 -03474.0 -07.6012 26263.1
 29 08 2013  19 50  -21.0318 26032.1 -03474.0 -07.6013 26262.9
 29 08 2013  19 51  -21.0316 26031.9 -03474.1 -07.6015 26262.7
 29 08 2013  19 52  -21.0314 26031.8 -03474.1 -07.6016 26262.6
 29 08 2013  19 53  -21.0312 26031.8 -03474.2 -07.6018 26262.6
 29 08 2013  19 54  -21.0310 26031.6 -03474.3 -07.6020 26262.4
 29 08 2013  19 55  -21.0307 26031.4 -03474.3 -07.6022 26262.2
 29 08 2013  19 56  -21.0303 26031.3 -03474.4 -07.6023 26262.1
 29 08 2013  19 57  -21.0300 26031.2 -03474.5 -07.6025 26262.0
 29 08 2013  19 58  -21.0295 26031.1 -03474.5 -07.6027 26262.0
 29 08 2013  19 59  -21.0290 26031.0 -03474.6 -07.6029 26261.9
 29 08 2013  20 00  -21.0284 26031.0 -03474.8 -07.6032 26261.9
 29 08 2013  20 01  -21.0279 26031.1 -03475.0 -07.6036 26262.0
 29 08 2013  20 02  -21.0273 26031.2 -03475.1 -07.6040 26262.1
 29 08 2013  20 03  -21.0266 26031.2 -03475.3 -07.6042 26262.1
 29 08 2013  20 04  -21.0261 26031.2 -03475.4 -07.6045 26262.2
 29 08 2013  20 05  -21.0258 26031.3 -03475.5 -07.6047 26262.3
 29 08 2013  20 06  -21.0256 26031.5 -03475.7 -07.6051 26262.5
 29 08 2013  20 07  -21.0253 26031.6 -03475.8 -07.6053 26262.6
 29 08 2013  20 08  -21.0252 26031.7 -03476.0 -07.6056 26262.8
 29 08 2013  20 09  -21.0250 26031.8 -03476.1 -07.6059 26262.9
 29 08 2013  20 10  -21.0249 26031.8 -03476.2 -07.6061 26262.9
 29 08 2013  20 11  -21.0248 26031.7 -03476.2 -07.6061 26262.8
 29 08 2013  20 12  -21.0247 26031.5 -03476.2 -07.6062 26262.6
 29 08 2013  20 13  -21.0247 26031.2 -03476.2 -07.6062 26262.3
 29 08 2013  20 14  -21.0247 26031.0 -03476.1 -07.6062 26262.0
 29 08 2013  20 15  -21.0248 26030.8 -03476.1 -07.6062 26261.9
 29 08 2013  20 16  -21.0248 26030.8 -03476.3 -07.6065 26261.9
 29 08 2013  20 17  -21.0248 26030.8 -03476.3 -07.6067 26261.9
 29 08 2013  20 18  -21.0249 26030.6 -03476.4 -07.6068 26261.7
 29 08 2013  20 19  -21.0249 26030.4 -03476.3 -07.6068 26261.5
 29 08 2013  20 20  -21.0249 26030.2 -03476.4 -07.6069 26261.3
 29 08 2013  20 21  -21.0248 26030.1 -03476.4 -07.6069 26261.2
 29 08 2013  20 22  -21.0248 26030.2 -03476.5 -07.6072 26261.3
 29 08 2013  20 23  -21.0247 26030.3 -03476.6 -07.6075 26261.4
 29 08 2013  20 24  -21.0247 26030.4 -03476.8 -07.6078 26261.5
 29 08 2013  20 25  -21.0246 26030.3 -03476.9 -07.6079 26261.5
 29 08 2013  20 26  -21.0247 26030.3 -03476.9 -07.6081 26261.5
 29 08 2013  20 27  -21.0248 26030.3 -03477.1 -07.6084 26261.5
 29 08 2013  20 28  -21.0248 26030.3 -03477.2 -07.6086 26261.5
 29 08 2013  20 29  -21.0248 26030.2 -03477.2 -07.6087 26261.4
 29 08 2013  20 30  -21.0247 26030.0 -03477.2 -07.6088 26261.2
 29 08 2013  20 31  -21.0248 26029.9 -03477.3 -07.6090 26261.2
 29 08 2013  20 32  -21.0247 26030.0 -03477.4 -07.6092 26261.3
 29 08 2013  20 33  -21.0247 26030.0 -03477.5 -07.6094 26261.3
 29 08 2013  20 34  -21.0246 26029.8 -03477.5 -07.6094 26261.1
 29 08 2013  20 35  -21.0245 26029.5 -03477.5 -07.6094 26260.8
 29 08 2013  20 36  -21.0246 26029.3 -03477.5 -07.6095 26260.6
 29 08 2013  20 37  -21.0247 26029.1 -03477.5 -07.6097 26260.4
 29 08 2013  20 38  -21.0249 26029.0 -03477.5 -07.6098 26260.2
 29 08 2013  20 39  -21.0250 26028.8 -03477.6 -07.6099 26260.0
 29 08 2013  20 40  -21.0248 26028.4 -03477.5 -07.6099 26259.6
 29 08 2013  20 41  -21.0247 26028.0 -03477.5 -07.6099 26259.3
 29 08 2013  20 42  -21.0248 26027.8 -03477.4 -07.6099 26259.0
 29 08 2013  20 43  -21.0251 26027.7 -03477.5 -07.6100 26259.0
 29 08 2013  20 44  -21.0252 26027.6 -03477.5 -07.6102 26258.9
 29 08 2013  20 45  -21.0252 26027.5 -03477.6 -07.6103 26258.8
 29 08 2013  20 46  -21.0251 26027.5 -03477.6 -07.6103 26258.8
 29 08 2013  20 47  -21.0248 26027.5 -03477.9 -07.6109 26258.8
 29 08 2013  20 48  -21.0247 26027.4 -03478.0 -07.6111 26258.8
 29 08 2013  20 49  -21.0246 26027.4 -03478.0 -07.6113 26258.8
 29 08 2013  20 50  -21.0247 26027.5 -03478.1 -07.6115 26258.8
 29 08 2013  20 51  -21.0247 26027.5 -03478.2 -07.6116 26258.9
 29 08 2013  20 52  -21.0247 26027.5 -03477.9 -07.6111 26258.9
 29 08 2013  20 53  -21.0245 26027.6 -03478.4 -07.6120 26259.0
 29 08 2013  20 54  -21.0245 26027.6 -03478.4 -07.6121 26259.0
 29 08 2013  20 55  -21.0244 26027.6 -03478.5 -07.6123 26259.0
 29 08 2013  20 56  -21.0242 26027.6 -03478.5 -07.6123 26259.0
 29 08 2013  20 57  -21.0242 26027.6 -03478.6 -07.6124 26259.0
 29 08 2013  20 58  -21.0240 26027.4 -03478.5 -07.6123 26258.8
 29 08 2013  20 59  -21.0241 26027.3 -03478.5 -07.6123 26258.7
 29 08 2013  21 00  -21.0241 26027.2 -03478.5 -07.6123 26258.6
 29 08 2013  21 01  -21.0240 26027.2 -03478.5 -07.6124 26258.6
 29 08 2013  21 02  -21.0240 26027.1 -03478.5 -07.6124 26258.5
 29 08 2013  21 03  -21.0239 26027.0 -03478.5 -07.6124 26258.5
 29 08 2013  21 04  -21.0239 26027.0 -03478.5 -07.6125 26258.4
 29 08 2013  21 05  -21.0238 26026.9 -03478.5 -07.6126 26258.3
 29 08 2013  21 06  -21.0238 26026.9 -03478.6 -07.6126 26258.4
 29 08 2013  21 07  -21.0238 26026.9 -03478.6 -07.6127 26258.4
 29 08 2013  21 08  -21.0238 26026.9 -03478.7 -07.6129 26258.4
 29 08 2013  21 09  -21.0238 26027.0 -03478.7 -07.6129 26258.4
 29 08 2013  21 10  -21.0238 26027.0 -03478.8 -07.6130 26258.5
 29 08 2013  21 11  -21.0238 26027.0 -03478.8 -07.6131 26258.5
 29 08 2013  21 12  -21.0239 26027.0 -03478.8 -07.6132 26258.5
 29 08 2013  21 13  -21.0240 26027.0 -03478.8 -07.6132 26258.5
 29 08 2013  21 14  -21.0241 26027.1 -03478.8 -07.6131 26258.6
 29 08 2013  21 15  -21.0242 26027.1 -03478.9 -07.6132 26258.6
 29 08 2013  21 16  -21.0241 26027.2 -03478.9 -07.6131 26258.6
 29 08 2013  21 17  -21.0241 26027.2 -03478.8 -07.6129 26258.6
 29 08 2013  21 18  -21.0241 26027.2 -03478.8 -07.6130 26258.6
 29 08 2013  21 19  -21.0240 26027.2 -03478.8 -07.6130 26258.7
 29 08 2013  21 20  -21.0240 26027.2 -03478.8 -07.6130 26258.7
 29 08 2013  21 21  -21.0239 26027.3 -03478.8 -07.6129 26258.8
 29 08 2013  21 22  -21.0237 26027.4 -03478.8 -07.6129 26258.8
 29 08 2013  21 23  -21.0235 26027.4 -03478.7 -07.6128 26258.8
 29 08 2013  21 24  -21.0234 26027.4 -03478.6 -07.6126 26258.8
 29 08 2013  21 25  -21.0232 26027.5 -03478.7 -07.6126 26258.9
 29 08 2013  21 26  -21.0232 26027.5 -03478.7 -07.6128 26259.0
 29 08 2013  21 27  -21.0231 26027.6 -03478.8 -07.6128 26259.0
 29 08 2013  21 28  -21.0230 26027.7 -03478.8 -07.6128 26259.1
 29 08 2013  21 29  -21.0230 26027.7 -03478.8 -07.6129 26259.2
 29 08 2013  21 30  -21.0229 26027.9 -03478.9 -07.6130 26259.3
 29 08 2013  21 31  -21.0228 26028.0 -03478.9 -07.6130 26259.5
 29 08 2013  21 32  -21.0226 26028.2 -03478.9 -07.6130 26259.6
 29 08 2013  21 33  -21.0225 26028.3 -03479.0 -07.6131 26259.7
 29 08 2013  21 34  -21.0224 26028.3 -03479.0 -07.6131 26259.8
 29 08 2013  21 35  -21.0223 26028.3 -03479.0 -07.6130 26259.7
 29 08 2013  21 36  -21.0223 26028.2 -03478.9 -07.6130 26259.7
 29 08 2013  21 37  -21.0222 26028.3 -03478.9 -07.6130 26259.7
 29 08 2013  21 38  -21.0221 26028.3 -03478.9 -07.6130 26259.8
 29 08 2013  21 39  -21.0222 26028.3 -03478.9 -07.6130 26259.7
 29 08 2013  21 40  -21.0220 26028.4 -03478.9 -07.6130 26259.8
 29 08 2013  21 41  -21.0219 26028.3 -03478.9 -07.6130 26259.8
 29 08 2013  21 42  -21.0220 26028.3 -03478.9 -07.6129 26259.7
 29 08 2013  21 43  -21.0220 26028.1 -03478.8 -07.6128 26259.6
 29 08 2013  21 44  -21.0219 26028.2 -03478.9 -07.6129 26259.7
 29 08 2013  21 45  -21.0219 26028.3 -03478.9 -07.6129 26259.8
 29 08 2013  21 46  -21.0218 26028.3 -03478.9 -07.6129 26259.7
 29 08 2013  21 47  -21.0217 26028.2 -03478.8 -07.6128 26259.7
 29 08 2013  21 48  -21.0215 26028.2 -03478.9 -07.6128 26259.7
 29 08 2013  21 49  -21.0216 26028.1 -03478.9 -07.6129 26259.6
 29 08 2013  21 50  -21.0215 26028.1 -03478.8 -07.6129 26259.6
 29 08 2013  21 51  -21.0213 26028.2 -03478.9 -07.6130 26259.7
 29 08 2013  21 52  -21.0215 26028.0 -03478.9 -07.6129 26259.5
 29 08 2013  21 53  -21.0214 26028.2 -03478.9 -07.6130 26259.7
 29 08 2013  21 54  -21.0215 26028.0 -03478.9 -07.6130 26259.5
 29 08 2013  21 55  -21.0216 26027.9 -03478.8 -07.6129 26259.4
 29 08 2013  21 56  -21.0216 26027.9 -03478.9 -07.6130 26259.4
 29 08 2013  21 57  -21.0216 26028.0 -03478.9 -07.6130 26259.4
 29 08 2013  21 58  -21.0215 26028.0 -03478.9 -07.6131 26259.5
 29 08 2013  21 59  -21.0214 26028.1 -03479.0 -07.6131 26259.6
 29 08 2013  22 00  -21.0213 26028.1 -03479.0 -07.6132 26259.6
 29 08 2013  22 01  -21.0213 26028.1 -03479.0 -07.6133 26259.6
 29 08 2013  22 02  -21.0213 26028.1 -03479.1 -07.6133 26259.6
 29 08 2013  22 03  -21.0213 26028.1 -03479.0 -07.6133 26259.6
 29 08 2013  22 04  -21.0214 26028.1 -03479.0 -07.6133 26259.6
 29 08 2013  22 05  -21.0215 26028.1 -03479.0 -07.6133 26259.6
 29 08 2013  22 06  -21.0214 26028.1 -03479.1 -07.6134 26259.6
 29 08 2013  22 07  -21.0215 26028.1 -03479.1 -07.6134 26259.6
 29 08 2013  22 08  -21.0214 26028.1 -03479.1 -07.6135 26259.6
 29 08 2013  22 09  -21.0214 26028.1 -03479.1 -07.6133 26259.6
 29 08 2013  22 10  -21.0213 26028.2 -03479.1 -07.6134 26259.7
 29 08 2013  22 11  -21.0213 26028.1 -03479.1 -07.6135 26259.6
 29 08 2013  22 12  -21.0212 26028.2 -03479.2 -07.6136 26259.7
 29 08 2013  22 13  -21.0210 26028.3 -03479.3 -07.6137 26259.8
 29 08 2013  22 14  -21.0210 26028.3 -03479.3 -07.6138 26259.8
 29 08 2013  22 15  -21.0209 26028.2 -03479.3 -07.6138 26259.7
 29 08 2013  22 16  -21.0208 26028.0 -03479.2 -07.6136 26259.5
 29 08 2013  22 17  -21.0209 26027.8 -03479.1 -07.6135 26259.3
 29 08 2013  22 18  -21.0209 26027.7 -03479.0 -07.6134 26259.2
 29 08 2013  22 19  -21.0208 26027.5 -03479.0 -07.6133 26259.0
 29 08 2013  22 20  -21.0207 26027.4 -03478.9 -07.6132 26258.9
 29 08 2013  22 21  -21.0208 26027.2 -03478.8 -07.6131 26258.7
 29 08 2013  22 22  -21.0208 26027.0 -03478.8 -07.6131 26258.5
 29 08 2013  22 23  -21.0208 26027.0 -03478.8 -07.6131 26258.4
 29 08 2013  22 24  -21.0208 26026.9 -03478.8 -07.6131 26258.4
 29 08 2013  22 25  -21.0208 26026.8 -03478.8 -07.6131 26258.2
 29 08 2013  22 26  -21.0207 26026.7 -03478.8 -07.6131 26258.2
 29 08 2013  22 27  -21.0207 26026.6 -03478.8 -07.6131 26258.1
 29 08 2013  22 28  -21.0207 26026.5 -03478.8 -07.6131 26258.0
 29 08 2013  22 29  -21.0206 26026.5 -03478.8 -07.6133 26258.0
 29 08 2013  22 30  -21.0206 26026.5 -03478.8 -07.6133 26258.0
 29 08 2013  22 31  -21.0205 26026.5 -03478.8 -07.6133 26258.0
 29 08 2013  22 32  -21.0205 26026.4 -03478.9 -07.6134 26257.9
 29 08 2013  22 33  -21.0204 26026.4 -03478.9 -07.6135 26257.9
 29 08 2013  22 34  -21.0202 26026.4 -03478.9 -07.6135 26257.9
 29 08 2013  22 35  -21.0201 26026.4 -03479.0 -07.6136 26257.9
 29 08 2013  22 36  -21.0200 26026.3 -03478.9 -07.6136 26257.8
 29 08 2013  22 37  -21.0199 26026.2 -03478.9 -07.6136 26257.7
 29 08 2013  22 38  -21.0199 26026.1 -03478.9 -07.6136 26257.6
 29 08 2013  22 39  -21.0199 26026.0 -03478.9 -07.6136 26257.5
 29 08 2013  22 40  -21.0199 26025.9 -03478.9 -07.6136 26257.4
 29 08 2013  22 41  -21.0199 26025.9 -03478.9 -07.6136 26257.4
 29 08 2013  22 42  -21.0199 26025.8 -03478.9 -07.6137 26257.3
 29 08 2013  22 43  -21.0197 26025.9 -03479.0 -07.6138 26257.4
 29 08 2013  22 44  -21.0196 26025.8 -03479.0 -07.6139 26257.4
 29 08 2013  22 45  -21.0199 26025.6 -03478.9 -07.6138 26257.0
 29 08 2013  22 46  -21.0197 26025.8 -03479.1 -07.6140 26257.3
 29 08 2013  22 47  -21.0198 26026.0 -03479.2 -07.6142 26257.5
 29 08 2013  22 48  -21.0199 26025.6 -03479.1 -07.6142 26257.1
 29 08 2013  22 49  -21.0204 26025.6 -03479.1 -07.6141 26257.1
 29 08 2013  22 50  -21.0202 26025.8 -03479.3 -07.6144 26257.3
 29 08 2013  22 51  -21.0204 26025.9 -03479.3 -07.6146 26257.5
 29 08 2013  22 52  -21.0206 26026.0 -03479.4 -07.6147 26257.6
 29 08 2013  22 53  -21.0206 26026.3 -03479.6 -07.6149 26257.9
 29 08 2013  22 54  -21.0208 26026.3 -03479.6 -07.6150 26257.9
 29 08 2013  22 55  -21.0208 26026.3 -03479.5 -07.6149 26257.9
 29 08 2013  22 56  -21.0206 26026.5 -03479.7 -07.6151 26258.1
 29 08 2013  22 57  -21.0203 26026.8 -03479.8 -07.6154 26258.4
 29 08 2013  22 58  -21.0202 26026.8 -03479.8 -07.6154 26258.4
 29 08 2013  22 59  -21.0202 26026.7 -03479.8 -07.6153 26258.3
 29 08 2013  23 00  -21.0199 26026.7 -03479.8 -07.6153 26258.3
 29 08 2013  23 01  -21.0197 26026.8 -03479.9 -07.6154 26258.5
 29 08 2013  23 02  -21.0199 26027.0 -03479.9 -07.6155 26258.6
 29 08 2013  23 03  -21.0200 26027.1 -03480.0 -07.6156 26258.7
 29 08 2013  23 04  -21.0202 26027.1 -03480.0 -07.6157 26258.7
 29 08 2013  23 05  -21.0203 26027.1 -03480.0 -07.6157 26258.7
 29 08 2013  23 06  -21.0204 26027.1 -03480.0 -07.6158 26258.7
 29 08 2013  23 07  -21.0205 26027.1 -03480.0 -07.6157 26258.7
 29 08 2013  23 08  -21.0206 26026.9 -03480.0 -07.6156 26258.6
 29 08 2013  23 09  -21.0207 26026.9 -03479.9 -07.6155 26258.5
 29 08 2013  23 10  -21.0207 26027.0 -03479.9 -07.6155 26258.6
 29 08 2013  23 11  -21.0206 26026.9 -03479.9 -07.6154 26258.5
 29 08 2013  23 12  -21.0207 26026.8 -03479.9 -07.6155 26258.4
 29 08 2013  23 13  -21.0207 26027.0 -03479.9 -07.6155 26258.6
 29 08 2013  23 14  -21.0207 26026.9 -03479.9 -07.6155 26258.5
 29 08 2013  23 15  -21.0208 26026.9 -03479.9 -07.6155 26258.6
 29 08 2013  23 16  -21.0209 26026.9 -03479.9 -07.6156 26258.5
 29 08 2013  23 17  -21.0209 26026.8 -03479.9 -07.6155 26258.4
 29 08 2013  23 18  -21.0210 26026.8 -03479.9 -07.6155 26258.4
 29 08 2013  23 19  -21.0211 26026.9 -03479.9 -07.6155 26258.5
 29 08 2013  23 20  -21.0210 26027.2 -03480.0 -07.6157 26258.8
 29 08 2013  23 21  -21.0209 26027.3 -03480.1 -07.6158 26258.9
 29 08 2013  23 22  -21.0210 26027.3 -03480.1 -07.6158 26258.9
 29 08 2013  23 23  -21.0210 26027.3 -03480.1 -07.6158 26258.9
 29 08 2013  23 24  -21.0210 26027.3 -03480.1 -07.6158 26258.9
 29 08 2013  23 25  -21.0210 26027.3 -03480.1 -07.6158 26258.9
 29 08 2013  23 26  -21.0209 26027.4 -03480.1 -07.6158 26259.0
 29 08 2013  23 27  -21.0210 26027.3 -03480.1 -07.6158 26258.9
 29 08 2013  23 28  -21.0210 26027.3 -03480.0 -07.6157 26258.9
 29 08 2013  23 29  -21.0212 26027.3 -03480.0 -07.6157 26258.9
 29 08 2013  23 30  -21.0212 26027.3 -03480.0 -07.6157 26258.9
 29 08 2013  23 31  -21.0213 26027.3 -03480.0 -07.6157 26258.9
 29 08 2013  23 32  -21.0213 26027.2 -03480.0 -07.6156 26258.8
 29 08 2013  23 33  -21.0214 26027.2 -03480.0 -07.6156 26258.8
 29 08 2013  23 34  -21.0214 26027.2 -03479.9 -07.6155 26258.8
 29 08 2013  23 35  -21.0214 26027.3 -03480.0 -07.6156 26258.9
 29 08 2013  23 36  -21.0213 26027.4 -03480.0 -07.6157 26259.0
 29 08 2013  23 37  -21.0212 26027.4 -03480.0 -07.6156 26259.0
 29 08 2013  23 38  -21.0210 26027.3 -03480.0 -07.6156 26259.0
 29 08 2013  23 39  -21.0209 26027.4 -03480.0 -07.6156 26259.0
 29 08 2013  23 40  -21.0208 26027.4 -03480.0 -07.6157 26259.0
 29 08 2013  23 41  -21.0207 26027.5 -03480.1 -07.6157 26259.1
 29 08 2013  23 42  -21.0206 26027.4 -03480.0 -07.6156 26259.0
 29 08 2013  23 43  -21.0205 26027.3 -03479.9 -07.6155 26258.9
 29 08 2013  23 44  -21.0204 26027.2 -03480.0 -07.6155 26258.8
 29 08 2013  23 45  -21.0202 26027.2 -03480.0 -07.6155 26258.8
 29 08 2013  23 46  -21.0201 26027.2 -03480.0 -07.6155 26258.8
 29 08 2013  23 47  -21.0201 26027.2 -03480.0 -07.6156 26258.8
 29 08 2013  23 48  -21.0201 26027.2 -03480.0 -07.6156 26258.8
 29 08 2013  23 49  -21.0199 26027.2 -03480.0 -07.6157 26258.8
 29 08 2013  23 50  -21.0199 26027.2 -03480.0 -07.6157 26258.8
 29 08 2013  23 51  -21.0200 26027.2 -03480.1 -07.6157 26258.9
 29 08 2013  23 52  -21.0199 26027.2 -03480.1 -07.6158 26258.8
 29 08 2013  23 53  -21.0200 26027.2 -03480.1 -07.6158 26258.8
 29 08 2013  23 54  -21.0200 26027.1 -03480.1 -07.6158 26258.7
 29 08 2013  23 55  -21.0201 26027.0 -03480.0 -07.6157 26258.6
 29 08 2013  23 56  -21.0200 26027.0 -03480.0 -07.6157 26258.6
 29 08 2013  23 57  -21.0200 26027.0 -03480.1 -07.6158 26258.6
