SAO LUIS EMBRACE-03 <232> 1 Min. Reported data

 DD MM YYYY  HH MM   D(Deg)  H(nT)   Z(nT)   I(Deg)   F(nT)

 20 08 2013  00 00  -21.0242 26029.8 -03476.9 -07.6082 26261.0
 20 08 2013  00 01  -21.0243 26029.7 -03476.9 -07.6082 26260.9
 20 08 2013  00 02  -21.0243 26029.7 -03476.9 -07.6082 26260.8
 20 08 2013  00 03  -21.0243 26029.7 -03476.9 -07.6082 26260.9
 20 08 2013  00 04  -21.0242 26029.7 -03476.9 -07.6081 26260.9
 20 08 2013  00 05  -21.0243 26029.8 -03476.9 -07.6082 26260.9
 20 08 2013  00 06  -21.0242 26029.7 -03476.9 -07.6082 26260.9
 20 08 2013  00 07  -21.0241 26029.7 -03476.9 -07.6082 26260.9
 20 08 2013  00 08  -21.0241 26029.7 -03476.9 -07.6082 26260.8
 20 08 2013  00 09  -21.0240 26029.6 -03476.9 -07.6081 26260.8
 20 08 2013  00 10  -21.0240 26029.7 -03476.9 -07.6082 26260.9
 20 08 2013  00 11  -21.0240 26029.9 -03477.0 -07.6084 26261.1
 20 08 2013  00 12  -21.0239 26030.0 -03477.1 -07.6085 26261.2
 20 08 2013  00 13  -21.0240 26030.0 -03477.1 -07.6086 26261.2
 20 08 2013  00 14  -21.0241 26030.0 -03477.1 -07.6085 26261.2
 20 08 2013  00 15  -21.0241 26029.9 -03477.1 -07.6085 26261.1
 20 08 2013  00 16  -21.0243 26029.8 -03477.0 -07.6084 26261.0
 20 08 2013  00 17  -21.0244 26029.8 -03477.0 -07.6084 26261.0
 20 08 2013  00 18  -21.0246 26029.7 -03477.0 -07.6083 26260.9
 20 08 2013  00 19  -21.0246 26029.7 -03477.0 -07.6083 26260.9
 20 08 2013  00 20  -21.0247 26029.7 -03477.0 -07.6083 26260.9
 20 08 2013  00 21  -21.0247 26029.7 -03477.0 -07.6083 26260.9
 20 08 2013  00 22  -21.0248 26029.9 -03477.0 -07.6084 26261.1
 20 08 2013  00 23  -21.0248 26030.0 -03477.1 -07.6085 26261.2
 20 08 2013  00 24  -21.0250 26030.0 -03477.1 -07.6085 26261.2
 20 08 2013  00 25  -21.0249 26030.0 -03477.1 -07.6085 26261.2
 20 08 2013  00 26  -21.0250 26030.1 -03477.1 -07.6086 26261.3
 20 08 2013  00 27  -21.0250 26030.2 -03477.1 -07.6086 26261.4
 20 08 2013  00 28  -21.0250 26030.3 -03477.2 -07.6086 26261.5
 20 08 2013  00 29  -21.0250 26030.3 -03477.2 -07.6086 26261.5
 20 08 2013  00 30  -21.0250 26030.2 -03477.2 -07.6086 26261.4
 20 08 2013  00 31  -21.0250 26030.1 -03477.1 -07.6086 26261.4
 20 08 2013  00 32  -21.0249 26030.1 -03477.1 -07.6085 26261.3
 20 08 2013  00 33  -21.0248 26030.0 -03477.0 -07.6084 26261.2
 20 08 2013  00 34  -21.0247 26029.9 -03477.0 -07.6083 26261.1
 20 08 2013  00 35  -21.0246 26029.8 -03477.0 -07.6083 26261.0
 20 08 2013  00 36  -21.0245 26029.8 -03476.9 -07.6082 26261.0
 20 08 2013  00 37  -21.0245 26029.8 -03476.9 -07.6083 26260.9
 20 08 2013  00 38  -21.0244 26029.7 -03476.9 -07.6082 26260.9
 20 08 2013  00 39  -21.0244 26029.6 -03476.9 -07.6082 26260.8
 20 08 2013  00 40  -21.0243 26029.6 -03476.9 -07.6082 26260.8
 20 08 2013  00 41  -21.0243 26029.8 -03477.0 -07.6084 26261.0
 20 08 2013  00 42  -21.0242 26030.0 -03477.1 -07.6086 26261.2
 20 08 2013  00 43  -21.0241 26030.0 -03477.1 -07.6086 26261.2
 20 08 2013  00 44  -21.0241 26030.0 -03477.1 -07.6086 26261.2
 20 08 2013  00 45  -21.0241 26030.0 -03477.1 -07.6086 26261.2
 20 08 2013  00 46  -21.0240 26030.0 -03477.1 -07.6086 26261.2
 20 08 2013  00 47  -21.0240 26030.0 -03477.1 -07.6086 26261.2
 20 08 2013  00 48  -21.0239 26029.9 -03477.1 -07.6086 26261.1
 20 08 2013  00 49  -21.0239 26029.8 -03477.1 -07.6085 26261.0
 20 08 2013  00 50  -21.0237 26029.7 -03477.0 -07.6084 26260.9
 20 08 2013  00 51  -21.0236 26029.6 -03477.0 -07.6084 26260.8
 20 08 2013  00 52  -21.0234 26029.6 -03476.9 -07.6083 26260.8
 20 08 2013  00 53  -21.0234 26029.6 -03477.0 -07.6084 26260.8
 20 08 2013  00 54  -21.0234 26029.6 -03477.0 -07.6084 26260.8
 20 08 2013  00 55  -21.0234 26029.6 -03477.0 -07.6084 26260.8
 20 08 2013  00 56  -21.0236 26029.4 -03476.9 -07.6083 26260.6
 20 08 2013  00 57  -21.0237 26029.2 -03476.9 -07.6083 26260.4
 20 08 2013  00 58  -21.0238 26029.1 -03476.8 -07.6082 26260.2
 20 08 2013  00 59  -21.0239 26028.9 -03476.8 -07.6081 26260.1
 20 08 2013  01 00  -21.0239 26028.9 -03476.7 -07.6081 26260.0
 20 08 2013  01 01  -21.0238 26028.8 -03476.8 -07.6082 26260.0
 20 08 2013  01 02  -21.0238 26028.8 -03476.8 -07.6082 26260.0
 20 08 2013  01 03  -21.0239 26028.6 -03476.7 -07.6081 26259.8
 20 08 2013  01 04  -21.0239 26028.5 -03476.7 -07.6080 26259.7
 20 08 2013  01 05  -21.0240 26028.4 -03476.7 -07.6080 26259.6
 20 08 2013  01 06  -21.0240 26028.5 -03476.7 -07.6081 26259.6
 20 08 2013  01 07  -21.0241 26028.5 -03476.7 -07.6081 26259.6
 20 08 2013  01 08  -21.0241 26028.5 -03476.7 -07.6081 26259.6
 20 08 2013  01 09  -21.0241 26028.5 -03476.7 -07.6081 26259.6
 20 08 2013  01 10  -21.0240 26028.5 -03476.8 -07.6082 26259.7
 20 08 2013  01 11  -21.0241 26028.5 -03476.8 -07.6083 26259.7
 20 08 2013  01 12  -21.0241 26028.5 -03476.8 -07.6083 26259.6
 20 08 2013  01 13  -21.0240 26028.5 -03476.8 -07.6083 26259.6
 20 08 2013  01 14  -21.0240 26028.7 -03476.9 -07.6085 26259.9
 20 08 2013  01 15  -21.0238 26028.9 -03477.0 -07.6087 26260.1
 20 08 2013  01 16  -21.0238 26028.8 -03477.0 -07.6087 26260.0
 20 08 2013  01 17  -21.0237 26028.7 -03476.9 -07.6086 26259.9
 20 08 2013  01 18  -21.0236 26028.8 -03477.0 -07.6086 26260.0
 20 08 2013  01 19  -21.0236 26029.1 -03477.1 -07.6089 26260.4
 20 08 2013  01 20  -21.0236 26029.2 -03477.2 -07.6090 26260.4
 20 08 2013  01 21  -21.0236 26029.2 -03477.2 -07.6090 26260.5
 20 08 2013  01 22  -21.0233 26029.7 -03477.4 -07.6092 26260.9
 20 08 2013  01 23  -21.0232 26030.0 -03477.5 -07.6094 26261.2
 20 08 2013  01 24  -21.0235 26029.7 -03477.4 -07.6093 26261.0
 20 08 2013  01 25  -21.0229 26030.2 -03477.6 -07.6096 26261.5
 20 08 2013  01 26  -21.0230 26029.8 -03477.4 -07.6092 26261.1
 20 08 2013  01 27  -21.0229 26029.9 -03477.4 -07.6092 26261.2
 20 08 2013  01 28  -21.0231 26029.6 -03477.2 -07.6090 26260.8
 20 08 2013  01 29  -21.0233 26029.7 -03477.2 -07.6089 26260.9
 20 08 2013  01 30  -21.0232 26029.8 -03477.3 -07.6090 26261.0
 20 08 2013  01 31  -21.0234 26029.8 -03477.3 -07.6090 26261.1
 20 08 2013  01 32  -21.0234 26029.7 -03477.3 -07.6090 26261.0
 20 08 2013  01 33  -21.0235 26029.5 -03477.1 -07.6087 26260.7
 20 08 2013  01 34  -21.0235 26029.6 -03477.1 -07.6087 26260.8
 20 08 2013  01 35  -21.0234 26029.7 -03477.2 -07.6089 26261.0
 20 08 2013  01 36  -21.0230 26029.8 -03477.3 -07.6090 26261.1
 20 08 2013  01 37  -21.0231 26029.7 -03477.3 -07.6090 26260.9
 20 08 2013  01 38  -21.0229 26029.7 -03477.2 -07.6089 26260.9
 20 08 2013  01 39  -21.0228 26029.9 -03477.3 -07.6091 26261.1
 20 08 2013  01 40  -21.0228 26029.8 -03477.3 -07.6091 26261.1
 20 08 2013  01 41  -21.0227 26030.1 -03477.4 -07.6092 26261.4
 20 08 2013  01 42  -21.0226 26030.0 -03477.4 -07.6092 26261.3
 20 08 2013  01 43  -21.0225 26030.2 -03477.5 -07.6094 26261.5
 20 08 2013  01 44  -21.0226 26030.1 -03477.5 -07.6093 26261.4
 20 08 2013  01 45  -21.0226 26030.3 -03477.5 -07.6094 26261.6
 20 08 2013  01 46  -21.0226 26030.3 -03477.5 -07.6093 26261.5
 20 08 2013  01 47  -21.0225 26030.5 -03477.6 -07.6095 26261.8
 20 08 2013  01 48  -21.0225 26030.3 -03477.5 -07.6093 26261.5
 20 08 2013  01 49  -21.0225 26030.4 -03477.5 -07.6092 26261.6
 20 08 2013  01 50  -21.0222 26030.4 -03477.5 -07.6093 26261.7
 20 08 2013  01 51  -21.0223 26030.4 -03477.5 -07.6093 26261.7
 20 08 2013  01 52  -21.0221 26030.5 -03477.5 -07.6092 26261.7
 20 08 2013  01 53  -21.0219 26030.6 -03477.5 -07.6092 26261.8
 20 08 2013  01 54  -21.0218 26030.8 -03477.6 -07.6094 26262.1
 20 08 2013  01 55  -21.0217 26030.7 -03477.6 -07.6093 26262.0
 20 08 2013  01 56  -21.0215 26030.9 -03477.6 -07.6093 26262.2
 20 08 2013  01 57  -21.0213 26031.2 -03477.7 -07.6096 26262.5
 20 08 2013  01 58  -21.0214 26031.3 -03477.8 -07.6096 26262.6
 20 08 2013  01 59  -21.0214 26031.2 -03477.8 -07.6096 26262.5
 20 08 2013  02 00  -21.0215 26031.1 -03477.7 -07.6094 26262.4
 20 08 2013  02 01  -21.0215 26031.1 -03477.6 -07.6094 26262.4
 20 08 2013  02 02  -21.0216 26031.2 -03477.7 -07.6094 26262.5
 20 08 2013  02 03  -21.0217 26031.4 -03477.7 -07.6095 26262.6
 20 08 2013  02 04  -21.0218 26031.3 -03477.7 -07.6094 26262.6
 20 08 2013  02 05  -21.0219 26031.2 -03477.6 -07.6092 26262.5
 20 08 2013  02 06  -21.0219 26031.3 -03477.6 -07.6092 26262.5
 20 08 2013  02 07  -21.0219 26031.1 -03477.5 -07.6091 26262.4
 20 08 2013  02 08  -21.0220 26031.0 -03477.4 -07.6090 26262.3
 20 08 2013  02 09  -21.0219 26031.0 -03477.4 -07.6089 26262.2
 20 08 2013  02 10  -21.0219 26031.0 -03477.4 -07.6089 26262.3
 20 08 2013  02 11  -21.0217 26031.3 -03477.5 -07.6091 26262.6
 20 08 2013  02 12  -21.0219 26030.9 -03477.4 -07.6090 26262.1
 20 08 2013  02 13  -21.0215 26031.1 -03477.4 -07.6089 26262.3
 20 08 2013  02 14  -21.0214 26031.2 -03477.5 -07.6091 26262.4
 20 08 2013  02 15  -21.0213 26031.2 -03477.5 -07.6091 26262.5
 20 08 2013  02 16  -21.0212 26031.1 -03477.5 -07.6091 26262.4
 20 08 2013  02 17  -21.0212 26031.1 -03477.5 -07.6091 26262.4
 20 08 2013  02 18  -21.0209 26031.1 -03477.5 -07.6091 26262.4
 20 08 2013  02 19  -21.0209 26031.2 -03477.5 -07.6091 26262.4
 20 08 2013  02 20  -21.0209 26031.1 -03477.6 -07.6092 26262.4
 20 08 2013  02 21  -21.0209 26031.1 -03477.5 -07.6091 26262.3
 20 08 2013  02 22  -21.0210 26031.1 -03477.5 -07.6091 26262.4
 20 08 2013  02 23  -21.0210 26031.1 -03477.6 -07.6092 26262.4
 20 08 2013  02 24  -21.0210 26031.1 -03477.6 -07.6092 26262.4
 20 08 2013  02 25  -21.0209 26031.2 -03477.6 -07.6092 26262.4
 20 08 2013  02 26  -21.0209 26031.1 -03477.5 -07.6092 26262.3
 20 08 2013  02 27  -21.0208 26031.1 -03477.5 -07.6091 26262.3
 20 08 2013  02 28  -21.0209 26031.0 -03477.5 -07.6091 26262.3
 20 08 2013  02 29  -21.0211 26030.9 -03477.5 -07.6091 26262.2
 20 08 2013  02 30  -21.0212 26030.9 -03477.5 -07.6091 26262.1
 20 08 2013  02 31  -21.0214 26030.7 -03477.4 -07.6090 26261.9
 20 08 2013  02 32  -21.0214 26030.7 -03477.4 -07.6089 26261.9
 20 08 2013  02 33  -21.0214 26030.6 -03477.3 -07.6088 26261.8
 20 08 2013  02 34  -21.0214 26030.4 -03477.2 -07.6087 26261.6
 20 08 2013  02 35  -21.0215 26030.3 -03477.2 -07.6087 26261.5
 20 08 2013  02 36  -21.0216 26030.3 -03477.2 -07.6087 26261.5
 20 08 2013  02 37  -21.0216 26030.3 -03477.2 -07.6087 26261.5
 20 08 2013  02 38  -21.0217 26030.2 -03477.2 -07.6088 26261.4
 20 08 2013  02 39  -21.0217 26030.1 -03477.2 -07.6087 26261.3
 20 08 2013  02 40  -21.0215 26030.0 -03477.2 -07.6087 26261.2
 20 08 2013  02 41  -21.0214 26030.0 -03477.1 -07.6086 26261.2
 20 08 2013  02 42  -21.0214 26029.7 -03477.1 -07.6086 26260.9
 20 08 2013  02 43  -21.0214 26029.6 -03477.1 -07.6086 26260.8
 20 08 2013  02 44  -21.0214 26029.4 -03477.0 -07.6085 26260.6
 20 08 2013  02 45  -21.0214 26029.3 -03477.0 -07.6084 26260.5
 20 08 2013  02 46  -21.0214 26029.2 -03477.0 -07.6085 26260.4
 20 08 2013  02 47  -21.0215 26029.1 -03477.0 -07.6085 26260.3
 20 08 2013  02 48  -21.0215 26029.2 -03477.0 -07.6087 26260.4
 20 08 2013  02 49  -21.0214 26029.2 -03477.1 -07.6088 26260.4
 20 08 2013  02 50  -21.0214 26029.2 -03477.2 -07.6089 26260.5
 20 08 2013  02 51  -21.0212 26029.3 -03477.2 -07.6090 26260.5
 20 08 2013  02 52  -21.0211 26029.3 -03477.2 -07.6090 26260.5
 20 08 2013  02 53  -21.0209 26029.2 -03477.2 -07.6091 26260.5
 20 08 2013  02 54  -21.0209 26029.2 -03477.2 -07.6091 26260.4
 20 08 2013  02 55  -21.0207 26029.2 -03477.3 -07.6092 26260.4
 20 08 2013  02 56  -21.0208 26029.1 -03477.3 -07.6092 26260.4
 20 08 2013  02 57  -21.0208 26029.1 -03477.3 -07.6093 26260.3
 20 08 2013  02 58  -21.0207 26029.0 -03477.3 -07.6093 26260.3
 20 08 2013  02 59  -21.0206 26029.0 -03477.3 -07.6093 26260.3
 20 08 2013  03 00  -21.0206 26028.9 -03477.3 -07.6093 26260.2
 20 08 2013  03 01  -21.0206 26028.9 -03477.4 -07.6095 26260.2
 20 08 2013  03 02  -21.0205 26029.0 -03477.4 -07.6095 26260.2
 20 08 2013  03 03  -21.0204 26029.0 -03477.4 -07.6096 26260.3
 20 08 2013  03 04  -21.0203 26028.9 -03477.4 -07.6096 26260.2
 20 08 2013  03 05  -21.0204 26028.9 -03477.5 -07.6096 26260.2
 20 08 2013  03 06  -21.0203 26028.9 -03477.5 -07.6097 26260.2
 20 08 2013  03 07  -21.0203 26028.9 -03477.5 -07.6098 26260.1
 20 08 2013  03 08  -21.0203 26028.9 -03477.5 -07.6098 26260.1
 20 08 2013  03 09  -21.0203 26028.9 -03477.6 -07.6099 26260.2
 20 08 2013  03 10  -21.0204 26029.0 -03477.6 -07.6100 26260.3
 20 08 2013  03 11  -21.0203 26029.0 -03477.7 -07.6101 26260.3
 20 08 2013  03 12  -21.0203 26029.1 -03477.7 -07.6102 26260.4
 20 08 2013  03 13  -21.0203 26029.0 -03477.8 -07.6102 26260.4
 20 08 2013  03 14  -21.0203 26029.1 -03477.8 -07.6103 26260.4
 20 08 2013  03 15  -21.0203 26029.0 -03477.8 -07.6103 26260.4
 20 08 2013  03 16  -21.0203 26029.0 -03477.8 -07.6103 26260.3
 20 08 2013  03 17  -21.0204 26028.9 -03477.8 -07.6103 26260.2
 20 08 2013  03 18  -21.0204 26028.9 -03477.8 -07.6103 26260.2
 20 08 2013  03 19  -21.0205 26028.9 -03477.8 -07.6103 26260.2
 20 08 2013  03 20  -21.0205 26028.8 -03477.8 -07.6104 26260.1
 20 08 2013  03 21  -21.0204 26028.9 -03477.8 -07.6104 26260.2
 20 08 2013  03 22  -21.0204 26028.9 -03477.9 -07.6105 26260.2
 20 08 2013  03 23  -21.0203 26029.0 -03477.9 -07.6106 26260.3
 20 08 2013  03 24  -21.0202 26029.0 -03477.9 -07.6106 26260.4
 20 08 2013  03 25  -21.0202 26029.1 -03478.0 -07.6108 26260.4
 20 08 2013  03 26  -21.0202 26029.1 -03478.0 -07.6107 26260.4
 20 08 2013  03 27  -21.0202 26029.0 -03478.0 -07.6108 26260.3
 20 08 2013  03 28  -21.0202 26029.0 -03478.0 -07.6107 26260.3
 20 08 2013  03 29  -21.0202 26029.0 -03478.0 -07.6108 26260.3
 20 08 2013  03 30  -21.0202 26028.9 -03478.0 -07.6108 26260.3
 20 08 2013  03 31  -21.0203 26028.9 -03478.0 -07.6109 26260.2
 20 08 2013  03 32  -21.0203 26028.9 -03478.0 -07.6108 26260.2
 20 08 2013  03 33  -21.0203 26029.0 -03478.0 -07.6109 26260.3
 20 08 2013  03 34  -21.0202 26029.0 -03478.1 -07.6110 26260.4
 20 08 2013  03 35  -21.0202 26029.1 -03478.2 -07.6112 26260.5
 20 08 2013  03 36  -21.0202 26029.2 -03478.3 -07.6113 26260.6
 20 08 2013  03 37  -21.0201 26029.3 -03478.3 -07.6113 26260.7
 20 08 2013  03 38  -21.0201 26029.4 -03478.3 -07.6114 26260.7
 20 08 2013  03 39  -21.0201 26029.3 -03478.3 -07.6114 26260.7
 20 08 2013  03 40  -21.0202 26029.1 -03478.2 -07.6112 26260.4
 20 08 2013  03 41  -21.0202 26028.9 -03478.1 -07.6110 26260.2
 20 08 2013  03 42  -21.0203 26028.7 -03478.0 -07.6109 26260.1
 20 08 2013  03 43  -21.0205 26028.5 -03477.9 -07.6107 26259.8
 20 08 2013  03 44  -21.0205 26028.3 -03477.8 -07.6106 26259.6
 20 08 2013  03 45  -21.0206 26028.2 -03477.8 -07.6105 26259.5
 20 08 2013  03 46  -21.0208 26028.2 -03477.8 -07.6105 26259.5
 20 08 2013  03 47  -21.0208 26028.1 -03477.8 -07.6106 26259.4
 20 08 2013  03 48  -21.0208 26028.1 -03477.8 -07.6106 26259.4
 20 08 2013  03 49  -21.0207 26028.2 -03477.8 -07.6106 26259.5
 20 08 2013  03 50  -21.0206 26028.2 -03477.8 -07.6107 26259.5
 20 08 2013  03 51  -21.0205 26028.2 -03477.9 -07.6107 26259.5
 20 08 2013  03 52  -21.0205 26028.3 -03477.9 -07.6108 26259.6
 20 08 2013  03 53  -21.0205 26028.3 -03477.9 -07.6109 26259.6
 20 08 2013  03 54  -21.0205 26028.3 -03478.0 -07.6109 26259.6
 20 08 2013  03 55  -21.0204 26028.3 -03478.0 -07.6110 26259.7
 20 08 2013  03 56  -21.0203 26028.3 -03478.0 -07.6109 26259.6
 20 08 2013  03 57  -21.0202 26028.2 -03477.9 -07.6109 26259.6
 20 08 2013  03 58  -21.0201 26028.2 -03477.9 -07.6109 26259.5
 20 08 2013  03 59  -21.0199 26028.1 -03477.9 -07.6108 26259.5
 20 08 2013  04 00  -21.0198 26028.2 -03477.9 -07.6108 26259.5
 20 08 2013  04 01  -21.0197 26028.1 -03477.9 -07.6109 26259.5
 20 08 2013  04 02  -21.0195 26028.1 -03477.9 -07.6109 26259.4
 20 08 2013  04 03  -21.0194 26028.1 -03477.9 -07.6109 26259.4
 20 08 2013  04 04  -21.0194 26028.1 -03477.9 -07.6109 26259.4
 20 08 2013  04 05  -21.0194 26028.0 -03477.9 -07.6109 26259.3
 20 08 2013  04 06  -21.0193 26027.9 -03477.9 -07.6109 26259.2
 20 08 2013  04 07  -21.0191 26027.8 -03477.9 -07.6108 26259.2
 20 08 2013  04 08  -21.0189 26027.8 -03477.8 -07.6108 26259.1
 20 08 2013  04 09  -21.0188 26027.7 -03477.9 -07.6108 26259.0
 20 08 2013  04 10  -21.0187 26027.7 -03477.8 -07.6108 26259.0
 20 08 2013  04 11  -21.0186 26027.7 -03477.9 -07.6109 26259.0
 20 08 2013  04 12  -21.0186 26027.7 -03477.9 -07.6109 26259.0
 20 08 2013  04 13  -21.0187 26027.6 -03477.9 -07.6110 26259.0
 20 08 2013  04 14  -21.0186 26027.6 -03477.9 -07.6110 26259.0
 20 08 2013  04 15  -21.0186 26027.6 -03478.0 -07.6111 26259.0
 20 08 2013  04 16  -21.0186 26027.7 -03478.0 -07.6111 26259.0
 20 08 2013  04 17  -21.0186 26027.7 -03478.0 -07.6111 26259.0
 20 08 2013  04 18  -21.0185 26027.7 -03478.0 -07.6111 26259.0
 20 08 2013  04 19  -21.0185 26027.6 -03478.0 -07.6111 26259.0
 20 08 2013  04 20  -21.0184 26027.6 -03478.0 -07.6111 26258.9
 20 08 2013  04 21  -21.0184 26027.6 -03478.0 -07.6112 26258.9
 20 08 2013  04 22  -21.0183 26027.5 -03478.0 -07.6112 26258.9
 20 08 2013  04 23  -21.0182 26027.5 -03478.0 -07.6112 26258.9
 20 08 2013  04 24  -21.0181 26027.5 -03478.0 -07.6112 26258.8
 20 08 2013  04 25  -21.0182 26027.4 -03478.0 -07.6113 26258.8
 20 08 2013  04 26  -21.0182 26027.4 -03478.0 -07.6112 26258.8
 20 08 2013  04 27  -21.0183 26027.3 -03478.0 -07.6112 26258.7
 20 08 2013  04 28  -21.0183 26027.3 -03478.0 -07.6112 26258.6
 20 08 2013  04 29  -21.0184 26027.2 -03477.9 -07.6112 26258.5
 20 08 2013  04 30  -21.0184 26027.1 -03477.9 -07.6111 26258.4
 20 08 2013  04 31  -21.0185 26027.0 -03477.9 -07.6111 26258.4
 20 08 2013  04 32  -21.0186 26026.9 -03477.9 -07.6111 26258.3
 20 08 2013  04 33  -21.0187 26026.9 -03477.8 -07.6110 26258.2
 20 08 2013  04 34  -21.0189 26026.9 -03477.9 -07.6111 26258.2
 20 08 2013  04 35  -21.0190 26026.9 -03477.9 -07.6111 26258.3
 20 08 2013  04 36  -21.0190 26027.0 -03477.9 -07.6112 26258.3
 20 08 2013  04 37  -21.0191 26027.1 -03478.0 -07.6113 26258.4
 20 08 2013  04 38  -21.0190 26027.2 -03478.0 -07.6114 26258.6
 20 08 2013  04 39  -21.0189 26027.2 -03478.1 -07.6114 26258.6
 20 08 2013  04 40  -21.0187 26027.3 -03478.1 -07.6114 26258.7
 20 08 2013  04 41  -21.0186 26027.4 -03478.1 -07.6115 26258.7
 20 08 2013  04 42  -21.0184 26027.4 -03478.1 -07.6116 26258.7
 20 08 2013  04 43  -21.0182 26027.3 -03478.1 -07.6115 26258.7
 20 08 2013  04 44  -21.0181 26027.3 -03478.1 -07.6115 26258.7
 20 08 2013  04 45  -21.0181 26027.3 -03478.1 -07.6115 26258.6
 20 08 2013  04 46  -21.0181 26027.2 -03478.1 -07.6115 26258.6
 20 08 2013  04 47  -21.0181 26027.1 -03478.1 -07.6114 26258.5
 20 08 2013  04 48  -21.0181 26027.0 -03478.0 -07.6114 26258.4
 20 08 2013  04 49  -21.0180 26026.9 -03478.0 -07.6113 26258.3
 20 08 2013  04 50  -21.0179 26026.9 -03478.0 -07.6113 26258.2
 20 08 2013  04 51  -21.0179 26026.9 -03478.0 -07.6113 26258.2
 20 08 2013  04 52  -21.0178 26026.8 -03478.0 -07.6114 26258.2
 20 08 2013  04 53  -21.0177 26026.8 -03478.0 -07.6114 26258.2
 20 08 2013  04 54  -21.0176 26026.9 -03478.1 -07.6115 26258.2
 20 08 2013  04 55  -21.0176 26026.9 -03478.1 -07.6116 26258.3
 20 08 2013  04 56  -21.0175 26027.1 -03478.2 -07.6118 26258.4
 20 08 2013  04 57  -21.0175 26027.2 -03478.3 -07.6119 26258.5
 20 08 2013  04 58  -21.0174 26027.2 -03478.3 -07.6120 26258.6
 20 08 2013  04 59  -21.0174 26027.2 -03478.3 -07.6119 26258.6
 20 08 2013  05 00  -21.0173 26027.2 -03478.3 -07.6119 26258.6
 20 08 2013  05 01  -21.0172 26027.2 -03478.3 -07.6119 26258.5
 20 08 2013  05 02  -21.0171 26027.1 -03478.3 -07.6119 26258.5
 20 08 2013  05 03  -21.0171 26027.1 -03478.3 -07.6119 26258.5
 20 08 2013  05 04  -21.0171 26027.1 -03478.3 -07.6119 26258.5
 20 08 2013  05 05  -21.0170 26027.1 -03478.3 -07.6119 26258.5
 20 08 2013  05 06  -21.0170 26027.1 -03478.3 -07.6120 26258.5
 20 08 2013  05 07  -21.0170 26027.1 -03478.3 -07.6120 26258.5
 20 08 2013  05 08  -21.0169 26027.1 -03478.3 -07.6121 26258.5
 20 08 2013  05 09  -21.0169 26027.1 -03478.4 -07.6121 26258.5
 20 08 2013  05 10  -21.0168 26027.1 -03478.4 -07.6121 26258.5
 20 08 2013  05 11  -21.0168 26027.1 -03478.4 -07.6122 26258.5
 20 08 2013  05 12  -21.0168 26027.1 -03478.4 -07.6122 26258.5
 20 08 2013  05 13  -21.0167 26027.1 -03478.4 -07.6122 26258.5
 20 08 2013  05 14  -21.0167 26027.1 -03478.4 -07.6123 26258.5
 20 08 2013  05 15  -21.0167 26027.0 -03478.4 -07.6123 26258.4
 20 08 2013  05 16  -21.0167 26027.0 -03478.4 -07.6123 26258.4
 20 08 2013  05 17  -21.0167 26027.0 -03478.5 -07.6123 26258.4
 20 08 2013  05 18  -21.0167 26027.0 -03478.4 -07.6123 26258.4
 20 08 2013  05 19  -21.0165 26027.0 -03478.5 -07.6124 26258.4
 20 08 2013  05 20  -21.0164 26027.0 -03478.5 -07.6125 26258.4
 20 08 2013  05 21  -21.0164 26027.0 -03478.5 -07.6125 26258.4
 20 08 2013  05 22  -21.0163 26027.0 -03478.5 -07.6125 26258.4
 20 08 2013  05 23  -21.0163 26027.0 -03478.6 -07.6126 26258.5
 20 08 2013  05 24  -21.0163 26027.0 -03478.6 -07.6126 26258.4
 20 08 2013  05 25  -21.0162 26027.1 -03478.6 -07.6127 26258.5
 20 08 2013  05 26  -21.0160 26027.0 -03478.6 -07.6127 26258.4
 20 08 2013  05 27  -21.0159 26027.0 -03478.6 -07.6127 26258.4
 20 08 2013  05 28  -21.0157 26026.9 -03478.6 -07.6127 26258.3
 20 08 2013  05 29  -21.0156 26026.9 -03478.6 -07.6127 26258.3
 20 08 2013  05 30  -21.0155 26026.9 -03478.7 -07.6128 26258.4
 20 08 2013  05 31  -21.0153 26027.0 -03478.7 -07.6130 26258.4
 20 08 2013  05 32  -21.0153 26027.0 -03478.8 -07.6131 26258.5
 20 08 2013  05 33  -21.0150 26027.1 -03478.8 -07.6131 26258.5
 20 08 2013  05 34  -21.0148 26027.0 -03478.9 -07.6132 26258.5
 20 08 2013  05 35  -21.0147 26027.0 -03478.9 -07.6133 26258.5
 20 08 2013  05 36  -21.0146 26027.0 -03478.9 -07.6134 26258.5
 20 08 2013  05 37  -21.0144 26027.0 -03479.0 -07.6134 26258.5
 20 08 2013  05 38  -21.0143 26027.1 -03479.0 -07.6135 26258.6
 20 08 2013  05 39  -21.0142 26027.1 -03479.1 -07.6137 26258.6
 20 08 2013  05 40  -21.0140 26027.1 -03479.1 -07.6138 26258.6
 20 08 2013  05 41  -21.0139 26027.1 -03479.2 -07.6138 26258.6
 20 08 2013  05 42  -21.0138 26027.2 -03479.2 -07.6139 26258.7
 20 08 2013  05 43  -21.0137 26027.1 -03479.2 -07.6140 26258.6
 20 08 2013  05 44  -21.0137 26027.0 -03479.2 -07.6140 26258.5
 20 08 2013  05 45  -21.0136 26026.9 -03479.2 -07.6139 26258.4
 20 08 2013  05 46  -21.0136 26026.8 -03479.2 -07.6139 26258.3
 20 08 2013  05 47  -21.0135 26026.8 -03479.2 -07.6139 26258.3
 20 08 2013  05 48  -21.0135 26026.7 -03479.2 -07.6140 26258.2
 20 08 2013  05 49  -21.0135 26026.7 -03479.2 -07.6141 26258.2
 20 08 2013  05 50  -21.0133 26026.7 -03479.2 -07.6141 26258.2
 20 08 2013  05 51  -21.0133 26026.7 -03479.3 -07.6142 26258.2
 20 08 2013  05 52  -21.0131 26026.7 -03479.3 -07.6143 26258.3
 20 08 2013  05 53  -21.0130 26026.8 -03479.4 -07.6145 26258.3
 20 08 2013  05 54  -21.0130 26026.8 -03479.5 -07.6146 26258.3
 20 08 2013  05 55  -21.0129 26026.8 -03479.4 -07.6146 26258.3
 20 08 2013  05 56  -21.0129 26026.7 -03479.4 -07.6146 26258.2
 20 08 2013  05 57  -21.0129 26026.7 -03479.5 -07.6146 26258.3
 20 08 2013  05 58  -21.0129 26026.6 -03479.5 -07.6146 26258.2
 20 08 2013  05 59  -21.0129 26026.5 -03479.5 -07.6146 26258.1
 20 08 2013  06 00  -21.0129 26026.5 -03479.5 -07.6148 26258.1
 20 08 2013  06 01  -21.0129 26026.5 -03479.5 -07.6148 26258.1
 20 08 2013  06 02  -21.0129 26026.4 -03479.5 -07.6147 26258.0
 20 08 2013  06 03  -21.0129 26026.4 -03479.5 -07.6148 26258.0
 20 08 2013  06 04  -21.0129 26026.3 -03479.5 -07.6148 26257.9
 20 08 2013  06 05  -21.0130 26026.3 -03479.5 -07.6148 26257.9
 20 08 2013  06 06  -21.0131 26026.3 -03479.5 -07.6148 26257.8
 20 08 2013  06 07  -21.0130 26026.3 -03479.5 -07.6148 26257.8
 20 08 2013  06 08  -21.0131 26026.2 -03479.5 -07.6148 26257.7
 20 08 2013  06 09  -21.0130 26026.1 -03479.5 -07.6148 26257.7
 20 08 2013  06 10  -21.0130 26026.1 -03479.5 -07.6149 26257.7
 20 08 2013  06 11  -21.0130 26026.2 -03479.5 -07.6149 26257.7
 20 08 2013  06 12  -21.0129 26026.1 -03479.5 -07.6148 26257.7
 20 08 2013  06 13  -21.0127 26026.2 -03479.6 -07.6150 26257.8
 20 08 2013  06 14  -21.0125 26026.2 -03479.6 -07.6151 26257.8
 20 08 2013  06 15  -21.0124 26026.2 -03479.6 -07.6151 26257.8
 20 08 2013  06 16  -21.0122 26026.2 -03479.7 -07.6152 26257.8
 20 08 2013  06 17  -21.0121 26026.2 -03479.7 -07.6152 26257.7
 20 08 2013  06 18  -21.0118 26026.3 -03479.7 -07.6153 26257.8
 20 08 2013  06 19  -21.0116 26026.3 -03479.8 -07.6154 26257.9
 20 08 2013  06 20  -21.0115 26026.3 -03479.8 -07.6155 26257.9
 20 08 2013  06 21  -21.0114 26026.4 -03479.9 -07.6156 26258.1
 20 08 2013  06 22  -21.0114 26026.5 -03479.9 -07.6157 26258.1
 20 08 2013  06 23  -21.0112 26026.6 -03480.0 -07.6158 26258.2
 20 08 2013  06 24  -21.0112 26026.6 -03480.0 -07.6158 26258.2
 20 08 2013  06 25  -21.0111 26026.5 -03480.0 -07.6159 26258.2
 20 08 2013  06 26  -21.0110 26026.5 -03480.0 -07.6159 26258.1
 20 08 2013  06 27  -21.0110 26026.4 -03480.0 -07.6158 26258.0
 20 08 2013  06 28  -21.0110 26026.5 -03480.0 -07.6159 26258.1
 20 08 2013  06 29  -21.0110 26026.4 -03480.0 -07.6159 26258.0
 20 08 2013  06 30  -21.0108 26026.4 -03480.0 -07.6159 26258.0
 20 08 2013  06 31  -21.0107 26026.4 -03480.1 -07.6160 26258.1
 20 08 2013  06 32  -21.0106 26026.5 -03480.1 -07.6160 26258.1
 20 08 2013  06 33  -21.0105 26026.3 -03480.0 -07.6160 26258.0
 20 08 2013  06 34  -21.0104 26026.5 -03480.1 -07.6159 26258.1
 20 08 2013  06 35  -21.0103 26026.5 -03480.1 -07.6161 26258.1
 20 08 2013  06 36  -21.0101 26026.4 -03480.1 -07.6161 26258.1
 20 08 2013  06 37  -21.0100 26026.4 -03480.1 -07.6161 26258.0
 20 08 2013  06 38  -21.0098 26026.4 -03480.1 -07.6162 26258.1
 20 08 2013  06 39  -21.0097 26026.4 -03480.2 -07.6162 26258.0
 20 08 2013  06 40  -21.0096 26026.4 -03480.2 -07.6162 26258.0
 20 08 2013  06 41  -21.0095 26026.4 -03480.2 -07.6163 26258.1
 20 08 2013  06 42  -21.0093 26026.4 -03480.2 -07.6164 26258.1
 20 08 2013  06 43  -21.0092 26026.4 -03480.2 -07.6164 26258.0
 20 08 2013  06 44  -21.0091 26026.4 -03480.2 -07.6164 26258.0
 20 08 2013  06 45  -21.0090 26026.4 -03480.3 -07.6165 26258.1
 20 08 2013  06 46  -21.0090 26026.5 -03480.3 -07.6164 26258.1
 20 08 2013  06 47  -21.0088 26026.4 -03480.3 -07.6165 26258.1
 20 08 2013  06 48  -21.0086 26026.5 -03480.3 -07.6164 26258.2
 20 08 2013  06 49  -21.0085 26026.2 -03480.2 -07.6163 26257.8
 20 08 2013  06 50  -21.0083 26026.3 -03480.2 -07.6164 26258.0
 20 08 2013  06 51  -21.0082 26026.3 -03480.3 -07.6164 26257.9
 20 08 2013  06 52  -21.0080 26026.3 -03480.3 -07.6165 26258.0
 20 08 2013  06 53  -21.0079 26026.2 -03480.3 -07.6165 26257.9
 20 08 2013  06 54  -21.0075 26026.3 -03480.4 -07.6167 26257.9
 20 08 2013  06 55  -21.0073 26026.3 -03480.4 -07.6166 26258.0
 20 08 2013  06 56  -21.0072 26026.3 -03480.4 -07.6168 26258.0
 20 08 2013  06 57  -21.0069 26026.3 -03480.5 -07.6169 26258.0
 20 08 2013  06 58  -21.0067 26026.1 -03480.4 -07.6168 26257.8
 20 08 2013  06 59  -21.0065 26026.2 -03480.5 -07.6169 26257.9
 20 08 2013  07 00  -21.0063 26026.1 -03480.4 -07.6168 26257.7
 20 08 2013  07 01  -21.0063 26026.1 -03480.4 -07.6169 26257.7
 20 08 2013  07 02  -21.0062 26026.2 -03480.5 -07.6170 26257.9
 20 08 2013  07 03  -21.0062 26026.1 -03480.5 -07.6170 26257.8
 20 08 2013  07 04  -21.0060 26026.0 -03480.4 -07.6169 26257.7
 20 08 2013  07 05  -21.0060 26026.1 -03480.5 -07.6170 26257.8
 20 08 2013  07 06  -21.0059 26026.0 -03480.5 -07.6171 26257.7
 20 08 2013  07 07  -21.0059 26025.9 -03480.5 -07.6171 26257.6
 20 08 2013  07 08  -21.0057 26026.0 -03480.5 -07.6171 26257.7
 20 08 2013  07 09  -21.0056 26026.1 -03480.6 -07.6172 26257.8
 20 08 2013  07 10  -21.0055 26026.1 -03480.6 -07.6173 26257.8
 20 08 2013  07 11  -21.0053 26026.2 -03480.7 -07.6173 26257.9
 20 08 2013  07 12  -21.0051 26026.4 -03480.7 -07.6175 26258.1
 20 08 2013  07 13  -21.0051 26026.3 -03480.8 -07.6175 26258.1
 20 08 2013  07 14  -21.0051 26026.5 -03480.8 -07.6176 26258.2
 20 08 2013  07 15  -21.0050 26026.5 -03480.9 -07.6177 26258.2
 20 08 2013  07 16  -21.0049 26026.5 -03480.8 -07.6177 26258.2
 20 08 2013  07 17  -21.0048 26026.4 -03480.9 -07.6177 26258.2
 20 08 2013  07 18  -21.0049 26026.4 -03480.8 -07.6176 26258.1
 20 08 2013  07 19  -21.0048 26026.3 -03480.8 -07.6176 26258.0
 20 08 2013  07 20  -21.0048 26026.3 -03480.8 -07.6175 26258.0
 20 08 2013  07 21  -21.0047 26026.2 -03480.7 -07.6175 26258.0
 20 08 2013  07 22  -21.0046 26026.1 -03480.7 -07.6174 26257.9
 20 08 2013  07 23  -21.0044 26026.2 -03480.7 -07.6174 26257.9
 20 08 2013  07 24  -21.0044 26026.0 -03480.6 -07.6173 26257.7
 20 08 2013  07 25  -21.0043 26026.2 -03480.7 -07.6174 26258.0
 20 08 2013  07 26  -21.0040 26026.3 -03480.7 -07.6175 26258.0
 20 08 2013  07 27  -21.0038 26026.2 -03480.7 -07.6174 26257.9
 20 08 2013  07 28  -21.0038 26026.4 -03480.8 -07.6176 26258.1
 20 08 2013  07 29  -21.0038 26026.5 -03480.9 -07.6177 26258.2
 20 08 2013  07 30  -21.0039 26026.3 -03480.8 -07.6175 26258.0
 20 08 2013  07 31  -21.0037 26026.6 -03480.9 -07.6177 26258.4
 20 08 2013  07 32  -21.0039 26026.3 -03480.8 -07.6176 26258.1
 20 08 2013  07 33  -21.0039 26026.6 -03480.9 -07.6177 26258.3
 20 08 2013  07 34  -21.0038 26026.7 -03480.9 -07.6178 26258.4
 20 08 2013  07 35  -21.0038 26026.7 -03480.9 -07.6177 26258.5
 20 08 2013  07 36  -21.0035 26026.7 -03480.8 -07.6176 26258.5
 20 08 2013  07 37  -21.0034 26026.8 -03480.8 -07.6175 26258.6
 20 08 2013  07 38  -21.0032 26026.9 -03480.9 -07.6176 26258.6
 20 08 2013  07 39  -21.0032 26027.0 -03480.9 -07.6176 26258.8
 20 08 2013  07 40  -21.0031 26027.2 -03481.0 -07.6178 26259.0
 20 08 2013  07 41  -21.0032 26027.3 -03481.0 -07.6178 26259.1
 20 08 2013  07 42  -21.0031 26027.3 -03481.0 -07.6178 26259.1
 20 08 2013  07 43  -21.0030 26027.4 -03481.1 -07.6179 26259.2
 20 08 2013  07 44  -21.0028 26027.4 -03481.0 -07.6178 26259.1
 20 08 2013  07 45  -21.0027 26027.3 -03481.0 -07.6177 26259.0
 20 08 2013  07 46  -21.0025 26027.3 -03480.9 -07.6176 26259.0
 20 08 2013  07 47  -21.0023 26027.2 -03480.8 -07.6174 26259.0
 20 08 2013  07 48  -21.0019 26027.0 -03480.7 -07.6173 26258.7
 20 08 2013  07 49  -21.0016 26027.2 -03480.8 -07.6173 26258.9
 20 08 2013  07 50  -21.0013 26026.8 -03480.7 -07.6172 26258.5
 20 08 2013  07 51  -21.0013 26027.1 -03480.8 -07.6173 26258.8
 20 08 2013  07 52  -21.0010 26027.1 -03480.8 -07.6174 26258.8
 20 08 2013  07 53  -21.0010 26026.9 -03480.7 -07.6172 26258.7
 20 08 2013  07 54  -21.0008 26026.9 -03480.7 -07.6171 26258.6
 20 08 2013  07 55  -21.0006 26027.0 -03480.7 -07.6172 26258.7
 20 08 2013  07 56  -21.0004 26027.1 -03480.7 -07.6172 26258.8
 20 08 2013  07 57  -21.0000 26027.1 -03480.7 -07.6173 26258.8
 20 08 2013  07 58  -20.9997 26027.1 -03480.8 -07.6173 26258.8
 20 08 2013  07 59  -20.9995 26027.3 -03480.8 -07.6173 26259.0
 20 08 2013  08 00  -20.9994 26027.3 -03480.8 -07.6173 26259.0
 20 08 2013  08 01  -20.9992 26027.3 -03480.8 -07.6174 26259.1
 20 08 2013  08 02  -20.9988 26027.2 -03480.8 -07.6173 26258.9
 20 08 2013  08 03  -20.9985 26027.2 -03480.8 -07.6173 26258.9
 20 08 2013  08 04  -20.9982 26027.2 -03480.8 -07.6174 26259.0
 20 08 2013  08 05  -20.9982 26027.3 -03480.9 -07.6175 26259.0
 20 08 2013  08 06  -20.9980 26027.1 -03480.8 -07.6175 26258.9
 20 08 2013  08 07  -20.9977 26027.1 -03480.8 -07.6174 26258.9
 20 08 2013  08 08  -20.9976 26027.1 -03480.8 -07.6174 26258.9
 20 08 2013  08 09  -20.9972 26027.1 -03480.8 -07.6173 26258.8
 20 08 2013  08 10  -20.9969 26027.1 -03480.8 -07.6175 26258.9
 20 08 2013  08 11  -20.9968 26027.1 -03480.9 -07.6175 26258.8
 20 08 2013  08 12  -20.9968 26027.2 -03480.9 -07.6176 26259.0
 20 08 2013  08 13  -20.9968 26027.4 -03481.0 -07.6177 26259.1
 20 08 2013  08 14  -20.9968 26027.4 -03481.0 -07.6177 26259.1
 20 08 2013  08 15  -20.9968 26027.2 -03481.0 -07.6177 26259.0
 20 08 2013  08 16  -20.9965 26027.2 -03481.0 -07.6177 26259.0
 20 08 2013  08 17  -20.9963 26027.2 -03480.9 -07.6176 26258.9
 20 08 2013  08 18  -20.9962 26027.1 -03480.9 -07.6176 26258.9
 20 08 2013  08 19  -20.9962 26027.0 -03480.8 -07.6175 26258.7
 20 08 2013  08 20  -20.9960 26027.0 -03480.8 -07.6174 26258.7
 20 08 2013  08 21  -20.9957 26026.9 -03480.7 -07.6173 26258.6
 20 08 2013  08 22  -20.9953 26027.0 -03480.6 -07.6170 26258.7
 20 08 2013  08 23  -20.9948 26027.0 -03480.6 -07.6170 26258.7
 20 08 2013  08 24  -20.9945 26026.9 -03480.6 -07.6170 26258.6
 20 08 2013  08 25  -20.9941 26026.9 -03480.5 -07.6169 26258.6
 20 08 2013  08 26  -20.9936 26026.8 -03480.5 -07.6168 26258.5
 20 08 2013  08 27  -20.9932 26026.8 -03480.4 -07.6167 26258.5
 20 08 2013  08 28  -20.9927 26026.7 -03480.4 -07.6166 26258.4
 20 08 2013  08 29  -20.9923 26026.6 -03480.3 -07.6165 26258.3
 20 08 2013  08 30  -20.9920 26026.4 -03480.2 -07.6164 26258.1
 20 08 2013  08 31  -20.9916 26026.5 -03480.3 -07.6164 26258.2
 20 08 2013  08 32  -20.9911 26026.4 -03480.2 -07.6163 26258.1
 20 08 2013  08 33  -20.9907 26026.4 -03480.2 -07.6163 26258.1
 20 08 2013  08 34  -20.9903 26026.4 -03480.2 -07.6163 26258.0
 20 08 2013  08 35  -20.9898 26026.3 -03480.2 -07.6162 26257.9
 20 08 2013  08 36  -20.9894 26026.2 -03480.1 -07.6160 26257.8
 20 08 2013  08 37  -20.9890 26026.2 -03480.1 -07.6160 26257.8
 20 08 2013  08 38  -20.9886 26026.2 -03480.0 -07.6159 26257.8
 20 08 2013  08 39  -20.9881 26026.0 -03479.8 -07.6155 26257.6
 20 08 2013  08 40  -20.9875 26026.1 -03480.0 -07.6159 26257.7
 20 08 2013  08 41  -20.9869 26026.0 -03480.0 -07.6159 26257.6
 20 08 2013  08 42  -20.9865 26025.9 -03480.0 -07.6160 26257.6
 20 08 2013  08 43  -20.9861 26026.1 -03480.0 -07.6160 26257.7
 20 08 2013  08 44  -20.9852 26025.8 -03479.9 -07.6158 26257.4
 20 08 2013  08 45  -20.9850 26025.9 -03479.9 -07.6158 26257.5
 20 08 2013  08 46  -20.9842 26025.9 -03480.0 -07.6160 26257.5
 20 08 2013  08 47  -20.9836 26025.8 -03480.0 -07.6160 26257.4
 20 08 2013  08 48  -20.9828 26025.8 -03480.0 -07.6161 26257.4
 20 08 2013  08 49  -20.9822 26025.7 -03480.0 -07.6161 26257.3
 20 08 2013  08 50  -20.9817 26025.6 -03480.0 -07.6162 26257.2
 20 08 2013  08 51  -20.9811 26025.5 -03480.1 -07.6164 26257.1
 20 08 2013  08 52  -20.9805 26025.2 -03480.1 -07.6163 26256.9
 20 08 2013  08 53  -20.9802 26025.2 -03480.2 -07.6165 26256.9
 20 08 2013  08 54  -20.9800 26025.2 -03480.2 -07.6167 26256.8
 20 08 2013  08 55  -20.9799 26025.2 -03480.3 -07.6168 26256.9
 20 08 2013  08 56  -20.9794 26025.0 -03480.4 -07.6170 26256.7
 20 08 2013  08 57  -20.9792 26024.9 -03480.4 -07.6171 26256.6
 20 08 2013  08 58  -20.9785 26025.0 -03480.5 -07.6173 26256.7
 20 08 2013  08 59  -20.9782 26024.7 -03480.4 -07.6173 26256.4
 20 08 2013  09 00  -20.9780 26024.4 -03480.4 -07.6173 26256.1
 20 08 2013  09 01  -20.9772 26024.4 -03480.4 -07.6174 26256.1
 20 08 2013  09 02  -20.9771 26024.3 -03480.5 -07.6175 26256.0
 20 08 2013  09 03  -20.9757 26024.4 -03480.5 -07.6176 26256.1
 20 08 2013  09 04  -20.9753 26024.2 -03480.5 -07.6176 26255.9
 20 08 2013  09 05  -20.9749 26024.4 -03480.7 -07.6180 26256.1
 20 08 2013  09 06  -20.9740 26024.1 -03480.7 -07.6180 26255.8
 20 08 2013  09 07  -20.9736 26024.0 -03480.7 -07.6180 26255.7
 20 08 2013  09 08  -20.9727 26024.1 -03480.8 -07.6183 26255.9
 20 08 2013  09 09  -20.9722 26023.8 -03480.8 -07.6183 26255.6
 20 08 2013  09 10  -20.9720 26023.8 -03480.9 -07.6186 26255.5
 20 08 2013  09 11  -20.9714 26023.6 -03481.0 -07.6189 26255.4
 20 08 2013  09 12  -20.9712 26023.6 -03481.1 -07.6190 26255.4
 20 08 2013  09 13  -20.9708 26023.6 -03481.3 -07.6194 26255.5
 20 08 2013  09 14  -20.9705 26023.5 -03481.3 -07.6195 26255.3
 20 08 2013  09 15  -20.9701 26023.5 -03481.5 -07.6199 26255.4
 20 08 2013  09 16  -20.9699 26023.4 -03481.5 -07.6199 26255.2
 20 08 2013  09 17  -20.9696 26023.7 -03481.7 -07.6204 26255.5
 20 08 2013  09 18  -20.9693 26023.4 -03481.7 -07.6205 26255.3
 20 08 2013  09 19  -20.9688 26023.4 -03481.9 -07.6208 26255.3
 20 08 2013  09 20  -20.9686 26023.4 -03482.0 -07.6210 26255.3
 20 08 2013  09 21  -20.9687 26023.4 -03482.1 -07.6213 26255.3
 20 08 2013  09 22  -20.9684 26023.3 -03482.2 -07.6215 26255.3
 20 08 2013  09 23  -20.9685 26023.1 -03482.2 -07.6217 26255.0
 20 08 2013  09 24  -20.9680 26022.9 -03482.2 -07.6217 26254.9
 20 08 2013  09 25  -20.9685 26022.7 -03482.3 -07.6218 26254.7
 20 08 2013  09 26  -20.9682 26022.8 -03482.4 -07.6221 26254.8
 20 08 2013  09 27  -20.9679 26022.8 -03482.5 -07.6223 26254.8
 20 08 2013  09 28  -20.9683 26022.7 -03482.6 -07.6226 26254.7
 20 08 2013  09 29  -20.9682 26022.7 -03482.8 -07.6229 26254.7
 20 08 2013  09 30  -20.9681 26022.5 -03482.8 -07.6229 26254.5
 20 08 2013  09 31  -20.9682 26022.6 -03482.9 -07.6233 26254.6
 20 08 2013  09 32  -20.9678 26022.6 -03483.0 -07.6235 26254.6
 20 08 2013  09 33  -20.9678 26022.5 -03483.1 -07.6237 26254.5
 20 08 2013  09 34  -20.9675 26022.3 -03483.1 -07.6238 26254.4
 20 08 2013  09 35  -20.9675 26022.3 -03483.2 -07.6241 26254.4
 20 08 2013  09 36  -20.9672 26022.2 -03483.3 -07.6243 26254.3
 20 08 2013  09 37  -20.9672 26022.3 -03483.6 -07.6247 26254.4
 20 08 2013  09 38  -20.9663 26022.2 -03483.6 -07.6248 26254.4
 20 08 2013  09 39  -20.9663 26022.2 -03483.7 -07.6250 26254.4
 20 08 2013  09 40  -20.9667 26022.5 -03483.9 -07.6254 26254.6
 20 08 2013  09 41  -20.9667 26022.6 -03484.1 -07.6258 26254.8
 20 08 2013  09 42  -20.9666 26022.6 -03484.2 -07.6259 26254.9
 20 08 2013  09 43  -20.9662 26022.6 -03484.2 -07.6261 26254.8
 20 08 2013  09 44  -20.9660 26022.7 -03484.3 -07.6262 26254.9
 20 08 2013  09 45  -20.9658 26022.6 -03484.4 -07.6264 26254.9
 20 08 2013  09 46  -20.9663 26022.6 -03484.5 -07.6267 26254.8
 20 08 2013  09 47  -20.9665 26022.6 -03484.7 -07.6270 26254.9
 20 08 2013  09 48  -20.9667 26022.7 -03484.9 -07.6274 26255.0
 20 08 2013  09 49  -20.9666 26022.7 -03484.9 -07.6276 26255.0
 20 08 2013  09 50  -20.9666 26022.8 -03485.1 -07.6278 26255.2
 20 08 2013  09 51  -20.9662 26022.9 -03485.1 -07.6279 26255.2
 20 08 2013  09 52  -20.9664 26023.0 -03485.2 -07.6282 26255.3
 20 08 2013  09 53  -20.9662 26023.2 -03485.4 -07.6284 26255.5
 20 08 2013  09 54  -20.9661 26023.2 -03485.4 -07.6285 26255.6
 20 08 2013  09 55  -20.9665 26023.4 -03485.6 -07.6288 26255.8
 20 08 2013  09 56  -20.9661 26023.7 -03485.8 -07.6291 26256.1
 20 08 2013  09 57  -20.9658 26023.8 -03485.8 -07.6291 26256.2
 20 08 2013  09 58  -20.9668 26023.9 -03485.9 -07.6294 26256.3
 20 08 2013  09 59  -20.9670 26024.2 -03486.1 -07.6297 26256.7
 20 08 2013  10 00  -20.9667 26024.4 -03486.1 -07.6297 26256.8
 20 08 2013  10 01  -20.9671 26024.5 -03486.2 -07.6298 26256.9
 20 08 2013  10 02  -20.9672 26024.6 -03486.2 -07.6299 26257.1
 20 08 2013  10 03  -20.9675 26024.9 -03486.3 -07.6300 26257.4
 20 08 2013  10 04  -20.9674 26025.2 -03486.4 -07.6300 26257.6
 20 08 2013  10 05  -20.9678 26025.4 -03486.4 -07.6301 26257.9
 20 08 2013  10 06  -20.9684 26025.7 -03486.5 -07.6302 26258.2
 20 08 2013  10 07  -20.9683 26025.9 -03486.5 -07.6301 26258.4
 20 08 2013  10 08  -20.9686 26026.1 -03486.5 -07.6301 26258.6
 20 08 2013  10 09  -20.9687 26026.3 -03486.6 -07.6300 26258.8
 20 08 2013  10 10  -20.9683 26026.6 -03486.6 -07.6301 26259.1
 20 08 2013  10 11  -20.9685 26026.9 -03486.6 -07.6300 26259.4
 20 08 2013  10 12  -20.9683 26027.1 -03486.7 -07.6300 26259.6
 20 08 2013  10 13  -20.9685 26027.3 -03486.6 -07.6299 26259.8
 20 08 2013  10 14  -20.9686 26027.6 -03486.7 -07.6300 26260.1
 20 08 2013  10 15  -20.9688 26027.8 -03486.7 -07.6299 26260.3
 20 08 2013  10 16  -20.9690 26028.0 -03486.7 -07.6299 26260.5
 20 08 2013  10 17  -20.9693 26028.2 -03486.8 -07.6299 26260.7
 20 08 2013  10 18  -20.9694 26028.4 -03486.8 -07.6300 26261.0
 20 08 2013  10 19  -20.9696 26028.7 -03486.8 -07.6299 26261.2
 20 08 2013  10 20  -20.9698 26029.0 -03486.9 -07.6301 26261.5
 20 08 2013  10 21  -20.9696 26029.4 -03487.0 -07.6301 26261.9
 20 08 2013  10 22  -20.9695 26029.5 -03486.9 -07.6299 26262.1
 20 08 2013  10 23  -20.9692 26029.8 -03487.0 -07.6300 26262.3
 20 08 2013  10 24  -20.9687 26030.0 -03487.0 -07.6299 26262.5
 20 08 2013  10 25  -20.9686 26030.1 -03487.0 -07.6298 26262.6
 20 08 2013  10 26  -20.9691 26030.4 -03487.1 -07.6301 26263.0
 20 08 2013  10 27  -20.9698 26031.0 -03487.3 -07.6304 26263.5
 20 08 2013  10 28  -20.9705 26031.7 -03487.5 -07.6305 26264.3
 20 08 2013  10 29  -20.9707 26032.4 -03487.6 -07.6305 26265.0
 20 08 2013  10 30  -20.9702 26032.8 -03487.4 -07.6300 26265.3
 20 08 2013  10 31  -20.9694 26032.8 -03487.1 -07.6293 26265.3
 20 08 2013  10 32  -20.9691 26032.7 -03486.8 -07.6288 26265.2
 20 08 2013  10 33  -20.9701 26032.7 -03486.7 -07.6285 26265.2
 20 08 2013  10 34  -20.9717 26032.9 -03486.8 -07.6286 26265.3
 20 08 2013  10 35  -20.9728 26033.0 -03486.8 -07.6287 26265.5
 20 08 2013  10 36  -20.9732 26033.4 -03486.9 -07.6287 26265.9
 20 08 2013  10 37  -20.9736 26033.4 -03486.8 -07.6285 26265.9
 20 08 2013  10 38  -20.9739 26033.7 -03486.8 -07.6285 26266.2
 20 08 2013  10 39  -20.9742 26034.2 -03486.9 -07.6285 26266.7
 20 08 2013  10 40  -20.9747 26034.2 -03486.8 -07.6283 26266.7
 20 08 2013  10 41  -20.9749 26034.4 -03486.8 -07.6282 26266.8
 20 08 2013  10 42  -20.9748 26034.7 -03486.8 -07.6281 26267.1
 20 08 2013  10 43  -20.9750 26035.1 -03486.8 -07.6280 26267.5
 20 08 2013  10 44  -20.9753 26035.4 -03486.8 -07.6280 26267.8
 20 08 2013  10 45  -20.9755 26035.7 -03486.8 -07.6279 26268.2
 20 08 2013  10 46  -20.9758 26035.8 -03486.7 -07.6276 26268.3
 20 08 2013  10 47  -20.9758 26036.1 -03486.7 -07.6275 26268.6
 20 08 2013  10 48  -20.9759 26036.5 -03486.7 -07.6274 26268.9
 20 08 2013  10 49  -20.9760 26036.8 -03486.6 -07.6272 26269.2
 20 08 2013  10 50  -20.9762 26037.0 -03486.5 -07.6269 26269.4
 20 08 2013  10 51  -20.9762 26037.2 -03486.5 -07.6267 26269.6
 20 08 2013  10 52  -20.9762 26037.5 -03486.5 -07.6267 26269.9
 20 08 2013  10 53  -20.9759 26038.0 -03486.5 -07.6266 26270.4
 20 08 2013  10 54  -20.9760 26038.0 -03486.4 -07.6263 26270.4
 20 08 2013  10 55  -20.9766 26038.3 -03486.5 -07.6264 26270.7
 20 08 2013  10 56  -20.9770 26038.9 -03486.5 -07.6264 26271.2
 20 08 2013  10 57  -20.9772 26039.3 -03486.5 -07.6262 26271.6
 20 08 2013  10 58  -20.9774 26039.6 -03486.5 -07.6260 26272.0
 20 08 2013  10 59  -20.9773 26040.1 -03486.4 -07.6258 26272.5
 20 08 2013  11 00  -20.9772 26040.5 -03486.4 -07.6256 26272.9
 20 08 2013  11 01  -20.9775 26041.0 -03486.4 -07.6254 26273.3
 20 08 2013  11 02  -20.9780 26041.0 -03486.2 -07.6250 26273.4
 20 08 2013  11 03  -20.9786 26041.6 -03486.2 -07.6249 26273.9
 20 08 2013  11 04  -20.9788 26041.8 -03486.1 -07.6247 26274.1
 20 08 2013  11 05  -20.9790 26042.3 -03486.2 -07.6246 26274.6
 20 08 2013  11 06  -20.9790 26042.6 -03486.1 -07.6244 26274.9
 20 08 2013  11 07  -20.9793 26043.2 -03486.1 -07.6243 26275.5
 20 08 2013  11 08  -20.9796 26043.7 -03486.2 -07.6243 26276.0
 20 08 2013  11 09  -20.9797 26044.0 -03486.2 -07.6241 26276.3
 20 08 2013  11 10  -20.9803 26044.4 -03486.2 -07.6240 26276.7
 20 08 2013  11 11  -20.9807 26045.0 -03486.2 -07.6239 26277.2
 20 08 2013  11 12  -20.9812 26045.5 -03486.3 -07.6239 26277.7
 20 08 2013  11 13  -20.9815 26046.0 -03486.3 -07.6238 26278.3
 20 08 2013  11 14  -20.9817 26046.3 -03486.2 -07.6235 26278.5
 20 08 2013  11 15  -20.9818 26046.7 -03486.2 -07.6234 26278.9
 20 08 2013  11 16  -20.9818 26047.1 -03486.2 -07.6232 26279.4
 20 08 2013  11 17  -20.9819 26047.5 -03486.2 -07.6231 26279.7
 20 08 2013  11 18  -20.9823 26047.8 -03486.1 -07.6229 26280.0
 20 08 2013  11 19  -20.9828 26048.1 -03486.1 -07.6227 26280.3
 20 08 2013  11 20  -20.9833 26048.5 -03486.1 -07.6227 26280.7
 20 08 2013  11 21  -20.9837 26048.9 -03486.1 -07.6225 26281.1
 20 08 2013  11 22  -20.9843 26049.1 -03486.0 -07.6222 26281.3
 20 08 2013  11 23  -20.9850 26049.5 -03486.0 -07.6221 26281.7
 20 08 2013  11 24  -20.9856 26049.9 -03486.0 -07.6220 26282.1
 20 08 2013  11 25  -20.9860 26050.5 -03486.1 -07.6220 26282.7
 20 08 2013  11 26  -20.9863 26050.9 -03486.0 -07.6218 26283.1
 20 08 2013  11 27  -20.9867 26051.1 -03485.9 -07.6215 26283.3
 20 08 2013  11 28  -20.9873 26051.5 -03485.9 -07.6214 26283.7
 20 08 2013  11 29  -20.9880 26051.8 -03485.9 -07.6212 26284.0
 20 08 2013  11 30  -20.9889 26051.9 -03485.7 -07.6209 26284.1
 20 08 2013  11 31  -20.9895 26052.4 -03485.7 -07.6208 26284.5
 20 08 2013  11 32  -20.9903 26052.6 -03485.6 -07.6204 26284.7
 20 08 2013  11 33  -20.9908 26053.2 -03485.7 -07.6204 26285.3
 20 08 2013  11 34  -20.9910 26053.6 -03485.6 -07.6202 26285.8
 20 08 2013  11 35  -20.9914 26054.0 -03485.6 -07.6199 26286.1
 20 08 2013  11 36  -20.9919 26054.2 -03485.4 -07.6194 26286.3
 20 08 2013  11 37  -20.9923 26054.9 -03485.4 -07.6193 26287.0
 20 08 2013  11 38  -20.9926 26055.5 -03485.3 -07.6190 26287.6
 20 08 2013  11 39  -20.9932 26056.1 -03485.3 -07.6186 26288.1
 20 08 2013  11 40  -20.9937 26056.6 -03485.1 -07.6182 26288.6
 20 08 2013  11 41  -20.9945 26057.0 -03484.9 -07.6177 26289.0
 20 08 2013  11 42  -20.9951 26057.2 -03484.7 -07.6171 26289.1
 20 08 2013  11 43  -20.9958 26057.3 -03484.4 -07.6165 26289.2
 20 08 2013  11 44  -20.9963 26057.7 -03484.3 -07.6162 26289.6
 20 08 2013  11 45  -20.9967 26058.0 -03484.2 -07.6157 26289.9
 20 08 2013  11 46  -20.9976 26058.3 -03484.1 -07.6154 26290.2
 20 08 2013  11 47  -20.9984 26058.7 -03484.0 -07.6151 26290.6
 20 08 2013  11 48  -20.9989 26059.1 -03483.9 -07.6148 26290.9
 20 08 2013  11 49  -20.9993 26059.8 -03483.9 -07.6146 26291.6
 20 08 2013  11 50  -20.9995 26060.4 -03483.8 -07.6143 26292.3
 20 08 2013  11 51  -20.9999 26060.9 -03483.7 -07.6139 26292.7
 20 08 2013  11 52  -21.0003 26061.4 -03483.6 -07.6136 26293.2
 20 08 2013  11 53  -21.0007 26061.9 -03483.5 -07.6132 26293.6
 20 08 2013  11 54  -21.0012 26062.3 -03483.4 -07.6128 26294.1
 20 08 2013  11 55  -21.0017 26062.9 -03483.3 -07.6125 26294.6
 20 08 2013  11 56  -21.0022 26063.3 -03483.2 -07.6122 26295.0
 20 08 2013  11 57  -21.0029 26063.8 -03483.1 -07.6118 26295.5
 20 08 2013  11 58  -21.0035 26064.3 -03483.0 -07.6115 26296.0
 20 08 2013  11 59  -21.0042 26064.7 -03482.9 -07.6111 26296.3
 20 08 2013  12 00  -21.0048 26065.0 -03482.8 -07.6108 26296.7
 20 08 2013  12 01  -21.0054 26065.4 -03482.7 -07.6104 26297.0
 20 08 2013  12 02  -21.0060 26065.7 -03482.6 -07.6100 26297.3
 20 08 2013  12 03  -21.0065 26066.2 -03482.5 -07.6098 26297.8
 20 08 2013  12 04  -21.0070 26066.7 -03482.4 -07.6095 26298.3
 20 08 2013  12 05  -21.0074 26067.3 -03482.4 -07.6093 26298.9
 20 08 2013  12 06  -21.0079 26067.5 -03482.2 -07.6088 26299.1
 20 08 2013  12 07  -21.0084 26067.7 -03482.1 -07.6084 26299.2
 20 08 2013  12 08  -21.0089 26068.0 -03481.9 -07.6079 26299.5
 20 08 2013  12 09  -21.0093 26068.5 -03481.8 -07.6076 26300.0
 20 08 2013  12 10  -21.0098 26068.8 -03481.7 -07.6073 26300.3
 20 08 2013  12 11  -21.0104 26069.2 -03481.5 -07.6068 26300.6
 20 08 2013  12 12  -21.0111 26069.4 -03481.4 -07.6064 26300.9
 20 08 2013  12 13  -21.0117 26070.0 -03481.4 -07.6062 26301.4
 20 08 2013  12 14  -21.0122 26070.5 -03481.2 -07.6058 26301.9
 20 08 2013  12 15  -21.0128 26071.1 -03481.2 -07.6055 26302.5
 20 08 2013  12 16  -21.0133 26071.7 -03481.1 -07.6051 26303.0
 20 08 2013  12 17  -21.0139 26072.1 -03480.9 -07.6046 26303.4
 20 08 2013  12 18  -21.0145 26072.5 -03480.8 -07.6042 26303.9
 20 08 2013  12 19  -21.0151 26073.0 -03480.6 -07.6037 26304.3
 20 08 2013  12 20  -21.0156 26073.4 -03480.4 -07.6032 26304.6
 20 08 2013  12 21  -21.0163 26073.7 -03480.3 -07.6028 26305.0
 20 08 2013  12 22  -21.0170 26074.1 -03480.1 -07.6024 26305.3
 20 08 2013  12 23  -21.0177 26074.7 -03480.1 -07.6020 26305.9
 20 08 2013  12 24  -21.0183 26075.2 -03479.9 -07.6017 26306.4
 20 08 2013  12 25  -21.0189 26075.5 -03479.8 -07.6012 26306.7
 20 08 2013  12 26  -21.0193 26076.0 -03479.7 -07.6009 26307.1
 20 08 2013  12 27  -21.0197 26076.4 -03479.5 -07.6004 26307.5
 20 08 2013  12 28  -21.0204 26077.0 -03479.5 -07.6002 26308.1
 20 08 2013  12 29  -21.0209 26077.3 -03479.3 -07.5997 26308.4
 20 08 2013  12 30  -21.0215 26077.6 -03479.2 -07.5993 26308.7
 20 08 2013  12 31  -21.0220 26078.1 -03479.2 -07.5991 26309.1
 20 08 2013  12 32  -21.0225 26078.5 -03479.1 -07.5988 26309.6
 20 08 2013  12 33  -21.0230 26079.0 -03479.0 -07.5985 26310.1
 20 08 2013  12 34  -21.0236 26079.4 -03478.9 -07.5982 26310.4
 20 08 2013  12 35  -21.0243 26079.9 -03478.9 -07.5980 26310.9
 20 08 2013  12 36  -21.0249 26080.5 -03478.8 -07.5977 26311.5
 20 08 2013  12 37  -21.0255 26080.9 -03478.7 -07.5974 26311.8
 20 08 2013  12 38  -21.0262 26081.3 -03478.7 -07.5972 26312.3
 20 08 2013  12 39  -21.0269 26081.7 -03478.6 -07.5968 26312.6
 20 08 2013  12 40  -21.0275 26082.3 -03478.6 -07.5966 26313.2
 20 08 2013  12 41  -21.0280 26082.8 -03478.5 -07.5963 26313.7
 20 08 2013  12 42  -21.0286 26083.1 -03478.3 -07.5958 26314.0
 20 08 2013  12 43  -21.0292 26083.6 -03478.2 -07.5955 26314.5
 20 08 2013  12 44  -21.0299 26084.0 -03478.1 -07.5951 26314.8
 20 08 2013  12 45  -21.0304 26084.3 -03477.9 -07.5947 26315.2
 20 08 2013  12 46  -21.0310 26084.6 -03477.8 -07.5943 26315.4
 20 08 2013  12 47  -21.0316 26085.0 -03477.7 -07.5939 26315.8
 20 08 2013  12 48  -21.0323 26085.5 -03477.7 -07.5938 26316.3
 20 08 2013  12 49  -21.0329 26085.8 -03477.5 -07.5933 26316.6
 20 08 2013  12 50  -21.0334 26086.2 -03477.4 -07.5930 26316.9
 20 08 2013  12 51  -21.0339 26086.8 -03477.4 -07.5928 26317.5
 20 08 2013  12 52  -21.0344 26087.3 -03477.3 -07.5925 26318.1
 20 08 2013  12 53  -21.0350 26087.8 -03477.2 -07.5921 26318.5
 20 08 2013  12 54  -21.0356 26088.3 -03477.1 -07.5918 26319.0
 20 08 2013  12 55  -21.0363 26088.8 -03477.0 -07.5914 26319.5
 20 08 2013  12 56  -21.0368 26089.3 -03476.9 -07.5910 26319.9
 20 08 2013  12 57  -21.0373 26089.6 -03476.7 -07.5904 26320.2
 20 08 2013  12 58  -21.0377 26090.0 -03476.5 -07.5899 26320.6
 20 08 2013  12 59  -21.0381 26090.4 -03476.3 -07.5894 26321.0
 20 08 2013  13 00  -21.0383 26090.8 -03476.0 -07.5887 26321.3
 20 08 2013  13 01  -21.0386 26091.0 -03475.7 -07.5880 26321.5
 20 08 2013  13 02  -21.0388 26091.2 -03475.4 -07.5873 26321.6
 20 08 2013  13 03  -21.0391 26091.4 -03475.1 -07.5866 26321.8
 20 08 2013  13 04  -21.0393 26091.7 -03474.9 -07.5861 26322.0
 20 08 2013  13 05  -21.0396 26091.7 -03474.6 -07.5853 26322.0
 20 08 2013  13 06  -21.0399 26091.9 -03474.4 -07.5848 26322.2
 20 08 2013  13 07  -21.0402 26092.1 -03474.1 -07.5843 26322.3
 20 08 2013  13 08  -21.0404 26092.3 -03473.9 -07.5836 26322.5
 20 08 2013  13 09  -21.0405 26092.6 -03473.7 -07.5831 26322.8
 20 08 2013  13 10  -21.0407 26092.9 -03473.4 -07.5824 26323.0
 20 08 2013  13 11  -21.0405 26093.1 -03473.1 -07.5817 26323.2
 20 08 2013  13 12  -21.0405 26093.3 -03472.9 -07.5811 26323.4
 20 08 2013  13 13  -21.0406 26093.5 -03472.6 -07.5805 26323.6
 20 08 2013  13 14  -21.0407 26093.6 -03472.3 -07.5798 26323.7
 20 08 2013  13 15  -21.0408 26093.9 -03472.1 -07.5792 26323.9
 20 08 2013  13 16  -21.0407 26094.3 -03471.8 -07.5786 26324.3
 20 08 2013  13 17  -21.0406 26094.6 -03471.5 -07.5779 26324.5
 20 08 2013  13 18  -21.0406 26094.9 -03471.3 -07.5773 26324.8
 20 08 2013  13 19  -21.0404 26095.0 -03471.0 -07.5766 26324.8
 20 08 2013  13 20  -21.0403 26095.3 -03470.7 -07.5759 26325.1
 20 08 2013  13 21  -21.0401 26095.5 -03470.4 -07.5752 26325.2
 20 08 2013  13 22  -21.0398 26095.6 -03470.1 -07.5745 26325.3
 20 08 2013  13 23  -21.0392 26095.5 -03469.7 -07.5736 26325.2
 20 08 2013  13 24  -21.0385 26095.2 -03469.2 -07.5727 26324.8
 20 08 2013  13 25  -21.0385 26095.4 -03469.1 -07.5724 26325.0
 20 08 2013  13 26  -21.0384 26095.7 -03469.0 -07.5721 26325.2
 20 08 2013  13 27  -21.0380 26095.7 -03468.7 -07.5715 26325.2
 20 08 2013  13 28  -21.0379 26096.0 -03468.6 -07.5712 26325.5
 20 08 2013  13 29  -21.0376 26096.0 -03468.3 -07.5706 26325.5
 20 08 2013  13 30  -21.0372 26096.2 -03468.2 -07.5702 26325.7
 20 08 2013  13 31  -21.0371 26096.7 -03468.2 -07.5701 26326.1
 20 08 2013  13 32  -21.0368 26096.9 -03468.0 -07.5696 26326.3
 20 08 2013  13 33  -21.0365 26097.1 -03467.8 -07.5692 26326.5
 20 08 2013  13 34  -21.0362 26097.2 -03467.7 -07.5688 26326.6
 20 08 2013  13 35  -21.0358 26097.5 -03467.5 -07.5684 26326.8
 20 08 2013  13 36  -21.0356 26097.6 -03467.4 -07.5680 26326.9
 20 08 2013  13 37  -21.0354 26097.9 -03467.3 -07.5678 26327.2
 20 08 2013  13 38  -21.0357 26098.1 -03467.2 -07.5675 26327.4
 20 08 2013  13 39  -21.0357 26098.3 -03467.1 -07.5672 26327.5
 20 08 2013  13 40  -21.0355 26098.3 -03466.8 -07.5667 26327.6
 20 08 2013  13 41  -21.0353 26098.8 -03466.8 -07.5665 26328.0
 20 08 2013  13 42  -21.0351 26099.0 -03466.7 -07.5662 26328.2
 20 08 2013  13 43  -21.0349 26099.4 -03466.6 -07.5659 26328.6
 20 08 2013  13 44  -21.0350 26099.6 -03466.5 -07.5656 26328.8
 20 08 2013  13 45  -21.0350 26099.7 -03466.3 -07.5653 26328.9
 20 08 2013  13 46  -21.0346 26099.9 -03466.2 -07.5649 26329.1
 20 08 2013  13 47  -21.0341 26100.2 -03466.2 -07.5647 26329.4
 20 08 2013  13 48  -21.0338 26100.6 -03466.1 -07.5645 26329.7
 20 08 2013  13 49  -21.0336 26100.9 -03466.0 -07.5643 26330.0
 20 08 2013  13 50  -21.0331 26101.3 -03466.0 -07.5640 26330.4
 20 08 2013  13 51  -21.0328 26101.8 -03466.0 -07.5638 26330.9
 20 08 2013  13 52  -21.0329 26102.5 -03466.0 -07.5638 26331.6
 20 08 2013  13 53  -21.0330 26102.8 -03465.9 -07.5633 26331.9
 20 08 2013  13 54  -21.0325 26102.9 -03465.6 -07.5628 26332.0
 20 08 2013  13 55  -21.0323 26102.9 -03465.3 -07.5622 26331.9
 20 08 2013  13 56  -21.0318 26102.5 -03464.9 -07.5614 26331.4
 20 08 2013  13 57  -21.0312 26102.5 -03464.8 -07.5612 26331.5
 20 08 2013  13 58  -21.0312 26102.7 -03464.8 -07.5610 26331.6
 20 08 2013  13 59  -21.0311 26102.6 -03464.6 -07.5606 26331.5
 20 08 2013  14 00  -21.0310 26102.5 -03464.4 -07.5602 26331.4
 20 08 2013  14 01  -21.0311 26102.8 -03464.4 -07.5601 26331.6
 20 08 2013  14 02  -21.0312 26102.8 -03464.2 -07.5598 26331.7
 20 08 2013  14 03  -21.0307 26102.6 -03463.9 -07.5592 26331.4
 20 08 2013  14 04  -21.0303 26102.6 -03463.8 -07.5590 26331.4
 20 08 2013  14 05  -21.0302 26102.5 -03463.8 -07.5589 26331.3
 20 08 2013  14 06  -21.0297 26102.3 -03463.6 -07.5587 26331.1
 20 08 2013  14 07  -21.0293 26102.3 -03463.6 -07.5587 26331.1
 20 08 2013  14 08  -21.0288 26102.4 -03463.6 -07.5586 26331.1
 20 08 2013  14 09  -21.0280 26102.4 -03463.6 -07.5586 26331.2
 20 08 2013  14 10  -21.0275 26102.7 -03463.7 -07.5588 26331.5
 20 08 2013  14 11  -21.0270 26102.6 -03463.7 -07.5588 26331.4
 20 08 2013  14 12  -21.0264 26102.8 -03463.8 -07.5589 26331.6
 20 08 2013  14 13  -21.0260 26103.4 -03464.1 -07.5594 26332.2
 20 08 2013  14 14  -21.0260 26103.8 -03464.2 -07.5595 26332.7
 20 08 2013  14 15  -21.0261 26104.2 -03464.3 -07.5595 26333.1
 20 08 2013  14 16  -21.0262 26104.3 -03464.2 -07.5594 26333.1
 20 08 2013  14 17  -21.0263 26104.5 -03464.2 -07.5592 26333.3
 20 08 2013  14 18  -21.0264 26104.5 -03464.1 -07.5590 26333.4
 20 08 2013  14 19  -21.0263 26104.2 -03463.8 -07.5584 26333.0
 20 08 2013  14 20  -21.0262 26103.7 -03463.5 -07.5580 26332.5
 20 08 2013  14 21  -21.0259 26103.6 -03463.5 -07.5579 26332.3
 20 08 2013  14 22  -21.0255 26103.7 -03463.5 -07.5580 26332.4
 20 08 2013  14 23  -21.0256 26103.9 -03463.6 -07.5581 26332.7
 20 08 2013  14 24  -21.0253 26103.6 -03463.4 -07.5578 26332.4
 20 08 2013  14 25  -21.0252 26103.4 -03463.3 -07.5577 26332.1
 20 08 2013  14 26  -21.0251 26103.3 -03463.3 -07.5576 26332.0
 20 08 2013  14 27  -21.0247 26103.5 -03463.3 -07.5577 26332.2
 20 08 2013  14 28  -21.0241 26103.5 -03463.3 -07.5576 26332.3
 20 08 2013  14 29  -21.0234 26103.3 -03463.2 -07.5574 26332.0
 20 08 2013  14 30  -21.0230 26102.9 -03463.1 -07.5573 26331.6
 20 08 2013  14 31  -21.0226 26102.7 -03463.0 -07.5571 26331.4
 20 08 2013  14 32  -21.0222 26102.7 -03463.1 -07.5573 26331.4
 20 08 2013  14 33  -21.0217 26102.7 -03463.1 -07.5574 26331.4
 20 08 2013  14 34  -21.0214 26102.6 -03463.1 -07.5574 26331.3
 20 08 2013  14 35  -21.0210 26102.6 -03463.2 -07.5576 26331.3
 20 08 2013  14 36  -21.0205 26102.7 -03463.3 -07.5579 26331.5
 20 08 2013  14 37  -21.0200 26103.0 -03463.4 -07.5580 26331.7
 20 08 2013  14 38  -21.0194 26103.0 -03463.5 -07.5581 26331.8
 20 08 2013  14 39  -21.0191 26102.7 -03463.4 -07.5580 26331.5
 20 08 2013  14 40  -21.0185 26102.2 -03463.3 -07.5579 26330.9
 20 08 2013  14 41  -21.0181 26102.0 -03463.3 -07.5580 26330.7
 20 08 2013  14 42  -21.0182 26101.6 -03463.3 -07.5581 26330.3
 20 08 2013  14 43  -21.0177 26101.4 -03463.3 -07.5583 26330.2
 20 08 2013  14 44  -21.0176 26101.4 -03463.5 -07.5587 26330.2
 20 08 2013  14 45  -21.0177 26101.8 -03463.8 -07.5592 26330.6
 20 08 2013  14 46  -21.0178 26101.8 -03464.0 -07.5595 26330.6
 20 08 2013  14 47  -21.0177 26101.9 -03464.1 -07.5598 26330.7
 20 08 2013  14 48  -21.0179 26102.0 -03464.2 -07.5600 26330.8
 20 08 2013  14 49  -21.0181 26102.0 -03464.2 -07.5601 26330.9
 20 08 2013  14 50  -21.0179 26102.1 -03464.3 -07.5602 26331.0
 20 08 2013  14 51  -21.0175 26102.0 -03464.3 -07.5602 26330.9
 20 08 2013  14 52  -21.0173 26101.8 -03464.3 -07.5602 26330.7
 20 08 2013  14 53  -21.0172 26101.7 -03464.3 -07.5602 26330.6
 20 08 2013  14 54  -21.0172 26101.5 -03464.3 -07.5603 26330.4
 20 08 2013  14 55  -21.0173 26101.5 -03464.4 -07.5604 26330.4
 20 08 2013  14 56  -21.0173 26101.6 -03464.4 -07.5606 26330.6
 20 08 2013  14 57  -21.0172 26101.7 -03464.5 -07.5607 26330.6
 20 08 2013  14 58  -21.0170 26101.7 -03464.6 -07.5609 26330.6
 20 08 2013  14 59  -21.0170 26101.5 -03464.6 -07.5609 26330.5
 20 08 2013  15 00  -21.0170 26101.2 -03464.5 -07.5609 26330.2
 20 08 2013  15 01  -21.0168 26100.9 -03464.5 -07.5610 26329.9
 20 08 2013  15 02  -21.0167 26100.8 -03464.6 -07.5612 26329.7
 20 08 2013  15 03  -21.0164 26100.8 -03464.7 -07.5615 26329.8
 20 08 2013  15 04  -21.0163 26100.8 -03464.9 -07.5619 26329.8
 20 08 2013  15 05  -21.0163 26100.7 -03465.0 -07.5620 26329.7
 20 08 2013  15 06  -21.0162 26100.5 -03465.1 -07.5622 26329.5
 20 08 2013  15 07  -21.0161 26100.5 -03465.2 -07.5626 26329.5
 20 08 2013  15 08  -21.0161 26100.4 -03465.3 -07.5628 26329.4
 20 08 2013  15 09  -21.0159 26100.2 -03465.4 -07.5630 26329.3
 20 08 2013  15 10  -21.0160 26100.1 -03465.5 -07.5633 26329.2
 20 08 2013  15 11  -21.0160 26099.8 -03465.6 -07.5635 26328.9
 20 08 2013  15 12  -21.0158 26099.6 -03465.6 -07.5638 26328.7
 20 08 2013  15 13  -21.0161 26099.5 -03465.8 -07.5642 26328.7
 20 08 2013  15 14  -21.0165 26099.6 -03466.0 -07.5646 26328.7
 20 08 2013  15 15  -21.0166 26099.5 -03466.1 -07.5648 26328.7
 20 08 2013  15 16  -21.0170 26099.5 -03466.2 -07.5651 26328.6
 20 08 2013  15 17  -21.0172 26099.4 -03466.3 -07.5652 26328.5
 20 08 2013  15 18  -21.0175 26099.2 -03466.4 -07.5655 26328.4
 20 08 2013  15 19  -21.0176 26099.0 -03466.4 -07.5656 26328.2
 20 08 2013  15 20  -21.0177 26098.8 -03466.4 -07.5657 26328.0
 20 08 2013  15 21  -21.0179 26098.7 -03466.5 -07.5659 26327.9
 20 08 2013  15 22  -21.0181 26098.6 -03466.6 -07.5661 26327.8
 20 08 2013  15 23  -21.0180 26098.5 -03466.6 -07.5662 26327.7
 20 08 2013  15 24  -21.0181 26098.5 -03466.7 -07.5664 26327.7
 20 08 2013  15 25  -21.0182 26098.2 -03466.7 -07.5664 26327.4
 20 08 2013  15 26  -21.0182 26097.8 -03466.6 -07.5664 26327.1
 20 08 2013  15 27  -21.0182 26098.1 -03466.9 -07.5668 26327.4
 20 08 2013  15 28  -21.0187 26098.1 -03467.0 -07.5670 26327.4
 20 08 2013  15 29  -21.0190 26098.2 -03467.0 -07.5670 26327.5
 20 08 2013  15 30  -21.0194 26098.0 -03466.9 -07.5669 26327.3
 20 08 2013  15 31  -21.0195 26097.7 -03466.8 -07.5667 26327.0
 20 08 2013  15 32  -21.0198 26098.1 -03466.9 -07.5670 26327.3
 20 08 2013  15 33  -21.0203 26098.0 -03466.9 -07.5669 26327.3
 20 08 2013  15 34  -21.0203 26097.6 -03466.6 -07.5664 26326.9
 20 08 2013  15 35  -21.0200 26097.3 -03466.5 -07.5662 26326.5
 20 08 2013  15 36  -21.0197 26097.0 -03466.3 -07.5660 26326.2
 20 08 2013  15 37  -21.0194 26096.9 -03466.4 -07.5661 26326.1
 20 08 2013  15 38  -21.0192 26096.8 -03466.3 -07.5661 26326.0
 20 08 2013  15 39  -21.0187 26096.4 -03466.2 -07.5660 26325.6
 20 08 2013  15 40  -21.0185 26096.3 -03466.2 -07.5660 26325.5
 20 08 2013  15 41  -21.0184 26096.2 -03466.2 -07.5660 26325.3
 20 08 2013  15 42  -21.0182 26095.7 -03466.0 -07.5658 26324.9
 20 08 2013  15 43  -21.0178 26095.3 -03466.0 -07.5657 26324.5
 20 08 2013  15 44  -21.0176 26095.2 -03466.0 -07.5657 26324.4
 20 08 2013  15 45  -21.0170 26094.5 -03465.7 -07.5654 26323.7
 20 08 2013  15 46  -21.0166 26094.1 -03465.6 -07.5653 26323.2
 20 08 2013  15 47  -21.0163 26093.6 -03465.6 -07.5654 26322.7
 20 08 2013  15 48  -21.0161 26093.5 -03465.7 -07.5657 26322.7
 20 08 2013  15 49  -21.0162 26093.7 -03466.0 -07.5662 26322.9
 20 08 2013  15 50  -21.0161 26093.5 -03466.1 -07.5665 26322.7
 20 08 2013  15 51  -21.0158 26093.4 -03466.2 -07.5667 26322.7
 20 08 2013  15 52  -21.0156 26093.5 -03466.4 -07.5672 26322.7
 20 08 2013  15 53  -21.0156 26093.7 -03466.6 -07.5676 26323.0
 20 08 2013  15 54  -21.0157 26094.0 -03466.9 -07.5681 26323.3
 20 08 2013  15 55  -21.0157 26094.2 -03467.1 -07.5684 26323.5
 20 08 2013  15 56  -21.0156 26094.3 -03467.2 -07.5686 26323.6
 20 08 2013  15 57  -21.0157 26094.6 -03467.3 -07.5689 26323.9
 20 08 2013  15 58  -21.0156 26094.6 -03467.3 -07.5689 26324.0
 20 08 2013  15 59  -21.0158 26094.7 -03467.3 -07.5689 26324.0
 20 08 2013  16 00  -21.0156 26094.2 -03467.1 -07.5685 26323.5
 20 08 2013  16 01  -21.0151 26093.7 -03466.9 -07.5683 26323.0
 20 08 2013  16 02  -21.0144 26093.2 -03466.8 -07.5680 26322.5
 20 08 2013  16 03  -21.0142 26092.5 -03466.6 -07.5679 26321.8
 20 08 2013  16 04  -21.0139 26092.2 -03466.6 -07.5680 26321.5
 20 08 2013  16 05  -21.0139 26091.9 -03466.7 -07.5682 26321.2
 20 08 2013  16 06  -21.0141 26091.2 -03466.5 -07.5681 26320.5
 20 08 2013  16 07  -21.0138 26090.6 -03466.5 -07.5681 26319.9
 20 08 2013  16 08  -21.0137 26090.4 -03466.6 -07.5685 26319.7
 20 08 2013  16 09  -21.0138 26090.2 -03466.7 -07.5688 26319.5
 20 08 2013  16 10  -21.0142 26090.0 -03466.8 -07.5691 26319.3
 20 08 2013  16 11  -21.0145 26090.0 -03467.0 -07.5695 26319.3
 20 08 2013  16 12  -21.0151 26089.8 -03467.1 -07.5697 26319.2
 20 08 2013  16 13  -21.0153 26089.6 -03467.1 -07.5698 26319.0
 20 08 2013  16 14  -21.0154 26089.3 -03467.1 -07.5699 26318.7
 20 08 2013  16 15  -21.0158 26089.1 -03467.2 -07.5701 26318.5
 20 08 2013  16 16  -21.0156 26088.9 -03467.2 -07.5702 26318.3
 20 08 2013  16 17  -21.0158 26088.6 -03467.2 -07.5703 26318.0
 20 08 2013  16 18  -21.0162 26088.0 -03467.1 -07.5703 26317.4
 20 08 2013  16 19  -21.0160 26087.2 -03466.9 -07.5701 26316.6
 20 08 2013  16 20  -21.0157 26086.8 -03467.0 -07.5704 26316.2
 20 08 2013  16 21  -21.0157 26086.8 -03467.3 -07.5711 26316.2
 20 08 2013  16 22  -21.0160 26087.0 -03467.6 -07.5717 26316.5
 20 08 2013  16 23  -21.0165 26087.0 -03467.8 -07.5720 26316.5
 20 08 2013  16 24  -21.0172 26086.7 -03467.8 -07.5721 26316.2
 20 08 2013  16 25  -21.0177 26086.4 -03467.8 -07.5723 26315.9
 20 08 2013  16 26  -21.0181 26086.0 -03467.7 -07.5722 26315.5
 20 08 2013  16 27  -21.0180 26085.7 -03467.7 -07.5722 26315.1
 20 08 2013  16 28  -21.0181 26085.4 -03467.7 -07.5724 26314.9
 20 08 2013  16 29  -21.0182 26085.1 -03467.8 -07.5725 26314.6
 20 08 2013  16 30  -21.0182 26084.7 -03467.8 -07.5727 26314.2
 20 08 2013  16 31  -21.0182 26084.5 -03467.8 -07.5728 26314.0
 20 08 2013  16 32  -21.0182 26084.1 -03467.9 -07.5730 26313.7
 20 08 2013  16 33  -21.0183 26083.9 -03468.0 -07.5733 26313.5
 20 08 2013  16 34  -21.0185 26083.8 -03468.0 -07.5735 26313.4
 20 08 2013  16 35  -21.0186 26083.7 -03468.1 -07.5737 26313.3
 20 08 2013  16 36  -21.0190 26083.6 -03468.2 -07.5739 26313.1
 20 08 2013  16 37  -21.0192 26083.3 -03468.2 -07.5739 26312.9
 20 08 2013  16 38  -21.0192 26083.0 -03468.1 -07.5739 26312.6
 20 08 2013  16 39  -21.0189 26082.5 -03468.1 -07.5739 26312.1
 20 08 2013  16 40  -21.0189 26082.0 -03468.0 -07.5739 26311.6
 20 08 2013  16 41  -21.0188 26081.7 -03468.1 -07.5742 26311.3
 20 08 2013  16 42  -21.0190 26081.4 -03468.2 -07.5744 26311.0
 20 08 2013  16 43  -21.0188 26080.8 -03468.1 -07.5745 26310.4
 20 08 2013  16 44  -21.0184 26080.6 -03468.2 -07.5749 26310.2
 20 08 2013  16 45  -21.0184 26080.3 -03468.4 -07.5753 26309.9
 20 08 2013  16 46  -21.0185 26079.9 -03468.6 -07.5757 26309.6
 20 08 2013  16 47  -21.0185 26079.9 -03468.8 -07.5762 26309.6
 20 08 2013  16 48  -21.0185 26079.7 -03469.0 -07.5766 26309.4
 20 08 2013  16 49  -21.0186 26079.8 -03469.2 -07.5772 26309.5
 20 08 2013  16 50  -21.0183 26079.5 -03469.3 -07.5775 26309.3
 20 08 2013  16 51  -21.0182 26079.5 -03469.6 -07.5780 26309.2
 20 08 2013  16 52  -21.0186 26079.8 -03470.0 -07.5788 26309.6
 20 08 2013  16 53  -21.0190 26080.0 -03470.2 -07.5793 26309.8
 20 08 2013  16 54  -21.0190 26080.3 -03470.6 -07.5799 26310.2
 20 08 2013  16 55  -21.0196 26080.5 -03470.8 -07.5803 26310.5
 20 08 2013  16 56  -21.0197 26080.5 -03470.8 -07.5803 26310.5
 20 08 2013  16 57  -21.0195 26080.4 -03470.7 -07.5803 26310.3
 20 08 2013  16 58  -21.0193 26079.7 -03470.5 -07.5799 26309.6
 20 08 2013  16 59  -21.0186 26078.4 -03470.0 -07.5793 26308.3
 20 08 2013  17 00  -21.0179 26077.1 -03469.8 -07.5791 26307.0
 20 08 2013  17 01  -21.0169 26075.9 -03469.6 -07.5791 26305.7
 20 08 2013  17 02  -21.0163 26075.1 -03469.8 -07.5797 26305.0
 20 08 2013  17 03  -21.0164 26075.2 -03470.3 -07.5809 26305.1
 20 08 2013  17 04  -21.0168 26075.7 -03471.0 -07.5823 26305.7
 20 08 2013  17 05  -21.0174 26076.1 -03471.6 -07.5833 26306.2
 20 08 2013  17 06  -21.0182 26076.4 -03472.0 -07.5841 26306.5
 20 08 2013  17 07  -21.0188 26075.9 -03472.0 -07.5844 26306.1
 20 08 2013  17 08  -21.0191 26075.2 -03471.9 -07.5844 26305.4
 20 08 2013  17 09  -21.0192 26074.5 -03471.9 -07.5844 26304.7
 20 08 2013  17 10  -21.0194 26074.5 -03472.1 -07.5850 26304.6
 20 08 2013  17 11  -21.0197 26074.8 -03472.6 -07.5859 26305.0
 20 08 2013  17 12  -21.0198 26074.9 -03472.8 -07.5864 26305.1
 20 08 2013  17 13  -21.0202 26074.6 -03472.9 -07.5866 26304.9
 20 08 2013  17 14  -21.0205 26074.3 -03473.0 -07.5869 26304.6
 20 08 2013  17 15  -21.0207 26074.0 -03473.0 -07.5871 26304.3
 20 08 2013  17 16  -21.0209 26073.8 -03473.2 -07.5874 26304.1
 20 08 2013  17 17  -21.0211 26073.7 -03473.3 -07.5878 26304.0
 20 08 2013  17 18  -21.0212 26073.7 -03473.5 -07.5882 26304.1
 20 08 2013  17 19  -21.0214 26073.7 -03473.7 -07.5886 26304.1
 20 08 2013  17 20  -21.0214 26073.4 -03473.8 -07.5888 26303.8
 20 08 2013  17 21  -21.0215 26072.8 -03473.6 -07.5887 26303.2
 20 08 2013  17 22  -21.0214 26072.1 -03473.6 -07.5887 26302.5
 20 08 2013  17 23  -21.0213 26071.7 -03473.6 -07.5889 26302.1
 20 08 2013  17 24  -21.0214 26071.5 -03473.7 -07.5893 26301.9
 20 08 2013  17 25  -21.0215 26071.3 -03473.9 -07.5897 26301.8
 20 08 2013  17 26  -21.0218 26071.2 -03474.1 -07.5901 26301.6
 20 08 2013  17 27  -21.0219 26070.9 -03474.1 -07.5903 26301.4
 20 08 2013  17 28  -21.0219 26070.5 -03474.1 -07.5905 26300.9
 20 08 2013  17 29  -21.0220 26070.1 -03474.1 -07.5906 26300.5
 20 08 2013  17 30  -21.0220 26069.8 -03474.2 -07.5909 26300.3
 20 08 2013  17 31  -21.0221 26069.6 -03474.4 -07.5913 26300.1
 20 08 2013  17 32  -21.0223 26069.5 -03474.6 -07.5917 26300.0
 20 08 2013  17 33  -21.0224 26069.3 -03474.7 -07.5920 26299.8
 20 08 2013  17 34  -21.0227 26069.0 -03474.7 -07.5922 26299.5
 20 08 2013  17 35  -21.0227 26068.5 -03474.7 -07.5923 26299.1
 20 08 2013  17 36  -21.0225 26068.0 -03474.7 -07.5923 26298.6
 20 08 2013  17 37  -21.0222 26067.6 -03474.7 -07.5925 26298.1
 20 08 2013  17 38  -21.0222 26067.4 -03474.9 -07.5929 26298.0
 20 08 2013  17 39  -21.0223 26067.1 -03475.0 -07.5932 26297.7
 20 08 2013  17 40  -21.0222 26066.9 -03475.1 -07.5936 26297.5
 20 08 2013  17 41  -21.0224 26066.7 -03475.3 -07.5940 26297.3
 20 08 2013  17 42  -21.0225 26066.4 -03475.3 -07.5942 26297.1
 20 08 2013  17 43  -21.0226 26066.2 -03475.4 -07.5945 26296.8
 20 08 2013  17 44  -21.0226 26065.8 -03475.5 -07.5947 26296.5
 20 08 2013  17 45  -21.0225 26065.5 -03475.6 -07.5951 26296.2
 20 08 2013  17 46  -21.0225 26065.2 -03475.7 -07.5954 26296.0
 20 08 2013  17 47  -21.0227 26065.2 -03476.0 -07.5960 26295.9
 20 08 2013  17 48  -21.0230 26065.0 -03476.1 -07.5964 26295.7
 20 08 2013  17 49  -21.0232 26064.6 -03476.2 -07.5965 26295.4
 20 08 2013  17 50  -21.0233 26064.3 -03476.2 -07.5967 26295.0
 20 08 2013  17 51  -21.0236 26064.0 -03476.3 -07.5970 26294.8
 20 08 2013  17 52  -21.0237 26063.7 -03476.4 -07.5973 26294.5
 20 08 2013  17 53  -21.0239 26063.4 -03476.4 -07.5975 26294.3
 20 08 2013  17 54  -21.0240 26063.3 -03476.6 -07.5978 26294.1
 20 08 2013  17 55  -21.0244 26063.3 -03476.8 -07.5983 26294.2
 20 08 2013  17 56  -21.0249 26063.3 -03477.0 -07.5986 26294.2
 20 08 2013  17 57  -21.0251 26063.2 -03477.0 -07.5988 26294.1
 20 08 2013  17 58  -21.0253 26063.0 -03477.1 -07.5990 26293.9
 20 08 2013  17 59  -21.0255 26062.7 -03477.1 -07.5991 26293.7
 20 08 2013  18 00  -21.0257 26062.5 -03477.1 -07.5991 26293.4
 20 08 2013  18 01  -21.0257 26062.2 -03477.1 -07.5992 26293.2
 20 08 2013  18 02  -21.0257 26062.0 -03477.1 -07.5993 26292.9
 20 08 2013  18 03  -21.0259 26061.8 -03477.2 -07.5996 26292.8
 20 08 2013  18 04  -21.0259 26061.7 -03477.3 -07.5998 26292.7
 20 08 2013  18 05  -21.0261 26061.6 -03477.4 -07.6000 26292.5
 20 08 2013  18 06  -21.0263 26061.5 -03477.4 -07.6002 26292.5
 20 08 2013  18 07  -21.0265 26061.5 -03477.5 -07.6003 26292.4
 20 08 2013  18 08  -21.0267 26061.4 -03477.5 -07.6004 26292.4
 20 08 2013  18 09  -21.0271 26061.3 -03477.6 -07.6005 26292.3
 20 08 2013  18 10  -21.0271 26061.0 -03477.5 -07.6005 26292.0
 20 08 2013  18 11  -21.0271 26060.8 -03477.5 -07.6005 26291.8
 20 08 2013  18 12  -21.0273 26060.7 -03477.6 -07.6007 26291.7
 20 08 2013  18 13  -21.0274 26060.6 -03477.7 -07.6009 26291.6
 20 08 2013  18 14  -21.0276 26060.5 -03477.7 -07.6011 26291.5
 20 08 2013  18 15  -21.0278 26060.5 -03477.8 -07.6013 26291.6
 20 08 2013  18 16  -21.0280 26060.7 -03478.0 -07.6016 26291.8
 20 08 2013  18 17  -21.0281 26060.8 -03478.2 -07.6019 26291.9
 20 08 2013  18 18  -21.0283 26060.9 -03478.2 -07.6021 26291.9
 20 08 2013  18 19  -21.0286 26060.8 -03478.3 -07.6023 26291.9
 20 08 2013  18 20  -21.0287 26060.7 -03478.3 -07.6023 26291.8
 20 08 2013  18 21  -21.0289 26060.6 -03478.3 -07.6023 26291.7
 20 08 2013  18 22  -21.0292 26060.4 -03478.3 -07.6023 26291.5
 20 08 2013  18 23  -21.0294 26060.2 -03478.2 -07.6023 26291.3
 20 08 2013  18 24  -21.0296 26060.0 -03478.2 -07.6022 26291.0
 20 08 2013  18 25  -21.0297 26059.7 -03478.1 -07.6022 26290.7
 20 08 2013  18 26  -21.0296 26059.2 -03478.0 -07.6020 26290.3
 20 08 2013  18 27  -21.0296 26058.8 -03477.9 -07.6020 26289.9
 20 08 2013  18 28  -21.0295 26058.4 -03477.8 -07.6019 26289.5
 20 08 2013  18 29  -21.0296 26058.2 -03477.8 -07.6020 26289.3
 20 08 2013  18 30  -21.0297 26058.1 -03477.9 -07.6021 26289.1
 20 08 2013  18 31  -21.0297 26057.9 -03477.9 -07.6022 26289.0
 20 08 2013  18 32  -21.0297 26057.6 -03477.9 -07.6023 26288.7
 20 08 2013  18 33  -21.0297 26057.3 -03477.9 -07.6023 26288.4
 20 08 2013  18 34  -21.0297 26057.1 -03477.9 -07.6024 26288.2
 20 08 2013  18 35  -21.0298 26056.9 -03477.9 -07.6025 26287.9
 20 08 2013  18 36  -21.0299 26056.6 -03477.9 -07.6026 26287.7
 20 08 2013  18 37  -21.0299 26056.5 -03477.9 -07.6026 26287.5
 20 08 2013  18 38  -21.0301 26056.3 -03478.0 -07.6028 26287.4
 20 08 2013  18 39  -21.0300 26056.0 -03477.9 -07.6028 26287.1
 20 08 2013  18 40  -21.0301 26055.8 -03477.9 -07.6028 26286.9
 20 08 2013  18 41  -21.0304 26055.7 -03477.9 -07.6029 26286.8
 20 08 2013  18 42  -21.0305 26055.4 -03477.9 -07.6029 26286.4
 20 08 2013  18 43  -21.0306 26055.0 -03477.8 -07.6028 26286.1
 20 08 2013  18 44  -21.0307 26054.8 -03477.7 -07.6028 26285.9
 20 08 2013  18 45  -21.0311 26054.6 -03477.8 -07.6030 26285.7
 20 08 2013  18 46  -21.0312 26054.5 -03477.8 -07.6030 26285.6
 20 08 2013  18 47  -21.0316 26054.3 -03477.8 -07.6030 26285.4
 20 08 2013  18 48  -21.0317 26054.0 -03477.7 -07.6028 26285.1
 20 08 2013  18 49  -21.0319 26053.7 -03477.6 -07.6027 26284.8
 20 08 2013  18 50  -21.0320 26053.4 -03477.6 -07.6028 26284.5
 20 08 2013  18 51  -21.0320 26053.4 -03477.6 -07.6029 26284.4
 20 08 2013  18 52  -21.0322 26053.4 -03477.7 -07.6032 26284.5
 20 08 2013  18 53  -21.0324 26053.6 -03477.9 -07.6034 26284.7
 20 08 2013  18 54  -21.0328 26054.0 -03478.1 -07.6038 26285.1
 20 08 2013  18 55  -21.0332 26054.1 -03478.2 -07.6040 26285.3
 20 08 2013  18 56  -21.0333 26054.0 -03478.2 -07.6039 26285.2
 20 08 2013  18 57  -21.0331 26053.8 -03478.0 -07.6036 26284.9
 20 08 2013  18 58  -21.0329 26053.8 -03478.1 -07.6038 26284.9
 20 08 2013  18 59  -21.0328 26054.0 -03478.2 -07.6040 26285.1
 20 08 2013  19 00  -21.0329 26054.1 -03478.3 -07.6043 26285.3
 20 08 2013  19 01  -21.0330 26054.2 -03478.3 -07.6042 26285.3
 20 08 2013  19 02  -21.0329 26054.0 -03478.3 -07.6041 26285.2
 20 08 2013  19 03  -21.0327 26053.6 -03478.1 -07.6039 26284.7
 20 08 2013  19 04  -21.0326 26053.1 -03477.9 -07.6037 26284.2
 20 08 2013  19 05  -21.0324 26052.7 -03477.9 -07.6037 26283.8
 20 08 2013  19 06  -21.0324 26052.4 -03477.8 -07.6037 26283.5
 20 08 2013  19 07  -21.0321 26052.0 -03477.7 -07.6036 26283.1
 20 08 2013  19 08  -21.0321 26051.7 -03477.7 -07.6036 26282.8
 20 08 2013  19 09  -21.0321 26051.4 -03477.8 -07.6038 26282.5
 20 08 2013  19 10  -21.0319 26051.0 -03477.7 -07.6038 26282.1
 20 08 2013  19 11  -21.0319 26050.7 -03477.7 -07.6039 26281.8
 20 08 2013  19 12  -21.0316 26050.4 -03477.8 -07.6041 26281.5
 20 08 2013  19 13  -21.0314 26050.3 -03477.9 -07.6044 26281.4
 20 08 2013  19 14  -21.0313 26050.1 -03477.9 -07.6046 26281.3
 20 08 2013  19 15  -21.0311 26050.0 -03478.1 -07.6048 26281.2
 20 08 2013  19 16  -21.0309 26050.0 -03478.2 -07.6052 26281.2
 20 08 2013  19 17  -21.0308 26050.1 -03478.4 -07.6056 26281.3
 20 08 2013  19 18  -21.0307 26050.0 -03478.6 -07.6059 26281.2
 20 08 2013  19 19  -21.0306 26049.8 -03478.6 -07.6060 26281.0
 20 08 2013  19 20  -21.0306 26049.6 -03478.6 -07.6061 26280.8
 20 08 2013  19 21  -21.0303 26049.3 -03478.6 -07.6061 26280.5
 20 08 2013  19 22  -21.0300 26049.0 -03478.5 -07.6062 26280.2
 20 08 2013  19 23  -21.0298 26048.7 -03478.6 -07.6063 26280.0
 20 08 2013  19 24  -21.0296 26048.6 -03478.7 -07.6066 26279.8
 20 08 2013  19 25  -21.0295 26048.6 -03478.8 -07.6069 26279.9
 20 08 2013  19 26  -21.0295 26048.8 -03479.1 -07.6074 26280.1
 20 08 2013  19 27  -21.0298 26048.8 -03479.2 -07.6076 26280.1
 20 08 2013  19 28  -21.0299 26048.6 -03479.1 -07.6075 26279.9
 20 08 2013  19 29  -21.0298 26048.3 -03479.0 -07.6075 26279.6
 20 08 2013  19 30  -21.0297 26048.1 -03479.0 -07.6075 26279.4
 20 08 2013  19 31  -21.0296 26048.0 -03479.1 -07.6076 26279.3
 20 08 2013  19 32  -21.0296 26047.9 -03479.1 -07.6076 26279.2
 20 08 2013  19 33  -21.0297 26047.9 -03479.1 -07.6078 26279.2
 20 08 2013  19 34  -21.0297 26047.7 -03479.1 -07.6078 26279.0
 20 08 2013  19 35  -21.0296 26047.2 -03478.9 -07.6075 26278.5
 20 08 2013  19 36  -21.0295 26046.7 -03478.7 -07.6071 26278.0
 20 08 2013  19 37  -21.0293 26046.0 -03478.4 -07.6066 26277.2
 20 08 2013  19 38  -21.0289 26045.4 -03478.2 -07.6064 26276.7
 20 08 2013  19 39  -21.0288 26045.0 -03478.1 -07.6064 26276.3
 20 08 2013  19 40  -21.0284 26044.6 -03478.0 -07.6064 26275.8
 20 08 2013  19 41  -21.0282 26044.5 -03478.1 -07.6066 26275.7
 20 08 2013  19 42  -21.0280 26044.6 -03478.3 -07.6069 26275.8
 20 08 2013  19 43  -21.0280 26044.7 -03478.5 -07.6072 26276.0
 20 08 2013  19 44  -21.0278 26044.7 -03478.6 -07.6074 26276.0
 20 08 2013  19 45  -21.0277 26044.6 -03478.5 -07.6074 26275.8
 20 08 2013  19 46  -21.0276 26044.4 -03478.5 -07.6075 26275.7
 20 08 2013  19 47  -21.0277 26044.4 -03478.6 -07.6076 26275.7
 20 08 2013  19 48  -21.0277 26044.4 -03478.5 -07.6075 26275.6
 20 08 2013  19 49  -21.0279 26044.1 -03478.4 -07.6073 26275.4
 20 08 2013  19 50  -21.0278 26043.7 -03478.2 -07.6069 26274.9
 20 08 2013  19 51  -21.0279 26043.2 -03477.9 -07.6065 26274.5
 20 08 2013  19 52  -21.0279 26042.8 -03477.8 -07.6063 26274.0
 20 08 2013  19 53  -21.0277 26042.6 -03477.6 -07.6061 26273.7
 20 08 2013  19 54  -21.0278 26042.4 -03477.6 -07.6060 26273.5
 20 08 2013  19 55  -21.0279 26042.1 -03477.4 -07.6058 26273.3
 20 08 2013  19 56  -21.0280 26042.0 -03477.4 -07.6057 26273.1
 20 08 2013  19 57  -21.0281 26041.8 -03477.3 -07.6056 26272.9
 20 08 2013  19 58  -21.0281 26041.7 -03477.2 -07.6054 26272.8
 20 08 2013  19 59  -21.0283 26041.6 -03477.1 -07.6052 26272.7
 20 08 2013  20 00  -21.0283 26041.3 -03476.9 -07.6048 26272.4
 20 08 2013  20 01  -21.0286 26041.0 -03476.7 -07.6046 26272.1
 20 08 2013  20 02  -21.0286 26040.7 -03476.6 -07.6043 26271.8
 20 08 2013  20 03  -21.0286 26040.5 -03476.5 -07.6042 26271.5
 20 08 2013  20 04  -21.0288 26040.4 -03476.5 -07.6042 26271.5
 20 08 2013  20 05  -21.0288 26040.4 -03476.5 -07.6042 26271.4
 20 08 2013  20 06  -21.0287 26040.4 -03476.4 -07.6040 26271.4
 20 08 2013  20 07  -21.0288 26040.2 -03476.3 -07.6039 26271.3
 20 08 2013  20 08  -21.0288 26040.0 -03476.3 -07.6038 26271.1
 20 08 2013  20 09  -21.0285 26039.9 -03476.2 -07.6037 26270.9
 20 08 2013  20 10  -21.0283 26039.8 -03476.1 -07.6036 26270.8
 20 08 2013  20 11  -21.0278 26039.7 -03476.1 -07.6035 26270.7
 20 08 2013  20 12  -21.0276 26039.7 -03476.0 -07.6034 26270.7
 20 08 2013  20 13  -21.0271 26039.3 -03475.8 -07.6030 26270.3
 20 08 2013  20 14  -21.0267 26038.9 -03475.6 -07.6027 26269.8
 20 08 2013  20 15  -21.0264 26038.7 -03475.6 -07.6027 26269.6
 20 08 2013  20 16  -21.0263 26038.6 -03475.7 -07.6029 26269.6
 20 08 2013  20 17  -21.0261 26038.8 -03475.9 -07.6033 26269.8
 20 08 2013  20 18  -21.0261 26039.4 -03476.2 -07.6039 26270.5
 20 08 2013  20 19  -21.0257 26039.8 -03476.3 -07.6040 26270.8
 20 08 2013  20 20  -21.0253 26039.9 -03476.1 -07.6036 26270.9
 20 08 2013  20 21  -21.0249 26039.5 -03475.8 -07.6029 26270.4
 20 08 2013  20 22  -21.0249 26039.0 -03475.5 -07.6026 26269.9
 20 08 2013  20 23  -21.0249 26038.9 -03475.6 -07.6027 26269.8
 20 08 2013  20 24  -21.0248 26039.0 -03475.7 -07.6030 26270.0
 20 08 2013  20 25  -21.0246 26039.3 -03475.9 -07.6032 26270.2
 20 08 2013  20 26  -21.0244 26039.6 -03476.0 -07.6034 26270.5
 20 08 2013  20 27  -21.0242 26039.6 -03476.0 -07.6034 26270.6
 20 08 2013  20 28  -21.0240 26039.5 -03475.9 -07.6032 26270.5
 20 08 2013  20 29  -21.0238 26039.4 -03475.8 -07.6031 26270.3
 20 08 2013  20 30  -21.0237 26039.5 -03475.9 -07.6033 26270.4
 20 08 2013  20 31  -21.0235 26039.4 -03476.0 -07.6033 26270.4
 20 08 2013  20 32  -21.0231 26039.6 -03476.0 -07.6035 26270.5
 20 08 2013  20 33  -21.0228 26039.7 -03476.1 -07.6036 26270.7
 20 08 2013  20 34  -21.0224 26039.8 -03476.1 -07.6037 26270.8
 20 08 2013  20 35  -21.0220 26039.9 -03476.3 -07.6039 26270.9
 20 08 2013  20 36  -21.0220 26040.0 -03476.3 -07.6040 26271.1
 20 08 2013  20 37  -21.0218 26040.1 -03476.4 -07.6040 26271.2
 20 08 2013  20 38  -21.0215 26040.2 -03476.4 -07.6040 26271.2
 20 08 2013  20 39  -21.0208 26040.1 -03476.2 -07.6038 26271.1
 20 08 2013  20 40  -21.0203 26039.7 -03476.0 -07.6034 26270.7
 20 08 2013  20 41  -21.0198 26039.5 -03475.9 -07.6032 26270.4
 20 08 2013  20 42  -21.0191 26039.0 -03475.6 -07.6027 26269.9
 20 08 2013  20 43  -21.0187 26038.5 -03475.4 -07.6025 26269.4
 20 08 2013  20 44  -21.0185 26038.7 -03475.6 -07.6028 26269.6
 20 08 2013  20 45  -21.0185 26039.2 -03476.0 -07.6036 26270.2
 20 08 2013  20 46  -21.0185 26039.5 -03476.3 -07.6041 26270.6
 20 08 2013  20 47  -21.0183 26039.7 -03476.4 -07.6043 26270.7
 20 08 2013  20 48  -21.0181 26039.8 -03476.4 -07.6042 26270.8
 20 08 2013  20 49  -21.0176 26039.6 -03476.3 -07.6039 26270.6
 20 08 2013  20 50  -21.0172 26039.4 -03476.1 -07.6036 26270.3
 20 08 2013  20 51  -21.0170 26039.2 -03476.1 -07.6036 26270.2
 20 08 2013  20 52  -21.0170 26039.4 -03476.2 -07.6039 26270.4
 20 08 2013  20 53  -21.0169 26039.7 -03476.4 -07.6043 26270.8
 20 08 2013  20 54  -21.0167 26039.9 -03476.5 -07.6044 26270.9
 20 08 2013  20 55  -21.0165 26039.9 -03476.4 -07.6042 26270.9
 20 08 2013  20 56  -21.0162 26039.9 -03476.2 -07.6038 26270.9
 20 08 2013  20 57  -21.0162 26040.0 -03476.5 -07.6044 26271.1
 20 08 2013  20 58  -21.0162 26040.2 -03476.7 -07.6047 26271.3
 20 08 2013  20 59  -21.0163 26040.4 -03476.8 -07.6049 26271.4
 20 08 2013  21 00  -21.0162 26040.6 -03476.9 -07.6050 26271.7
 20 08 2013  21 01  -21.0159 26040.9 -03477.0 -07.6051 26272.0
 20 08 2013  21 02  -21.0155 26041.0 -03477.0 -07.6051 26272.1
 20 08 2013  21 03  -21.0150 26041.0 -03476.9 -07.6048 26272.1
 20 08 2013  21 04  -21.0148 26040.8 -03476.7 -07.6046 26271.8
 20 08 2013  21 05  -21.0150 26040.8 -03476.7 -07.6045 26271.8
 20 08 2013  21 06  -21.0152 26041.2 -03476.9 -07.6049 26272.3
 20 08 2013  21 07  -21.0153 26041.6 -03477.2 -07.6054 26272.8
 20 08 2013  21 08  -21.0153 26042.2 -03477.4 -07.6057 26273.3
 20 08 2013  21 09  -21.0148 26042.4 -03477.5 -07.6057 26273.5
 20 08 2013  21 10  -21.0144 26042.2 -03477.2 -07.6053 26273.3
 20 08 2013  21 11  -21.0141 26041.8 -03476.9 -07.6047 26272.9
 20 08 2013  21 12  -21.0141 26041.6 -03476.8 -07.6045 26272.6
 20 08 2013  21 13  -21.0139 26041.6 -03476.8 -07.6046 26272.7
 20 08 2013  21 14  -21.0138 26041.4 -03476.7 -07.6044 26272.4
 20 08 2013  21 15  -21.0134 26041.3 -03476.6 -07.6042 26272.3
 20 08 2013  21 16  -21.0128 26041.3 -03476.7 -07.6043 26272.3
 20 08 2013  21 17  -21.0122 26040.8 -03476.4 -07.6040 26271.8
 20 08 2013  21 18  -21.0117 26040.1 -03476.0 -07.6033 26271.0
 20 08 2013  21 19  -21.0116 26039.6 -03475.8 -07.6029 26270.5
 20 08 2013  21 20  -21.0114 26039.3 -03475.7 -07.6029 26270.3
 20 08 2013  21 21  -21.0110 26039.2 -03475.7 -07.6028 26270.2
 20 08 2013  21 22  -21.0104 26039.2 -03475.8 -07.6031 26270.2
 20 08 2013  21 23  -21.0105 26039.5 -03476.1 -07.6036 26270.5
 20 08 2013  21 24  -21.0106 26039.9 -03476.4 -07.6043 26270.9
 20 08 2013  21 25  -21.0106 26040.2 -03476.7 -07.6047 26271.3
 20 08 2013  21 26  -21.0105 26040.4 -03476.7 -07.6046 26271.5
 20 08 2013  21 27  -21.0105 26040.4 -03476.8 -07.6049 26271.5
 20 08 2013  21 28  -21.0103 26040.5 -03476.9 -07.6051 26271.6
 20 08 2013  21 29  -21.0099 26040.7 -03477.0 -07.6052 26271.8
 20 08 2013  21 30  -21.0098 26040.7 -03477.0 -07.6053 26271.8
 20 08 2013  21 31  -21.0099 26040.8 -03477.1 -07.6054 26271.9
 20 08 2013  21 32  -21.0100 26040.9 -03477.2 -07.6056 26272.1
 20 08 2013  21 33  -21.0104 26041.1 -03477.3 -07.6058 26272.2
 20 08 2013  21 34  -21.0105 26041.2 -03477.4 -07.6059 26272.3
 20 08 2013  21 35  -21.0106 26041.2 -03477.4 -07.6059 26272.4
 20 08 2013  21 36  -21.0105 26041.2 -03477.4 -07.6058 26272.4
 20 08 2013  21 37  -21.0104 26041.2 -03477.3 -07.6058 26272.3
 20 08 2013  21 38  -21.0103 26041.2 -03477.3 -07.6057 26272.3
 20 08 2013  21 39  -21.0103 26041.2 -03477.3 -07.6058 26272.4
 20 08 2013  21 40  -21.0104 26041.3 -03477.4 -07.6059 26272.4
 20 08 2013  21 41  -21.0102 26041.2 -03477.3 -07.6057 26272.4
 20 08 2013  21 42  -21.0100 26041.1 -03477.2 -07.6056 26272.2
 20 08 2013  21 43  -21.0101 26040.9 -03477.1 -07.6054 26272.0
 20 08 2013  21 44  -21.0104 26040.9 -03477.1 -07.6053 26272.0
 20 08 2013  21 45  -21.0107 26041.0 -03477.2 -07.6055 26272.1
 20 08 2013  21 46  -21.0108 26041.2 -03477.3 -07.6057 26272.4
 20 08 2013  21 47  -21.0108 26041.2 -03477.2 -07.6056 26272.3
 20 08 2013  21 48  -21.0106 26041.1 -03477.2 -07.6055 26272.2
 20 08 2013  21 49  -21.0106 26041.0 -03477.1 -07.6053 26272.1
 20 08 2013  21 50  -21.0110 26040.9 -03477.0 -07.6053 26272.0
 20 08 2013  21 51  -21.0113 26041.0 -03477.1 -07.6054 26272.1
 20 08 2013  21 52  -21.0112 26041.1 -03477.1 -07.6054 26272.2
 20 08 2013  21 53  -21.0110 26041.1 -03477.1 -07.6054 26272.2
 20 08 2013  21 54  -21.0108 26041.2 -03477.1 -07.6054 26272.3
 20 08 2013  21 55  -21.0106 26041.1 -03477.1 -07.6054 26272.2
 20 08 2013  21 56  -21.0113 26040.9 -03477.0 -07.6052 26272.0
 20 08 2013  21 57  -21.0116 26041.0 -03477.1 -07.6053 26272.1
 20 08 2013  21 58  -21.0114 26041.2 -03477.1 -07.6054 26272.3
 20 08 2013  21 59  -21.0116 26040.6 -03476.9 -07.6050 26271.7
 20 08 2013  22 00  -21.0115 26040.5 -03476.7 -07.6047 26271.5
 20 08 2013  22 01  -21.0116 26040.7 -03476.9 -07.6050 26271.8
 20 08 2013  22 02  -21.0122 26040.6 -03476.9 -07.6050 26271.7
 20 08 2013  22 03  -21.0128 26040.5 -03476.9 -07.6050 26271.6
 20 08 2013  22 04  -21.0130 26040.6 -03476.9 -07.6049 26271.7
 20 08 2013  22 05  -21.0127 26040.7 -03476.9 -07.6050 26271.8
 20 08 2013  22 06  -21.0127 26040.5 -03476.8 -07.6048 26271.5
 20 08 2013  22 07  -21.0129 26040.1 -03476.6 -07.6045 26271.2
 20 08 2013  22 08  -21.0133 26040.1 -03476.6 -07.6045 26271.2
 20 08 2013  22 09  -21.0138 26040.4 -03476.8 -07.6048 26271.5
 20 08 2013  22 10  -21.0144 26040.7 -03476.9 -07.6050 26271.8
 20 08 2013  22 11  -21.0142 26040.9 -03477.0 -07.6052 26272.0
 20 08 2013  22 12  -21.0143 26040.9 -03477.0 -07.6051 26272.0
 20 08 2013  22 13  -21.0139 26040.7 -03476.8 -07.6049 26271.8
 20 08 2013  22 14  -21.0145 26040.3 -03476.7 -07.6046 26271.4
 20 08 2013  22 15  -21.0142 26040.5 -03476.7 -07.6046 26271.6
 20 08 2013  22 16  -21.0145 26040.6 -03476.7 -07.6047 26271.6
 20 08 2013  22 17  -21.0147 26040.8 -03476.8 -07.6048 26271.8
 20 08 2013  22 18  -21.0145 26040.8 -03476.8 -07.6048 26271.9
 20 08 2013  22 19  -21.0143 26040.9 -03476.9 -07.6049 26272.0
 20 08 2013  22 20  -21.0140 26041.0 -03476.9 -07.6049 26272.0
 20 08 2013  22 21  -21.0135 26041.0 -03476.9 -07.6049 26272.1
 20 08 2013  22 22  -21.0129 26041.3 -03477.0 -07.6050 26272.4
 20 08 2013  22 23  -21.0127 26041.5 -03477.1 -07.6053 26272.6
 20 08 2013  22 24  -21.0128 26041.9 -03477.3 -07.6055 26273.0
 20 08 2013  22 25  -21.0133 26042.5 -03477.7 -07.6062 26273.7
 20 08 2013  22 26  -21.0138 26043.5 -03478.1 -07.6069 26274.7
 20 08 2013  22 27  -21.0139 26044.4 -03478.6 -07.6076 26275.7
 20 08 2013  22 28  -21.0138 26044.6 -03478.7 -07.6077 26275.9
 20 08 2013  22 29  -21.0134 26044.7 -03478.5 -07.6074 26276.0
 20 08 2013  22 30  -21.0126 26047.7 -03479.7 -07.6090 26279.1
 20 08 2013  22 31  -21.0114 26052.1 -03481.8 -07.6122 26283.8
 20 08 2013  22 32  -21.0102 26055.2 -03483.3 -07.6147 26287.0
 20 08 2013  22 33  -21.0092 26055.9 -03483.6 -07.6151 26287.7
 20 08 2013  22 34  -21.0097 26055.1 -03483.0 -07.6139 26286.9
 20 08 2013  22 35  -21.0106 26054.3 -03482.3 -07.6127 26286.0
 20 08 2013  22 36  -21.0110 26053.7 -03481.7 -07.6116 26285.3
 20 08 2013  22 37  -21.0103 26053.4 -03481.2 -07.6106 26285.0
 20 08 2013  22 38  -21.0097 26053.1 -03480.8 -07.6099 26284.6
 20 08 2013  22 39  -21.0098 26052.5 -03480.4 -07.6091 26283.9
 20 08 2013  22 40  -21.0099 26052.3 -03480.2 -07.6088 26283.8
 20 08 2013  22 41  -21.0097 26052.9 -03480.4 -07.6090 26284.3
 20 08 2013  22 42  -21.0093 26053.0 -03480.4 -07.6090 26284.4
 20 08 2013  22 43  -21.0088 26053.1 -03480.3 -07.6089 26284.6
 20 08 2013  22 44  -21.0094 26053.6 -03480.6 -07.6092 26285.0
 20 08 2013  22 45  -21.0103 26053.9 -03480.7 -07.6095 26285.4
 20 08 2013  22 46  -21.0106 26054.5 -03481.0 -07.6098 26286.0
 20 08 2013  22 47  -21.0111 26054.8 -03481.1 -07.6099 26286.4
 20 08 2013  22 48  -21.0111 26055.5 -03481.2 -07.6101 26287.0
 20 08 2013  22 49  -21.0113 26055.4 -03481.1 -07.6099 26287.0
 20 08 2013  22 50  -21.0115 26054.9 -03480.7 -07.6092 26286.4
 20 08 2013  22 51  -21.0121 26054.2 -03480.3 -07.6085 26285.7
 20 08 2013  22 52  -21.0123 26053.9 -03480.0 -07.6079 26285.3
 20 08 2013  22 53  -21.0123 26053.2 -03479.6 -07.6072 26284.5
 20 08 2013  22 54  -21.0120 26052.5 -03479.1 -07.6064 26283.7
 20 08 2013  22 55  -21.0120 26051.9 -03478.8 -07.6059 26283.1
 20 08 2013  22 56  -21.0124 26051.5 -03478.6 -07.6055 26282.7
 20 08 2013  22 57  -21.0129 26051.4 -03478.6 -07.6056 26282.7
 20 08 2013  22 58  -21.0131 26051.6 -03478.7 -07.6058 26282.9
 20 08 2013  22 59  -21.0131 26052.4 -03479.0 -07.6063 26283.6
 20 08 2013  23 00  -21.0130 26053.9 -03479.7 -07.6073 26285.2
 20 08 2013  23 01  -21.0132 26055.1 -03480.4 -07.6083 26286.5
 20 08 2013  23 02  -21.0134 26055.5 -03480.5 -07.6086 26286.9
 20 08 2013  23 03  -21.0136 26055.4 -03480.4 -07.6083 26286.8
 20 08 2013  23 04  -21.0138 26055.1 -03480.1 -07.6078 26286.5
 20 08 2013  23 05  -21.0141 26054.9 -03479.9 -07.6074 26286.2
 20 08 2013  23 06  -21.0141 26055.1 -03479.9 -07.6073 26286.4
 20 08 2013  23 07  -21.0134 26055.4 -03479.9 -07.6072 26286.7
 20 08 2013  23 08  -21.0128 26055.2 -03479.7 -07.6069 26286.5
 20 08 2013  23 09  -21.0123 26054.1 -03479.1 -07.6059 26285.3
 20 08 2013  23 10  -21.0126 26052.9 -03478.5 -07.6049 26284.1
 20 08 2013  23 11  -21.0128 26052.5 -03478.3 -07.6045 26283.7
 20 08 2013  23 12  -21.0126 26052.5 -03478.3 -07.6046 26283.7
 20 08 2013  23 13  -21.0122 26052.6 -03478.3 -07.6047 26283.8
 20 08 2013  23 14  -21.0119 26052.6 -03478.4 -07.6048 26283.8
 20 08 2013  23 15  -21.0119 26052.6 -03478.4 -07.6049 26283.8
 20 08 2013  23 16  -21.0120 26052.2 -03478.3 -07.6047 26283.4
 20 08 2013  23 17  -21.0119 26051.9 -03478.2 -07.6045 26283.1
 20 08 2013  23 18  -21.0117 26052.1 -03478.2 -07.6046 26283.3
 20 08 2013  23 19  -21.0114 26052.6 -03478.5 -07.6051 26283.8
 20 08 2013  23 20  -21.0113 26052.2 -03478.4 -07.6049 26283.3
 20 08 2013  23 21  -21.0113 26051.2 -03478.0 -07.6043 26282.4
 20 08 2013  23 22  -21.0113 26050.8 -03477.7 -07.6039 26281.9
 20 08 2013  23 23  -21.0112 26050.8 -03477.7 -07.6039 26281.9
 20 08 2013  23 24  -21.0109 26051.2 -03478.0 -07.6043 26282.3
 20 08 2013  23 25  -21.0108 26051.2 -03478.1 -07.6045 26282.3
 20 08 2013  23 26  -21.0106 26050.9 -03478.0 -07.6044 26282.0
 20 08 2013  23 27  -21.0106 26050.5 -03477.8 -07.6042 26281.7
 20 08 2013  23 28  -21.0105 26050.9 -03478.0 -07.6045 26282.0
 20 08 2013  23 29  -21.0103 26051.4 -03478.3 -07.6050 26282.6
 20 08 2013  23 30  -21.0102 26051.5 -03478.4 -07.6052 26282.7
 20 08 2013  23 31  -21.0101 26051.4 -03478.4 -07.6051 26282.6
 20 08 2013  23 32  -21.0101 26051.0 -03478.2 -07.6049 26282.2
 20 08 2013  23 33  -21.0101 26050.8 -03478.1 -07.6048 26282.0
 20 08 2013  23 34  -21.0099 26051.1 -03478.2 -07.6049 26282.3
 20 08 2013  23 35  -21.0095 26051.6 -03478.5 -07.6053 26282.8
 20 08 2013  23 36  -21.0088 26052.1 -03478.7 -07.6056 26283.3
 20 08 2013  23 37  -21.0087 26052.5 -03478.9 -07.6060 26283.8
 20 08 2013  23 38  -21.0088 26052.7 -03479.1 -07.6063 26283.9
 20 08 2013  23 39  -21.0090 26052.6 -03479.1 -07.6063 26283.9
 20 08 2013  23 40  -21.0092 26052.4 -03478.9 -07.6061 26283.6
 20 08 2013  23 41  -21.0095 26051.9 -03478.7 -07.6057 26283.2
 20 08 2013  23 42  -21.0100 26051.1 -03478.3 -07.6050 26282.3
 20 08 2013  23 43  -21.0106 26050.3 -03477.9 -07.6044 26281.4
 20 08 2013  23 44  -21.0109 26049.9 -03477.7 -07.6040 26281.0
 20 08 2013  23 45  -21.0110 26049.5 -03477.5 -07.6038 26280.6
 20 08 2013  23 46  -21.0110 26049.4 -03477.4 -07.6037 26280.4
 20 08 2013  23 47  -21.0111 26049.2 -03477.4 -07.6037 26280.3
 20 08 2013  23 48  -21.0114 26049.0 -03477.4 -07.6037 26280.1
 20 08 2013  23 49  -21.0116 26048.9 -03477.4 -07.6037 26280.0
 20 08 2013  23 50  -21.0117 26048.6 -03477.3 -07.6036 26279.7
 20 08 2013  23 51  -21.0120 26048.1 -03477.1 -07.6033 26279.2
 20 08 2013  23 52  -21.0124 26047.4 -03476.8 -07.6029 26278.4
 20 08 2013  23 53  -21.0124 26046.8 -03476.5 -07.6025 26277.8
 20 08 2013  23 54  -21.0128 26045.8 -03476.1 -07.6019 26276.7
 20 08 2013  23 55  -21.0139 26044.3 -03475.5 -07.6009 26275.2
 20 08 2013  23 56  -21.0148 26042.9 -03474.9 -07.6000 26273.7
 20 08 2013  23 57  -21.0151 26042.0 -03474.5 -07.5994 26272.8
