SAO LUIS EMBRACE-03 <325> 1 Min. Reported data

 DD MM YYYY  HH MM   D(Deg)  H(nT)   Z(nT)   I(Deg)   F(nT)

 21 11 2013  00 00  -21.0068 26023.6 -03509.3 -07.6801 26259.2
 21 11 2013  00 01  -21.0071 26023.6 -03509.3 -07.6801 26259.1
 21 11 2013  00 02  -21.0073 26023.5 -03509.3 -07.6800 26259.0
 21 11 2013  00 03  -21.0075 26023.4 -03509.2 -07.6799 26258.9
 21 11 2013  00 04  -21.0076 26023.3 -03509.2 -07.6799 26258.8
 21 11 2013  00 05  -21.0078 26023.2 -03509.2 -07.6799 26258.7
 21 11 2013  00 06  -21.0078 26023.1 -03509.1 -07.6798 26258.6
 21 11 2013  00 07  -21.0080 26023.0 -03509.1 -07.6797 26258.5
 21 11 2013  00 08  -21.0081 26022.9 -03509.1 -07.6797 26258.4
 21 11 2013  00 09  -21.0081 26022.9 -03509.1 -07.6797 26258.4
 21 11 2013  00 10  -21.0081 26022.9 -03509.1 -07.6797 26258.4
 21 11 2013  00 11  -21.0080 26022.9 -03509.1 -07.6798 26258.4
 21 11 2013  00 12  -21.0079 26022.9 -03509.1 -07.6798 26258.4
 21 11 2013  00 13  -21.0079 26022.9 -03509.1 -07.6799 26258.4
 21 11 2013  00 14  -21.0078 26022.9 -03509.2 -07.6800 26258.4
 21 11 2013  00 15  -21.0077 26022.9 -03509.2 -07.6800 26258.4
 21 11 2013  00 16  -21.0076 26022.9 -03509.2 -07.6800 26258.4
 21 11 2013  00 17  -21.0077 26022.9 -03509.2 -07.6801 26258.5
 21 11 2013  00 18  -21.0078 26023.0 -03509.3 -07.6802 26258.5
 21 11 2013  00 19  -21.0077 26023.0 -03509.3 -07.6802 26258.5
 21 11 2013  00 20  -21.0076 26023.0 -03509.3 -07.6803 26258.6
 21 11 2013  00 21  -21.0075 26023.1 -03509.3 -07.6803 26258.6
 21 11 2013  00 22  -21.0075 26023.1 -03509.4 -07.6803 26258.7
 21 11 2013  00 23  -21.0077 26023.2 -03509.4 -07.6804 26258.7
 21 11 2013  00 24  -21.0075 26023.1 -03509.4 -07.6804 26258.7
 21 11 2013  00 25  -21.0075 26023.2 -03509.4 -07.6805 26258.8
 21 11 2013  00 26  -21.0074 26023.3 -03509.5 -07.6805 26258.9
 21 11 2013  00 27  -21.0074 26023.4 -03509.5 -07.6806 26259.0
 21 11 2013  00 28  -21.0073 26023.4 -03509.6 -07.6806 26259.0
 21 11 2013  00 29  -21.0073 26023.4 -03509.5 -07.6806 26259.0
 21 11 2013  00 30  -21.0073 26023.4 -03509.5 -07.6806 26259.0
 21 11 2013  00 31  -21.0071 26023.4 -03509.5 -07.6806 26258.9
 21 11 2013  00 32  -21.0071 26023.4 -03509.5 -07.6806 26259.0
 21 11 2013  00 33  -21.0071 26023.4 -03509.5 -07.6806 26259.0
 21 11 2013  00 34  -21.0070 26023.4 -03509.5 -07.6806 26259.0
 21 11 2013  00 35  -21.0068 26023.4 -03509.5 -07.6806 26258.9
 21 11 2013  00 36  -21.0065 26023.3 -03509.5 -07.6805 26258.9
 21 11 2013  00 37  -21.0066 26023.3 -03509.5 -07.6805 26258.9
 21 11 2013  00 38  -21.0067 26023.2 -03509.5 -07.6805 26258.8
 21 11 2013  00 39  -21.0066 26023.2 -03509.5 -07.6805 26258.7
 21 11 2013  00 40  -21.0066 26023.1 -03509.5 -07.6805 26258.7
 21 11 2013  00 41  -21.0067 26023.1 -03509.4 -07.6805 26258.7
 21 11 2013  00 42  -21.0067 26023.0 -03509.4 -07.6804 26258.6
 21 11 2013  00 43  -21.0067 26023.0 -03509.4 -07.6804 26258.5
 21 11 2013  00 44  -21.0068 26022.9 -03509.4 -07.6804 26258.5
 21 11 2013  00 45  -21.0067 26022.9 -03509.3 -07.6803 26258.5
 21 11 2013  00 46  -21.0067 26023.0 -03509.3 -07.6803 26258.5
 21 11 2013  00 47  -21.0068 26023.0 -03509.4 -07.6804 26258.6
 21 11 2013  00 48  -21.0069 26022.9 -03509.4 -07.6804 26258.5
 21 11 2013  00 49  -21.0069 26022.9 -03509.3 -07.6803 26258.4
 21 11 2013  00 50  -21.0070 26022.9 -03509.4 -07.6804 26258.5
 21 11 2013  00 51  -21.0070 26022.9 -03509.4 -07.6803 26258.5
 21 11 2013  00 52  -21.0071 26022.9 -03509.4 -07.6804 26258.5
 21 11 2013  00 53  -21.0070 26022.9 -03509.4 -07.6804 26258.5
 21 11 2013  00 54  -21.0070 26023.0 -03509.4 -07.6804 26258.5
 21 11 2013  00 55  -21.0071 26023.0 -03509.4 -07.6804 26258.5
 21 11 2013  00 56  -21.0071 26022.9 -03509.4 -07.6804 26258.5
 21 11 2013  00 57  -21.0072 26022.9 -03509.4 -07.6804 26258.5
 21 11 2013  00 58  -21.0072 26022.9 -03509.4 -07.6804 26258.5
 21 11 2013  00 59  -21.0073 26022.9 -03509.3 -07.6803 26258.5
 21 11 2013  01 00  -21.0074 26022.9 -03509.3 -07.6802 26258.4
 21 11 2013  01 01  -21.0074 26022.8 -03509.3 -07.6802 26258.4
 21 11 2013  01 02  -21.0076 26022.8 -03509.3 -07.6802 26258.3
 21 11 2013  01 03  -21.0077 26022.7 -03509.2 -07.6801 26258.2
 21 11 2013  01 04  -21.0078 26022.7 -03509.2 -07.6801 26258.3
 21 11 2013  01 05  -21.0077 26022.8 -03509.2 -07.6801 26258.3
 21 11 2013  01 06  -21.0077 26022.8 -03509.2 -07.6801 26258.3
 21 11 2013  01 07  -21.0077 26022.8 -03509.2 -07.6801 26258.3
 21 11 2013  01 08  -21.0076 26022.8 -03509.2 -07.6801 26258.4
 21 11 2013  01 09  -21.0076 26022.8 -03509.2 -07.6800 26258.3
 21 11 2013  01 10  -21.0077 26022.7 -03509.2 -07.6800 26258.3
 21 11 2013  01 11  -21.0077 26022.8 -03509.2 -07.6800 26258.4
 21 11 2013  01 12  -21.0077 26022.8 -03509.2 -07.6800 26258.4
 21 11 2013  01 13  -21.0078 26022.8 -03509.1 -07.6799 26258.3
 21 11 2013  01 14  -21.0079 26022.7 -03509.1 -07.6798 26258.3
 21 11 2013  01 15  -21.0078 26022.7 -03509.1 -07.6798 26258.2
 21 11 2013  01 16  -21.0079 26022.6 -03509.0 -07.6798 26258.1
 21 11 2013  01 17  -21.0079 26022.5 -03509.0 -07.6796 26258.0
 21 11 2013  01 18  -21.0080 26022.5 -03509.0 -07.6797 26258.0
 21 11 2013  01 19  -21.0080 26022.5 -03508.9 -07.6795 26258.0
 21 11 2013  01 20  -21.0080 26022.4 -03508.9 -07.6795 26257.9
 21 11 2013  01 21  -21.0081 26022.4 -03508.9 -07.6795 26257.9
 21 11 2013  01 22  -21.0082 26022.3 -03508.9 -07.6796 26257.8
 21 11 2013  01 23  -21.0082 26022.3 -03508.9 -07.6795 26257.8
 21 11 2013  01 24  -21.0082 26022.3 -03508.9 -07.6795 26257.8
 21 11 2013  01 25  -21.0083 26022.2 -03508.9 -07.6796 26257.7
 21 11 2013  01 26  -21.0084 26022.1 -03508.9 -07.6796 26257.6
 21 11 2013  01 27  -21.0084 26022.1 -03508.9 -07.6796 26257.6
 21 11 2013  01 28  -21.0083 26022.3 -03509.0 -07.6797 26257.8
 21 11 2013  01 29  -21.0084 26022.0 -03508.9 -07.6797 26257.5
 21 11 2013  01 30  -21.0085 26022.0 -03508.9 -07.6796 26257.5
 21 11 2013  01 31  -21.0085 26022.0 -03509.0 -07.6798 26257.5
 21 11 2013  01 32  -21.0086 26021.9 -03508.9 -07.6797 26257.5
 21 11 2013  01 33  -21.0087 26022.0 -03509.0 -07.6799 26257.6
 21 11 2013  01 34  -21.0089 26021.8 -03509.0 -07.6799 26257.3
 21 11 2013  01 35  -21.0090 26021.9 -03509.0 -07.6799 26257.5
 21 11 2013  01 36  -21.0090 26021.9 -03509.1 -07.6800 26257.4
 21 11 2013  01 37  -21.0091 26021.9 -03509.1 -07.6801 26257.4
 21 11 2013  01 38  -21.0092 26021.8 -03509.1 -07.6802 26257.3
 21 11 2013  01 39  -21.0092 26021.7 -03509.1 -07.6801 26257.2
 21 11 2013  01 40  -21.0091 26021.8 -03509.1 -07.6801 26257.3
 21 11 2013  01 41  -21.0092 26021.8 -03509.2 -07.6803 26257.4
 21 11 2013  01 42  -21.0093 26021.6 -03509.1 -07.6802 26257.1
 21 11 2013  01 43  -21.0092 26021.6 -03509.2 -07.6803 26257.2
 21 11 2013  01 44  -21.0093 26021.6 -03509.2 -07.6804 26257.2
 21 11 2013  01 45  -21.0094 26021.5 -03509.2 -07.6804 26257.1
 21 11 2013  01 46  -21.0095 26021.3 -03509.1 -07.6803 26256.9
 21 11 2013  01 47  -21.0096 26021.3 -03509.1 -07.6803 26256.8
 21 11 2013  01 48  -21.0095 26021.3 -03509.1 -07.6802 26256.8
 21 11 2013  01 49  -21.0094 26021.3 -03509.1 -07.6803 26256.8
 21 11 2013  01 50  -21.0096 26021.2 -03509.1 -07.6803 26256.8
 21 11 2013  01 51  -21.0097 26021.3 -03509.2 -07.6805 26256.9
 21 11 2013  01 52  -21.0096 26021.3 -03509.3 -07.6806 26256.8
 21 11 2013  01 53  -21.0095 26021.2 -03509.3 -07.6807 26256.8
 21 11 2013  01 54  -21.0094 26021.2 -03509.3 -07.6807 26256.8
 21 11 2013  01 55  -21.0092 26021.2 -03509.4 -07.6808 26256.8
 21 11 2013  01 56  -21.0093 26021.2 -03509.4 -07.6810 26256.8
 21 11 2013  01 57  -21.0095 26021.0 -03509.3 -07.6808 26256.6
 21 11 2013  01 58  -21.0096 26021.1 -03509.4 -07.6810 26256.7
 21 11 2013  01 59  -21.0098 26021.1 -03509.5 -07.6811 26256.7
 21 11 2013  02 00  -21.0099 26021.0 -03509.4 -07.6810 26256.6
 21 11 2013  02 01  -21.0099 26021.0 -03509.4 -07.6810 26256.6
 21 11 2013  02 02  -21.0099 26021.0 -03509.4 -07.6810 26256.6
 21 11 2013  02 03  -21.0099 26021.0 -03509.4 -07.6810 26256.5
 21 11 2013  02 04  -21.0099 26020.9 -03509.4 -07.6810 26256.5
 21 11 2013  02 05  -21.0099 26020.8 -03509.3 -07.6808 26256.4
 21 11 2013  02 06  -21.0100 26020.8 -03509.3 -07.6808 26256.3
 21 11 2013  02 07  -21.0101 26020.7 -03509.3 -07.6808 26256.3
 21 11 2013  02 08  -21.0102 26020.7 -03509.3 -07.6808 26256.3
 21 11 2013  02 09  -21.0103 26020.8 -03509.3 -07.6808 26256.3
 21 11 2013  02 10  -21.0103 26020.7 -03509.3 -07.6808 26256.3
 21 11 2013  02 11  -21.0103 26020.7 -03509.2 -07.6808 26256.2
 21 11 2013  02 12  -21.0101 26020.7 -03509.2 -07.6808 26256.3
 21 11 2013  02 13  -21.0100 26020.6 -03509.2 -07.6807 26256.2
 21 11 2013  02 14  -21.0099 26020.6 -03509.2 -07.6807 26256.2
 21 11 2013  02 15  -21.0098 26020.6 -03509.2 -07.6806 26256.2
 21 11 2013  02 16  -21.0098 26020.6 -03509.2 -07.6806 26256.1
 21 11 2013  02 17  -21.0096 26020.5 -03509.2 -07.6806 26256.1
 21 11 2013  02 18  -21.0096 26020.5 -03509.1 -07.6806 26256.0
 21 11 2013  02 19  -21.0095 26020.5 -03509.1 -07.6805 26256.0
 21 11 2013  02 20  -21.0094 26020.4 -03509.1 -07.6805 26256.0
 21 11 2013  02 21  -21.0093 26020.4 -03509.1 -07.6805 26256.0
 21 11 2013  02 22  -21.0092 26020.4 -03509.1 -07.6805 26256.0
 21 11 2013  02 23  -21.0091 26020.4 -03509.1 -07.6804 26255.9
 21 11 2013  02 24  -21.0090 26020.3 -03509.0 -07.6803 26255.8
 21 11 2013  02 25  -21.0088 26020.3 -03509.0 -07.6803 26255.8
 21 11 2013  02 26  -21.0087 26020.2 -03508.9 -07.6803 26255.7
 21 11 2013  02 27  -21.0085 26020.2 -03508.9 -07.6802 26255.8
 21 11 2013  02 28  -21.0084 26020.3 -03509.0 -07.6803 26255.9
 21 11 2013  02 29  -21.0081 26020.4 -03509.0 -07.6803 26255.9
 21 11 2013  02 30  -21.0081 26020.4 -03509.0 -07.6803 26255.9
 21 11 2013  02 31  -21.0082 26020.2 -03508.9 -07.6802 26255.7
 21 11 2013  02 32  -21.0078 26020.4 -03509.0 -07.6803 26256.0
 21 11 2013  02 33  -21.0075 26020.3 -03508.9 -07.6802 26255.9
 21 11 2013  02 34  -21.0075 26020.2 -03508.9 -07.6801 26255.7
 21 11 2013  02 35  -21.0074 26020.2 -03508.9 -07.6801 26255.8
 21 11 2013  02 36  -21.0074 26020.3 -03508.9 -07.6802 26255.8
 21 11 2013  02 37  -21.0073 26020.1 -03508.8 -07.6800 26255.6
 21 11 2013  02 38  -21.0072 26020.4 -03508.9 -07.6801 26255.9
 21 11 2013  02 39  -21.0072 26020.4 -03508.9 -07.6802 26255.9
 21 11 2013  02 40  -21.0074 26020.3 -03508.9 -07.6801 26255.8
 21 11 2013  02 41  -21.0073 26020.3 -03508.9 -07.6801 26255.8
 21 11 2013  02 42  -21.0071 26020.4 -03508.9 -07.6801 26255.9
 21 11 2013  02 43  -21.0070 26020.2 -03508.8 -07.6800 26255.7
 21 11 2013  02 44  -21.0068 26020.3 -03508.8 -07.6800 26255.8
 21 11 2013  02 45  -21.0065 26020.2 -03508.8 -07.6800 26255.7
 21 11 2013  02 46  -21.0063 26020.2 -03508.8 -07.6800 26255.7
 21 11 2013  02 47  -21.0062 26020.2 -03508.9 -07.6801 26255.7
 21 11 2013  02 48  -21.0060 26020.1 -03508.9 -07.6801 26255.6
 21 11 2013  02 49  -21.0058 26020.1 -03508.8 -07.6801 26255.6
 21 11 2013  02 50  -21.0057 26019.8 -03508.7 -07.6799 26255.3
 21 11 2013  02 51  -21.0056 26019.9 -03508.8 -07.6800 26255.5
 21 11 2013  02 52  -21.0057 26019.9 -03508.9 -07.6802 26255.5
 21 11 2013  02 53  -21.0058 26019.8 -03508.8 -07.6800 26255.3
 21 11 2013  02 54  -21.0057 26019.9 -03508.9 -07.6803 26255.4
 21 11 2013  02 55  -21.0062 26019.6 -03508.9 -07.6803 26255.1
 21 11 2013  02 56  -21.0062 26019.9 -03509.0 -07.6804 26255.5
 21 11 2013  02 57  -21.0061 26019.9 -03509.0 -07.6805 26255.4
 21 11 2013  02 58  -21.0061 26019.8 -03508.9 -07.6804 26255.3
 21 11 2013  02 59  -21.0065 26019.7 -03508.9 -07.6804 26255.2
 21 11 2013  03 00  -21.0068 26019.8 -03509.0 -07.6806 26255.4
 21 11 2013  03 01  -21.0068 26020.0 -03509.1 -07.6806 26255.5
 21 11 2013  03 02  -21.0069 26019.9 -03509.1 -07.6806 26255.5
 21 11 2013  03 03  -21.0067 26020.2 -03509.2 -07.6808 26255.8
 21 11 2013  03 04  -21.0067 26020.0 -03509.2 -07.6808 26255.5
 21 11 2013  03 05  -21.0066 26019.7 -03509.0 -07.6805 26255.3
 21 11 2013  03 06  -21.0066 26020.3 -03509.3 -07.6809 26255.8
 21 11 2013  03 07  -21.0069 26020.0 -03509.2 -07.6809 26255.6
 21 11 2013  03 08  -21.0072 26020.3 -03509.3 -07.6811 26255.9
 21 11 2013  03 09  -21.0074 26020.2 -03509.3 -07.6811 26255.8
 21 11 2013  03 10  -21.0072 26020.3 -03509.3 -07.6810 26255.9
 21 11 2013  03 11  -21.0071 26020.5 -03509.4 -07.6812 26256.1
 21 11 2013  03 12  -21.0071 26020.5 -03509.4 -07.6812 26256.1
 21 11 2013  03 13  -21.0073 26020.6 -03509.5 -07.6814 26256.2
 21 11 2013  03 14  -21.0075 26020.7 -03509.6 -07.6815 26256.3
 21 11 2013  03 15  -21.0079 26021.1 -03509.8 -07.6818 26256.7
 21 11 2013  03 16  -21.0082 26021.2 -03509.9 -07.6820 26256.9
 21 11 2013  03 17  -21.0085 26021.3 -03509.9 -07.6820 26257.0
 21 11 2013  03 18  -21.0085 26021.5 -03510.0 -07.6821 26257.1
 21 11 2013  03 19  -21.0086 26021.6 -03510.0 -07.6822 26257.2
 21 11 2013  03 20  -21.0087 26021.8 -03510.1 -07.6823 26257.5
 21 11 2013  03 21  -21.0086 26021.8 -03510.1 -07.6823 26257.5
 21 11 2013  03 22  -21.0084 26021.6 -03510.0 -07.6821 26257.3
 21 11 2013  03 23  -21.0083 26021.6 -03510.0 -07.6820 26257.3
 21 11 2013  03 24  -21.0080 26021.5 -03509.9 -07.6819 26257.1
 21 11 2013  03 25  -21.0083 26021.6 -03510.0 -07.6821 26257.2
 21 11 2013  03 26  -21.0085 26021.5 -03510.0 -07.6821 26257.2
 21 11 2013  03 27  -21.0088 26021.4 -03510.0 -07.6821 26257.1
 21 11 2013  03 28  -21.0089 26021.3 -03509.9 -07.6820 26257.0
 21 11 2013  03 29  -21.0091 26021.3 -03509.9 -07.6820 26256.9
 21 11 2013  03 30  -21.0093 26021.2 -03509.9 -07.6820 26256.8
 21 11 2013  03 31  -21.0091 26021.2 -03509.9 -07.6820 26256.8
 21 11 2013  03 32  -21.0091 26021.3 -03510.0 -07.6821 26256.9
 21 11 2013  03 33  -21.0091 26021.2 -03510.0 -07.6821 26256.9
 21 11 2013  03 34  -21.0091 26021.2 -03510.0 -07.6822 26256.9
 21 11 2013  03 35  -21.0092 26021.2 -03510.0 -07.6822 26256.8
 21 11 2013  03 36  -21.0093 26021.2 -03510.0 -07.6823 26256.9
 21 11 2013  03 37  -21.0095 26021.4 -03510.1 -07.6824 26257.0
 21 11 2013  03 38  -21.0095 26021.5 -03510.2 -07.6826 26257.2
 21 11 2013  03 39  -21.0095 26021.5 -03510.2 -07.6827 26257.2
 21 11 2013  03 40  -21.0095 26021.5 -03510.2 -07.6826 26257.2
 21 11 2013  03 41  -21.0096 26021.5 -03510.3 -07.6827 26257.2
 21 11 2013  03 42  -21.0097 26021.6 -03510.3 -07.6828 26257.3
 21 11 2013  03 43  -21.0099 26021.6 -03510.3 -07.6828 26257.3
 21 11 2013  03 44  -21.0101 26021.5 -03510.3 -07.6828 26257.2
 21 11 2013  03 45  -21.0103 26021.7 -03510.4 -07.6829 26257.4
 21 11 2013  03 46  -21.0107 26021.7 -03510.4 -07.6830 26257.4
 21 11 2013  03 47  -21.0107 26021.7 -03510.4 -07.6829 26257.4
 21 11 2013  03 48  -21.0107 26021.6 -03510.3 -07.6828 26257.3
 21 11 2013  03 49  -21.0107 26021.6 -03510.3 -07.6828 26257.4
 21 11 2013  03 50  -21.0108 26021.7 -03510.4 -07.6829 26257.4
 21 11 2013  03 51  -21.0109 26021.8 -03510.4 -07.6830 26257.5
 21 11 2013  03 52  -21.0111 26021.8 -03510.5 -07.6831 26257.5
 21 11 2013  03 53  -21.0112 26021.6 -03510.4 -07.6829 26257.3
 21 11 2013  03 54  -21.0111 26021.7 -03510.4 -07.6829 26257.4
 21 11 2013  03 55  -21.0113 26021.6 -03510.3 -07.6828 26257.3
 21 11 2013  03 56  -21.0114 26021.7 -03510.3 -07.6829 26257.4
 21 11 2013  03 57  -21.0114 26021.6 -03510.3 -07.6828 26257.3
 21 11 2013  03 58  -21.0115 26021.5 -03510.3 -07.6828 26257.2
 21 11 2013  03 59  -21.0116 26021.5 -03510.2 -07.6827 26257.2
 21 11 2013  04 00  -21.0117 26021.5 -03510.3 -07.6827 26257.1
 21 11 2013  04 01  -21.0119 26021.4 -03510.3 -07.6827 26257.1
 21 11 2013  04 02  -21.0121 26021.6 -03510.4 -07.6829 26257.3
 21 11 2013  04 03  -21.0121 26021.6 -03510.3 -07.6828 26257.3
 21 11 2013  04 04  -21.0123 26021.6 -03510.3 -07.6828 26257.3
 21 11 2013  04 05  -21.0123 26021.6 -03510.3 -07.6828 26257.3
 21 11 2013  04 06  -21.0124 26021.7 -03510.3 -07.6828 26257.4
 21 11 2013  04 07  -21.0123 26021.6 -03510.3 -07.6827 26257.3
 21 11 2013  04 08  -21.0124 26021.7 -03510.3 -07.6827 26257.4
 21 11 2013  04 09  -21.0125 26021.7 -03510.3 -07.6828 26257.4
 21 11 2013  04 10  -21.0124 26021.7 -03510.3 -07.6827 26257.4
 21 11 2013  04 11  -21.0123 26021.7 -03510.3 -07.6826 26257.4
 21 11 2013  04 12  -21.0122 26021.6 -03510.2 -07.6825 26257.3
 21 11 2013  04 13  -21.0122 26021.7 -03510.2 -07.6825 26257.3
 21 11 2013  04 14  -21.0120 26021.5 -03510.1 -07.6824 26257.2
 21 11 2013  04 15  -21.0121 26021.5 -03510.2 -07.6825 26257.2
 21 11 2013  04 16  -21.0122 26021.6 -03510.1 -07.6824 26257.3
 21 11 2013  04 17  -21.0122 26021.6 -03510.2 -07.6824 26257.3
 21 11 2013  04 18  -21.0123 26021.6 -03510.2 -07.6825 26257.3
 21 11 2013  04 19  -21.0124 26021.6 -03510.2 -07.6826 26257.3
 21 11 2013  04 20  -21.0124 26021.8 -03510.2 -07.6826 26257.5
 21 11 2013  04 21  -21.0126 26022.0 -03510.4 -07.6828 26257.7
 21 11 2013  04 22  -21.0125 26022.0 -03510.3 -07.6828 26257.7
 21 11 2013  04 23  -21.0126 26022.1 -03510.4 -07.6828 26257.8
 21 11 2013  04 24  -21.0127 26022.2 -03510.4 -07.6829 26257.9
 21 11 2013  04 25  -21.0125 26022.3 -03510.5 -07.6829 26258.0
 21 11 2013  04 26  -21.0125 26022.3 -03510.4 -07.6829 26258.1
 21 11 2013  04 27  -21.0125 26022.4 -03510.5 -07.6829 26258.1
 21 11 2013  04 28  -21.0124 26022.3 -03510.4 -07.6827 26258.0
 21 11 2013  04 29  -21.0121 26022.3 -03510.3 -07.6826 26258.0
 21 11 2013  04 30  -21.0120 26022.2 -03510.3 -07.6826 26257.8
 21 11 2013  04 31  -21.0119 26022.1 -03510.2 -07.6825 26257.8
 21 11 2013  04 32  -21.0118 26022.0 -03510.2 -07.6824 26257.7
 21 11 2013  04 33  -21.0118 26022.0 -03510.1 -07.6823 26257.6
 21 11 2013  04 34  -21.0120 26021.9 -03510.2 -07.6824 26257.6
 21 11 2013  04 35  -21.0122 26021.9 -03510.2 -07.6825 26257.6
 21 11 2013  04 36  -21.0123 26022.0 -03510.2 -07.6825 26257.7
 21 11 2013  04 37  -21.0123 26022.0 -03510.2 -07.6825 26257.7
 21 11 2013  04 38  -21.0124 26022.1 -03510.2 -07.6825 26257.7
 21 11 2013  04 39  -21.0124 26022.1 -03510.2 -07.6825 26257.7
 21 11 2013  04 40  -21.0125 26022.0 -03510.2 -07.6825 26257.7
 21 11 2013  04 41  -21.0127 26022.0 -03510.2 -07.6825 26257.7
 21 11 2013  04 42  -21.0127 26022.1 -03510.2 -07.6825 26257.8
 21 11 2013  04 43  -21.0127 26022.1 -03510.3 -07.6826 26257.8
 21 11 2013  04 44  -21.0127 26022.2 -03510.3 -07.6825 26257.8
 21 11 2013  04 45  -21.0128 26022.1 -03510.2 -07.6825 26257.8
 21 11 2013  04 46  -21.0130 26022.1 -03510.2 -07.6825 26257.7
 21 11 2013  04 47  -21.0129 26022.1 -03510.2 -07.6824 26257.8
 21 11 2013  04 48  -21.0130 26022.1 -03510.2 -07.6824 26257.8
 21 11 2013  04 49  -21.0131 26022.0 -03510.2 -07.6825 26257.7
 21 11 2013  04 50  -21.0133 26022.1 -03510.2 -07.6825 26257.8
 21 11 2013  04 51  -21.0136 26022.1 -03510.2 -07.6825 26257.8
 21 11 2013  04 52  -21.0136 26022.2 -03510.2 -07.6825 26257.9
 21 11 2013  04 53  -21.0139 26022.4 -03510.3 -07.6826 26258.1
 21 11 2013  04 54  -21.0139 26022.4 -03510.3 -07.6826 26258.1
 21 11 2013  04 55  -21.0139 26022.4 -03510.3 -07.6826 26258.1
 21 11 2013  04 56  -21.0140 26022.5 -03510.3 -07.6825 26258.2
 21 11 2013  04 57  -21.0140 26022.5 -03510.3 -07.6825 26258.2
 21 11 2013  04 58  -21.0139 26022.5 -03510.2 -07.6824 26258.2
 21 11 2013  04 59  -21.0137 26022.4 -03510.2 -07.6823 26258.1
 21 11 2013  05 00  -21.0136 26022.4 -03510.1 -07.6822 26258.0
 21 11 2013  05 01  -21.0136 26022.3 -03510.1 -07.6821 26258.0
 21 11 2013  05 02  -21.0135 26022.3 -03510.1 -07.6821 26257.9
 21 11 2013  05 03  -21.0136 26022.3 -03510.1 -07.6821 26257.9
 21 11 2013  05 04  -21.0136 26022.4 -03510.1 -07.6821 26258.0
 21 11 2013  05 05  -21.0136 26022.4 -03510.1 -07.6821 26258.0
 21 11 2013  05 06  -21.0137 26022.5 -03510.1 -07.6822 26258.1
 21 11 2013  05 07  -21.0137 26022.4 -03510.1 -07.6821 26258.1
 21 11 2013  05 08  -21.0138 26022.5 -03510.1 -07.6822 26258.2
 21 11 2013  05 09  -21.0137 26022.5 -03510.1 -07.6821 26258.2
 21 11 2013  05 10  -21.0137 26022.5 -03510.1 -07.6821 26258.2
 21 11 2013  05 11  -21.0135 26022.5 -03510.1 -07.6820 26258.2
 21 11 2013  05 12  -21.0135 26022.5 -03510.1 -07.6820 26258.2
 21 11 2013  05 13  -21.0133 26022.6 -03510.1 -07.6821 26258.2
 21 11 2013  05 14  -21.0132 26022.6 -03510.1 -07.6821 26258.3
 21 11 2013  05 15  -21.0131 26022.8 -03510.2 -07.6821 26258.4
 21 11 2013  05 16  -21.0132 26022.9 -03510.2 -07.6822 26258.5
 21 11 2013  05 17  -21.0131 26022.9 -03510.2 -07.6822 26258.6
 21 11 2013  05 18  -21.0130 26022.9 -03510.2 -07.6821 26258.6
 21 11 2013  05 19  -21.0129 26022.9 -03510.2 -07.6822 26258.6
 21 11 2013  05 20  -21.0128 26022.8 -03510.1 -07.6821 26258.5
 21 11 2013  05 21  -21.0127 26022.9 -03510.2 -07.6821 26258.6
 21 11 2013  05 22  -21.0126 26022.9 -03510.2 -07.6822 26258.6
 21 11 2013  05 23  -21.0126 26022.9 -03510.2 -07.6821 26258.6
 21 11 2013  05 24  -21.0126 26022.9 -03510.2 -07.6821 26258.5
 21 11 2013  05 25  -21.0126 26022.7 -03510.1 -07.6820 26258.4
 21 11 2013  05 26  -21.0126 26022.6 -03510.0 -07.6819 26258.3
 21 11 2013  05 27  -21.0126 26022.5 -03509.9 -07.6817 26258.2
 21 11 2013  05 28  -21.0126 26022.4 -03509.9 -07.6817 26258.1
 21 11 2013  05 29  -21.0127 26022.4 -03509.9 -07.6817 26258.0
 21 11 2013  05 30  -21.0128 26022.4 -03509.9 -07.6817 26258.0
 21 11 2013  05 31  -21.0129 26022.4 -03509.9 -07.6818 26258.1
 21 11 2013  05 32  -21.0131 26022.5 -03510.0 -07.6818 26258.2
 21 11 2013  05 33  -21.0132 26022.6 -03510.0 -07.6818 26258.2
 21 11 2013  05 34  -21.0135 26022.6 -03510.0 -07.6819 26258.3
 21 11 2013  05 35  -21.0135 26022.6 -03510.0 -07.6819 26258.3
 21 11 2013  05 36  -21.0136 26022.6 -03510.0 -07.6819 26258.3
 21 11 2013  05 37  -21.0136 26022.7 -03510.0 -07.6818 26258.3
 21 11 2013  05 38  -21.0138 26022.7 -03510.0 -07.6819 26258.4
 21 11 2013  05 39  -21.0139 26022.8 -03510.0 -07.6819 26258.4
 21 11 2013  05 40  -21.0139 26022.7 -03510.0 -07.6818 26258.4
 21 11 2013  05 41  -21.0140 26022.9 -03510.1 -07.6819 26258.5
 21 11 2013  05 42  -21.0140 26022.8 -03510.0 -07.6818 26258.5
 21 11 2013  05 43  -21.0139 26022.9 -03510.0 -07.6818 26258.5
 21 11 2013  05 44  -21.0138 26022.9 -03510.0 -07.6818 26258.5
 21 11 2013  05 45  -21.0138 26022.9 -03510.0 -07.6818 26258.6
 21 11 2013  05 46  -21.0137 26022.9 -03510.0 -07.6817 26258.6
 21 11 2013  05 47  -21.0136 26022.9 -03509.9 -07.6816 26258.5
 21 11 2013  05 48  -21.0136 26023.0 -03509.9 -07.6816 26258.6
 21 11 2013  05 49  -21.0134 26022.9 -03509.9 -07.6816 26258.6
 21 11 2013  05 50  -21.0134 26022.9 -03510.0 -07.6816 26258.6
 21 11 2013  05 51  -21.0133 26022.9 -03509.9 -07.6815 26258.5
 21 11 2013  05 52  -21.0131 26022.9 -03509.9 -07.6815 26258.5
 21 11 2013  05 53  -21.0130 26022.9 -03509.9 -07.6815 26258.5
 21 11 2013  05 54  -21.0129 26022.9 -03509.9 -07.6816 26258.5
 21 11 2013  05 55  -21.0129 26023.0 -03510.0 -07.6816 26258.6
 21 11 2013  05 56  -21.0129 26023.0 -03510.0 -07.6817 26258.7
 21 11 2013  05 57  -21.0129 26023.0 -03510.0 -07.6816 26258.7
 21 11 2013  05 58  -21.0128 26023.1 -03510.0 -07.6817 26258.7
 21 11 2013  05 59  -21.0126 26023.0 -03509.9 -07.6816 26258.6
 21 11 2013  06 00  -21.0126 26023.0 -03510.0 -07.6816 26258.7
 21 11 2013  06 01  -21.0126 26023.0 -03509.9 -07.6816 26258.6
 21 11 2013  06 02  -21.0126 26023.0 -03509.9 -07.6816 26258.6
 21 11 2013  06 03  -21.0126 26023.0 -03510.0 -07.6817 26258.7
 21 11 2013  06 04  -21.0125 26023.1 -03510.0 -07.6816 26258.7
 21 11 2013  06 05  -21.0125 26023.0 -03510.0 -07.6817 26258.7
 21 11 2013  06 06  -21.0125 26023.1 -03510.0 -07.6817 26258.7
 21 11 2013  06 07  -21.0125 26023.0 -03510.0 -07.6817 26258.7
 21 11 2013  06 08  -21.0124 26023.0 -03510.0 -07.6817 26258.7
 21 11 2013  06 09  -21.0124 26023.0 -03510.0 -07.6817 26258.7
 21 11 2013  06 10  -21.0122 26023.0 -03510.0 -07.6817 26258.6
 21 11 2013  06 11  -21.0122 26023.0 -03510.0 -07.6817 26258.6
 21 11 2013  06 12  -21.0121 26023.0 -03510.0 -07.6817 26258.6
 21 11 2013  06 13  -21.0119 26022.9 -03510.0 -07.6817 26258.5
 21 11 2013  06 14  -21.0119 26022.9 -03510.0 -07.6817 26258.6
 21 11 2013  06 15  -21.0118 26022.9 -03510.0 -07.6817 26258.5
 21 11 2013  06 16  -21.0116 26022.8 -03510.0 -07.6817 26258.5
 21 11 2013  06 17  -21.0115 26022.9 -03510.0 -07.6818 26258.5
 21 11 2013  06 18  -21.0116 26022.9 -03510.0 -07.6818 26258.5
 21 11 2013  06 19  -21.0114 26022.9 -03510.0 -07.6818 26258.5
 21 11 2013  06 20  -21.0114 26022.9 -03510.1 -07.6819 26258.5
 21 11 2013  06 21  -21.0114 26022.8 -03510.1 -07.6819 26258.4
 21 11 2013  06 22  -21.0113 26022.7 -03510.0 -07.6818 26258.4
 21 11 2013  06 23  -21.0113 26022.7 -03510.0 -07.6819 26258.3
 21 11 2013  06 24  -21.0113 26022.7 -03510.1 -07.6819 26258.3
 21 11 2013  06 25  -21.0113 26022.6 -03510.0 -07.6819 26258.3
 21 11 2013  06 26  -21.0114 26022.7 -03510.1 -07.6820 26258.4
 21 11 2013  06 27  -21.0113 26022.7 -03510.1 -07.6820 26258.3
 21 11 2013  06 28  -21.0114 26022.8 -03510.2 -07.6821 26258.4
 21 11 2013  06 29  -21.0114 26022.8 -03510.2 -07.6822 26258.5
 21 11 2013  06 30  -21.0114 26022.9 -03510.3 -07.6823 26258.6
 21 11 2013  06 31  -21.0114 26022.9 -03510.3 -07.6824 26258.6
 21 11 2013  06 32  -21.0114 26023.0 -03510.3 -07.6824 26258.7
 21 11 2013  06 33  -21.0113 26022.9 -03510.3 -07.6824 26258.6
 21 11 2013  06 34  -21.0113 26023.1 -03510.4 -07.6826 26258.8
 21 11 2013  06 35  -21.0113 26023.1 -03510.4 -07.6826 26258.8
 21 11 2013  06 36  -21.0114 26023.1 -03510.4 -07.6826 26258.9
 21 11 2013  06 37  -21.0113 26023.3 -03510.5 -07.6827 26259.0
 21 11 2013  06 38  -21.0114 26023.2 -03510.5 -07.6827 26258.9
 21 11 2013  06 39  -21.0115 26023.3 -03510.5 -07.6827 26259.0
 21 11 2013  06 40  -21.0117 26023.3 -03510.5 -07.6826 26259.0
 21 11 2013  06 41  -21.0118 26023.2 -03510.4 -07.6826 26258.9
 21 11 2013  06 42  -21.0119 26023.3 -03510.5 -07.6827 26259.0
 21 11 2013  06 43  -21.0120 26023.2 -03510.4 -07.6826 26258.9
 21 11 2013  06 44  -21.0121 26023.2 -03510.5 -07.6826 26258.9
 21 11 2013  06 45  -21.0123 26023.3 -03510.5 -07.6827 26259.0
 21 11 2013  06 46  -21.0123 26023.2 -03510.4 -07.6826 26258.9
 21 11 2013  06 47  -21.0124 26023.1 -03510.4 -07.6825 26258.8
 21 11 2013  06 48  -21.0125 26023.1 -03510.4 -07.6825 26258.8
 21 11 2013  06 49  -21.0127 26023.1 -03510.3 -07.6824 26258.8
 21 11 2013  06 50  -21.0129 26023.0 -03510.3 -07.6824 26258.7
 21 11 2013  06 51  -21.0131 26023.0 -03510.3 -07.6824 26258.7
 21 11 2013  06 52  -21.0132 26023.1 -03510.3 -07.6824 26258.8
 21 11 2013  06 53  -21.0133 26023.1 -03510.3 -07.6824 26258.8
 21 11 2013  06 54  -21.0133 26023.1 -03510.3 -07.6824 26258.8
 21 11 2013  06 55  -21.0133 26023.1 -03510.3 -07.6824 26258.8
 21 11 2013  06 56  -21.0135 26023.1 -03510.3 -07.6823 26258.8
 21 11 2013  06 57  -21.0136 26023.2 -03510.3 -07.6824 26258.9
 21 11 2013  06 58  -21.0136 26023.2 -03510.3 -07.6824 26258.9
 21 11 2013  06 59  -21.0137 26023.2 -03510.4 -07.6824 26258.9
 21 11 2013  07 00  -21.0138 26023.2 -03510.4 -07.6824 26258.9
 21 11 2013  07 01  -21.0138 26023.3 -03510.3 -07.6824 26258.9
 21 11 2013  07 02  -21.0139 26023.3 -03510.3 -07.6824 26259.0
 21 11 2013  07 03  -21.0139 26023.3 -03510.3 -07.6823 26258.9
 21 11 2013  07 04  -21.0139 26023.2 -03510.3 -07.6823 26258.9
 21 11 2013  07 05  -21.0140 26023.3 -03510.3 -07.6824 26259.0
 21 11 2013  07 06  -21.0140 26023.3 -03510.4 -07.6824 26259.0
 21 11 2013  07 07  -21.0140 26023.4 -03510.4 -07.6824 26259.1
 21 11 2013  07 08  -21.0139 26023.5 -03510.4 -07.6824 26259.2
 21 11 2013  07 09  -21.0138 26023.5 -03510.4 -07.6825 26259.2
 21 11 2013  07 10  -21.0138 26023.5 -03510.4 -07.6825 26259.2
 21 11 2013  07 11  -21.0137 26023.5 -03510.4 -07.6825 26259.2
 21 11 2013  07 12  -21.0138 26023.5 -03510.5 -07.6825 26259.2
 21 11 2013  07 13  -21.0136 26023.5 -03510.4 -07.6825 26259.2
 21 11 2013  07 14  -21.0136 26023.6 -03510.5 -07.6826 26259.3
 21 11 2013  07 15  -21.0135 26023.6 -03510.5 -07.6826 26259.3
 21 11 2013  07 16  -21.0136 26023.7 -03510.5 -07.6826 26259.4
 21 11 2013  07 17  -21.0136 26023.7 -03510.5 -07.6827 26259.4
 21 11 2013  07 18  -21.0135 26023.7 -03510.6 -07.6827 26259.5
 21 11 2013  07 19  -21.0135 26023.7 -03510.6 -07.6828 26259.5
 21 11 2013  07 20  -21.0134 26023.7 -03510.5 -07.6827 26259.4
 21 11 2013  07 21  -21.0134 26023.7 -03510.6 -07.6828 26259.4
 21 11 2013  07 22  -21.0133 26023.7 -03510.6 -07.6828 26259.4
 21 11 2013  07 23  -21.0132 26023.7 -03510.6 -07.6827 26259.4
 21 11 2013  07 24  -21.0132 26023.7 -03510.6 -07.6828 26259.5
 21 11 2013  07 25  -21.0131 26023.8 -03510.6 -07.6828 26259.5
 21 11 2013  07 26  -21.0131 26023.8 -03510.7 -07.6829 26259.6
 21 11 2013  07 27  -21.0131 26023.9 -03510.7 -07.6829 26259.6
 21 11 2013  07 28  -21.0130 26023.9 -03510.7 -07.6829 26259.6
 21 11 2013  07 29  -21.0130 26023.9 -03510.8 -07.6831 26259.7
 21 11 2013  07 30  -21.0129 26024.0 -03510.8 -07.6831 26259.7
 21 11 2013  07 31  -21.0128 26024.0 -03510.8 -07.6831 26259.7
 21 11 2013  07 32  -21.0126 26024.0 -03510.8 -07.6831 26259.7
 21 11 2013  07 33  -21.0126 26024.0 -03510.8 -07.6832 26259.8
 21 11 2013  07 34  -21.0125 26024.0 -03510.8 -07.6832 26259.8
 21 11 2013  07 35  -21.0124 26024.0 -03510.8 -07.6832 26259.8
 21 11 2013  07 36  -21.0124 26024.1 -03510.8 -07.6832 26259.8
 21 11 2013  07 37  -21.0123 26024.1 -03510.8 -07.6832 26259.8
 21 11 2013  07 38  -21.0123 26024.0 -03510.9 -07.6833 26259.8
 21 11 2013  07 39  -21.0124 26024.0 -03510.9 -07.6834 26259.8
 21 11 2013  07 40  -21.0124 26024.0 -03510.9 -07.6834 26259.7
 21 11 2013  07 41  -21.0124 26024.0 -03510.9 -07.6834 26259.8
 21 11 2013  07 42  -21.0124 26024.0 -03511.0 -07.6835 26259.8
 21 11 2013  07 43  -21.0124 26024.0 -03511.0 -07.6835 26259.8
 21 11 2013  07 44  -21.0125 26024.0 -03511.0 -07.6836 26259.8
 21 11 2013  07 45  -21.0125 26024.0 -03511.0 -07.6836 26259.8
 21 11 2013  07 46  -21.0125 26024.0 -03511.1 -07.6837 26259.8
 21 11 2013  07 47  -21.0125 26024.1 -03511.1 -07.6838 26259.9
 21 11 2013  07 48  -21.0124 26024.1 -03511.1 -07.6838 26259.9
 21 11 2013  07 49  -21.0125 26024.2 -03511.2 -07.6839 26260.0
 21 11 2013  07 50  -21.0125 26024.2 -03511.2 -07.6840 26260.0
 21 11 2013  07 51  -21.0124 26024.2 -03511.2 -07.6840 26260.0
 21 11 2013  07 52  -21.0124 26024.2 -03511.2 -07.6840 26260.0
 21 11 2013  07 53  -21.0124 26024.2 -03511.3 -07.6841 26260.0
 21 11 2013  07 54  -21.0124 26024.2 -03511.3 -07.6841 26260.0
 21 11 2013  07 55  -21.0124 26024.2 -03511.3 -07.6841 26260.0
 21 11 2013  07 56  -21.0124 26024.2 -03511.3 -07.6842 26260.1
 21 11 2013  07 57  -21.0123 26024.3 -03511.3 -07.6842 26260.1
 21 11 2013  07 58  -21.0123 26024.4 -03511.4 -07.6843 26260.2
 21 11 2013  07 59  -21.0123 26024.4 -03511.4 -07.6843 26260.2
 21 11 2013  08 00  -21.0122 26024.4 -03511.4 -07.6844 26260.2
 21 11 2013  08 01  -21.0122 26024.5 -03511.5 -07.6845 26260.3
 21 11 2013  08 02  -21.0122 26024.5 -03511.5 -07.6845 26260.3
 21 11 2013  08 03  -21.0121 26024.5 -03511.5 -07.6846 26260.3
 21 11 2013  08 04  -21.0120 26024.6 -03511.5 -07.6846 26260.4
 21 11 2013  08 05  -21.0120 26024.6 -03511.6 -07.6846 26260.4
 21 11 2013  08 06  -21.0120 26024.6 -03511.6 -07.6846 26260.4
 21 11 2013  08 07  -21.0119 26024.6 -03511.6 -07.6846 26260.4
 21 11 2013  08 08  -21.0119 26024.6 -03511.5 -07.6846 26260.4
 21 11 2013  08 09  -21.0120 26024.6 -03511.6 -07.6847 26260.4
 21 11 2013  08 10  -21.0120 26024.6 -03511.6 -07.6847 26260.4
 21 11 2013  08 11  -21.0121 26024.6 -03511.6 -07.6848 26260.4
 21 11 2013  08 12  -21.0121 26024.6 -03511.6 -07.6847 26260.5
 21 11 2013  08 13  -21.0120 26024.6 -03511.6 -07.6847 26260.5
 21 11 2013  08 14  -21.0121 26024.7 -03511.7 -07.6848 26260.6
 21 11 2013  08 15  -21.0120 26024.7 -03511.6 -07.6848 26260.6
 21 11 2013  08 16  -21.0120 26024.7 -03511.6 -07.6848 26260.6
 21 11 2013  08 17  -21.0118 26024.8 -03511.6 -07.6847 26260.7
 21 11 2013  08 18  -21.0118 26024.8 -03511.6 -07.6847 26260.7
 21 11 2013  08 19  -21.0118 26024.9 -03511.7 -07.6848 26260.7
 21 11 2013  08 20  -21.0116 26024.9 -03511.7 -07.6848 26260.7
 21 11 2013  08 21  -21.0115 26024.9 -03511.7 -07.6848 26260.8
 21 11 2013  08 22  -21.0113 26025.0 -03511.7 -07.6848 26260.8
 21 11 2013  08 23  -21.0113 26025.0 -03511.7 -07.6849 26260.8
 21 11 2013  08 24  -21.0112 26025.0 -03511.7 -07.6848 26260.9
 21 11 2013  08 25  -21.0110 26025.0 -03511.7 -07.6848 26260.9
 21 11 2013  08 26  -21.0108 26025.1 -03511.8 -07.6849 26261.0
 21 11 2013  08 27  -21.0107 26025.1 -03511.8 -07.6850 26261.0
 21 11 2013  08 28  -21.0104 26025.1 -03511.8 -07.6851 26261.0
 21 11 2013  08 29  -21.0103 26025.1 -03511.9 -07.6852 26261.0
 21 11 2013  08 30  -21.0102 26025.2 -03512.0 -07.6853 26261.0
 21 11 2013  08 31  -21.0100 26025.1 -03512.0 -07.6855 26261.0
 21 11 2013  08 32  -21.0097 26025.1 -03512.1 -07.6856 26261.0
 21 11 2013  08 33  -21.0097 26025.1 -03512.2 -07.6859 26261.1
 21 11 2013  08 34  -21.0095 26025.1 -03512.3 -07.6861 26261.1
 21 11 2013  08 35  -21.0092 26025.2 -03512.4 -07.6863 26261.1
 21 11 2013  08 36  -21.0091 26025.2 -03512.6 -07.6867 26261.2
 21 11 2013  08 37  -21.0091 26025.3 -03512.7 -07.6870 26261.3
 21 11 2013  08 38  -21.0090 26025.3 -03512.9 -07.6872 26261.3
 21 11 2013  08 39  -21.0089 26025.4 -03513.0 -07.6876 26261.4
 21 11 2013  08 40  -21.0089 26025.4 -03513.2 -07.6879 26261.5
 21 11 2013  08 41  -21.0089 26025.5 -03513.3 -07.6882 26261.5
 21 11 2013  08 42  -21.0090 26025.6 -03513.4 -07.6884 26261.7
 21 11 2013  08 43  -21.0091 26025.7 -03513.6 -07.6887 26261.8
 21 11 2013  08 44  -21.0091 26025.8 -03513.7 -07.6889 26261.9
 21 11 2013  08 45  -21.0091 26025.8 -03513.8 -07.6891 26262.0
 21 11 2013  08 46  -21.0093 26026.0 -03513.9 -07.6894 26262.1
 21 11 2013  08 47  -21.0095 26026.1 -03514.1 -07.6896 26262.3
 21 11 2013  08 48  -21.0095 26026.2 -03514.2 -07.6898 26262.4
 21 11 2013  08 49  -21.0098 26026.3 -03514.3 -07.6901 26262.5
 21 11 2013  08 50  -21.0101 26026.4 -03514.4 -07.6903 26262.7
 21 11 2013  08 51  -21.0102 26026.5 -03514.5 -07.6905 26262.8
 21 11 2013  08 52  -21.0104 26026.7 -03514.7 -07.6907 26262.9
 21 11 2013  08 53  -21.0109 26026.8 -03514.8 -07.6910 26263.1
 21 11 2013  08 54  -21.0112 26026.8 -03514.9 -07.6911 26263.1
 21 11 2013  08 55  -21.0115 26027.0 -03515.0 -07.6913 26263.3
 21 11 2013  08 56  -21.0119 26027.1 -03515.0 -07.6913 26263.4
 21 11 2013  08 57  -21.0123 26027.3 -03515.2 -07.6917 26263.6
 21 11 2013  08 58  -21.0127 26027.4 -03515.3 -07.6918 26263.7
 21 11 2013  08 59  -21.0131 26027.5 -03515.3 -07.6919 26263.9
 21 11 2013  09 00  -21.0136 26027.7 -03515.4 -07.6920 26264.0
 21 11 2013  09 01  -21.0140 26027.8 -03515.5 -07.6921 26264.1
 21 11 2013  09 02  -21.0144 26027.8 -03515.5 -07.6921 26264.2
 21 11 2013  09 03  -21.0148 26027.9 -03515.5 -07.6922 26264.2
 21 11 2013  09 04  -21.0153 26028.0 -03515.5 -07.6922 26264.3
 21 11 2013  09 05  -21.0157 26028.1 -03515.5 -07.6922 26264.4
 21 11 2013  09 06  -21.0161 26028.1 -03515.6 -07.6923 26264.4
 21 11 2013  09 07  -21.0166 26028.2 -03515.6 -07.6924 26264.5
 21 11 2013  09 08  -21.0171 26028.3 -03515.7 -07.6924 26264.7
 21 11 2013  09 09  -21.0176 26028.4 -03515.7 -07.6924 26264.8
 21 11 2013  09 10  -21.0180 26028.5 -03515.7 -07.6925 26264.9
 21 11 2013  09 11  -21.0184 26028.6 -03515.6 -07.6923 26264.9
 21 11 2013  09 12  -21.0188 26028.7 -03515.7 -07.6925 26265.1
 21 11 2013  09 13  -21.0192 26028.7 -03515.8 -07.6925 26265.1
 21 11 2013  09 14  -21.0195 26028.8 -03515.8 -07.6925 26265.2
 21 11 2013  09 15  -21.0199 26028.9 -03515.6 -07.6920 26265.3
 21 11 2013  09 16  -21.0203 26029.0 -03515.7 -07.6923 26265.4
 21 11 2013  09 17  -21.0207 26029.1 -03515.9 -07.6926 26265.5
 21 11 2013  09 18  -21.0210 26029.2 -03515.9 -07.6926 26265.5
 21 11 2013  09 19  -21.0214 26029.3 -03515.9 -07.6926 26265.6
 21 11 2013  09 20  -21.0218 26029.3 -03515.9 -07.6926 26265.7
 21 11 2013  09 21  -21.0221 26029.4 -03515.9 -07.6925 26265.7
 21 11 2013  09 22  -21.0223 26029.3 -03515.8 -07.6925 26265.7
 21 11 2013  09 23  -21.0225 26029.2 -03515.8 -07.6925 26265.6
 21 11 2013  09 24  -21.0227 26029.2 -03515.8 -07.6924 26265.6
 21 11 2013  09 25  -21.0230 26029.2 -03515.8 -07.6925 26265.6
 21 11 2013  09 26  -21.0231 26029.2 -03515.8 -07.6925 26265.6
 21 11 2013  09 27  -21.0234 26029.4 -03515.9 -07.6927 26265.8
 21 11 2013  09 28  -21.0237 26029.5 -03516.0 -07.6927 26265.9
 21 11 2013  09 29  -21.0240 26029.6 -03516.0 -07.6928 26266.0
 21 11 2013  09 30  -21.0244 26029.8 -03516.1 -07.6930 26266.2
 21 11 2013  09 31  -21.0246 26029.9 -03516.2 -07.6930 26266.4
 21 11 2013  09 32  -21.0250 26030.1 -03516.2 -07.6931 26266.5
 21 11 2013  09 33  -21.0253 26030.2 -03516.3 -07.6932 26266.7
 21 11 2013  09 34  -21.0256 26030.3 -03516.4 -07.6933 26266.8
 21 11 2013  09 35  -21.0259 26030.4 -03516.4 -07.6934 26266.9
 21 11 2013  09 36  -21.0261 26030.4 -03516.4 -07.6934 26266.9
 21 11 2013  09 37  -21.0261 26030.4 -03516.4 -07.6933 26266.8
 21 11 2013  09 38  -21.0263 26030.5 -03516.4 -07.6934 26266.9
 21 11 2013  09 39  -21.0264 26030.7 -03516.5 -07.6935 26267.1
 21 11 2013  09 40  -21.0265 26030.7 -03516.5 -07.6935 26267.1
 21 11 2013  09 41  -21.0267 26030.7 -03516.5 -07.6935 26267.2
 21 11 2013  09 42  -21.0267 26030.7 -03516.5 -07.6936 26267.2
 21 11 2013  09 43  -21.0269 26030.7 -03516.6 -07.6936 26267.2
 21 11 2013  09 44  -21.0269 26030.8 -03516.6 -07.6937 26267.3
 21 11 2013  09 45  -21.0268 26030.6 -03516.5 -07.6936 26267.1
 21 11 2013  09 46  -21.0268 26030.6 -03516.5 -07.6936 26267.0
 21 11 2013  09 47  -21.0270 26030.6 -03516.5 -07.6936 26267.0
 21 11 2013  09 48  -21.0271 26030.7 -03516.6 -07.6938 26267.1
 21 11 2013  09 49  -21.0274 26030.7 -03516.7 -07.6939 26267.2
 21 11 2013  09 50  -21.0274 26030.7 -03516.7 -07.6939 26267.1
 21 11 2013  09 51  -21.0275 26030.6 -03516.7 -07.6939 26267.1
 21 11 2013  09 52  -21.0277 26030.6 -03516.7 -07.6941 26267.1
 21 11 2013  09 53  -21.0276 26030.5 -03516.8 -07.6941 26267.0
 21 11 2013  09 54  -21.0276 26030.4 -03516.8 -07.6942 26266.9
 21 11 2013  09 55  -21.0277 26030.4 -03516.9 -07.6944 26266.9
 21 11 2013  09 56  -21.0277 26030.4 -03516.9 -07.6946 26266.9
 21 11 2013  09 57  -21.0278 26030.4 -03517.0 -07.6948 26266.9
 21 11 2013  09 58  -21.0279 26030.4 -03517.1 -07.6950 26266.9
 21 11 2013  09 59  -21.0281 26030.4 -03517.3 -07.6952 26267.0
 21 11 2013  10 00  -21.0280 26030.4 -03517.3 -07.6954 26266.9
 21 11 2013  10 01  -21.0281 26030.5 -03517.5 -07.6957 26267.1
 21 11 2013  10 02  -21.0281 26030.5 -03517.6 -07.6959 26267.1
 21 11 2013  10 03  -21.0284 26030.6 -03517.7 -07.6961 26267.2
 21 11 2013  10 04  -21.0285 26030.6 -03517.8 -07.6963 26267.2
 21 11 2013  10 05  -21.0285 26030.5 -03517.9 -07.6965 26267.2
 21 11 2013  10 06  -21.0288 26030.6 -03517.9 -07.6967 26267.2
 21 11 2013  10 07  -21.0289 26030.6 -03518.0 -07.6968 26267.3
 21 11 2013  10 08  -21.0291 26030.7 -03518.1 -07.6970 26267.3
 21 11 2013  10 09  -21.0289 26030.5 -03518.1 -07.6971 26267.1
 21 11 2013  10 10  -21.0293 26030.6 -03518.3 -07.6975 26267.3
 21 11 2013  10 11  -21.0292 26030.5 -03518.4 -07.6977 26267.2
 21 11 2013  10 12  -21.0295 26030.6 -03518.5 -07.6979 26267.3
 21 11 2013  10 13  -21.0295 26030.6 -03518.6 -07.6982 26267.3
 21 11 2013  10 14  -21.0295 26030.5 -03518.7 -07.6983 26267.2
 21 11 2013  10 15  -21.0300 26030.6 -03518.9 -07.6988 26267.4
 21 11 2013  10 16  -21.0294 26030.3 -03518.9 -07.6989 26267.1
 21 11 2013  10 17  -21.0297 26030.4 -03519.1 -07.6992 26267.2
 21 11 2013  10 18  -21.0301 26030.5 -03519.3 -07.6995 26267.3
 21 11 2013  10 19  -21.0295 26030.5 -03519.4 -07.6999 26267.3
 21 11 2013  10 20  -21.0290 26030.4 -03519.4 -07.6999 26267.2
 21 11 2013  10 21  -21.0290 26030.5 -03519.6 -07.7004 26267.4
 21 11 2013  10 22  -21.0290 26030.9 -03520.0 -07.7010 26267.9
 21 11 2013  10 23  -21.0287 26031.2 -03520.2 -07.7013 26268.1
 21 11 2013  10 24  -21.0287 26031.4 -03520.4 -07.7017 26268.4
 21 11 2013  10 25  -21.0287 26031.5 -03520.5 -07.7019 26268.5
 21 11 2013  10 26  -21.0283 26031.4 -03520.5 -07.7020 26268.4
 21 11 2013  10 27  -21.0278 26031.3 -03520.5 -07.7020 26268.3
 21 11 2013  10 28  -21.0278 26031.5 -03520.7 -07.7023 26268.5
 21 11 2013  10 29  -21.0278 26031.6 -03520.8 -07.7025 26268.6
 21 11 2013  10 30  -21.0279 26031.6 -03520.8 -07.7027 26268.6
 21 11 2013  10 31  -21.0281 26031.7 -03520.9 -07.7028 26268.7
 21 11 2013  10 32  -21.0278 26031.7 -03521.0 -07.7029 26268.8
 21 11 2013  10 33  -21.0279 26031.8 -03521.1 -07.7031 26268.8
 21 11 2013  10 34  -21.0278 26031.8 -03521.2 -07.7033 26268.8
 21 11 2013  10 35  -21.0277 26031.8 -03521.3 -07.7035 26268.9
 21 11 2013  10 36  -21.0273 26031.7 -03521.3 -07.7036 26268.8
 21 11 2013  10 37  -21.0270 26031.6 -03521.4 -07.7038 26268.7
 21 11 2013  10 38  -21.0266 26031.5 -03521.4 -07.7040 26268.6
 21 11 2013  10 39  -21.0264 26031.5 -03521.6 -07.7043 26268.6
 21 11 2013  10 40  -21.0263 26031.6 -03521.8 -07.7046 26268.7
 21 11 2013  10 41  -21.0263 26031.6 -03521.9 -07.7049 26268.8
 21 11 2013  10 42  -21.0259 26031.8 -03522.0 -07.7051 26268.9
 21 11 2013  10 43  -21.0252 26031.6 -03522.0 -07.7051 26268.8
 21 11 2013  10 44  -21.0256 26031.8 -03522.1 -07.7053 26269.0
 21 11 2013  10 45  -21.0256 26032.0 -03522.3 -07.7057 26269.2
 21 11 2013  10 46  -21.0255 26032.2 -03522.4 -07.7058 26269.4
 21 11 2013  10 47  -21.0258 26032.3 -03522.5 -07.7060 26269.6
 21 11 2013  10 48  -21.0258 26032.3 -03522.5 -07.7061 26269.5
 21 11 2013  10 49  -21.0256 26032.3 -03522.6 -07.7062 26269.5
 21 11 2013  10 50  -21.0257 26032.3 -03522.7 -07.7064 26269.5
 21 11 2013  10 51  -21.0256 26032.2 -03522.7 -07.7065 26269.5
 21 11 2013  10 52  -21.0254 26032.3 -03522.8 -07.7066 26269.5
 21 11 2013  10 53  -21.0253 26032.3 -03522.9 -07.7069 26269.6
 21 11 2013  10 54  -21.0251 26032.3 -03522.9 -07.7069 26269.6
 21 11 2013  10 55  -21.0248 26032.2 -03523.0 -07.7072 26269.5
 21 11 2013  10 56  -21.0243 26032.0 -03523.0 -07.7072 26269.3
 21 11 2013  10 57  -21.0244 26032.2 -03523.2 -07.7075 26269.5
 21 11 2013  10 58  -21.0243 26032.3 -03523.3 -07.7078 26269.7
 21 11 2013  10 59  -21.0244 26032.5 -03523.5 -07.7081 26269.9
 21 11 2013  11 00  -21.0243 26032.6 -03523.6 -07.7083 26270.0
 21 11 2013  11 01  -21.0246 26032.7 -03523.7 -07.7084 26270.1
 21 11 2013  11 02  -21.0259 26033.6 -03523.9 -07.7087 26271.0
 21 11 2013  11 03  -21.0251 26033.3 -03523.9 -07.7087 26270.7
 21 11 2013  11 04  -21.0244 26032.9 -03523.7 -07.7085 26270.3
 21 11 2013  11 05  -21.0240 26032.6 -03523.7 -07.7086 26270.0
 21 11 2013  11 06  -21.0240 26032.4 -03523.9 -07.7090 26269.8
 21 11 2013  11 07  -21.0241 26032.2 -03524.0 -07.7094 26269.7
 21 11 2013  11 08  -21.0241 26032.1 -03524.3 -07.7099 26269.6
 21 11 2013  11 09  -21.0240 26032.1 -03524.5 -07.7104 26269.6
 21 11 2013  11 10  -21.0242 26032.1 -03524.8 -07.7109 26269.7
 21 11 2013  11 11  -21.0239 26032.1 -03525.0 -07.7114 26269.7
 21 11 2013  11 12  -21.0237 26032.2 -03525.1 -07.7118 26269.8
 21 11 2013  11 13  -21.0236 26032.2 -03525.3 -07.7121 26269.8
 21 11 2013  11 14  -21.0236 26032.1 -03525.4 -07.7124 26269.8
 21 11 2013  11 15  -21.0237 26032.2 -03525.6 -07.7127 26269.9
 21 11 2013  11 16  -21.0239 26032.4 -03525.8 -07.7131 26270.1
 21 11 2013  11 17  -21.0242 26032.7 -03526.0 -07.7134 26270.4
 21 11 2013  11 18  -21.0243 26032.8 -03526.0 -07.7135 26270.5
 21 11 2013  11 19  -21.0246 26032.9 -03526.1 -07.7136 26270.6
 21 11 2013  11 20  -21.0248 26033.1 -03526.1 -07.7137 26270.8
 21 11 2013  11 21  -21.0250 26033.2 -03526.1 -07.7136 26270.9
 21 11 2013  11 22  -21.0252 26033.2 -03526.1 -07.7136 26270.9
 21 11 2013  11 23  -21.0254 26033.4 -03526.2 -07.7137 26271.1
 21 11 2013  11 24  -21.0254 26033.5 -03526.2 -07.7137 26271.3
 21 11 2013  11 25  -21.0254 26033.6 -03526.2 -07.7137 26271.4
 21 11 2013  11 26  -21.0255 26033.6 -03526.2 -07.7137 26271.4
 21 11 2013  11 27  -21.0255 26033.6 -03526.2 -07.7137 26271.3
 21 11 2013  11 28  -21.0254 26033.5 -03526.2 -07.7137 26271.3
 21 11 2013  11 29  -21.0256 26033.7 -03526.3 -07.7139 26271.5
 21 11 2013  11 30  -21.0255 26033.8 -03526.4 -07.7139 26271.5
 21 11 2013  11 31  -21.0255 26033.9 -03526.4 -07.7140 26271.6
 21 11 2013  11 32  -21.0255 26034.1 -03526.5 -07.7140 26271.8
 21 11 2013  11 33  -21.0258 26034.0 -03526.4 -07.7140 26271.8
 21 11 2013  11 34  -21.0258 26034.6 -03526.7 -07.7143 26272.4
 21 11 2013  11 35  -21.0260 26034.7 -03526.6 -07.7142 26272.5
 21 11 2013  11 36  -21.0264 26034.9 -03526.6 -07.7141 26272.6
 21 11 2013  11 37  -21.0268 26034.9 -03526.5 -07.7140 26272.7
 21 11 2013  11 38  -21.0271 26034.9 -03526.5 -07.7138 26272.6
 21 11 2013  11 39  -21.0267 26035.5 -03526.7 -07.7141 26273.3
 21 11 2013  11 40  -21.0271 26035.2 -03526.4 -07.7137 26272.9
 21 11 2013  11 41  -21.0265 26035.3 -03526.4 -07.7136 26273.1
 21 11 2013  11 42  -21.0259 26035.4 -03526.4 -07.7136 26273.1
 21 11 2013  11 43  -21.0254 26035.3 -03526.3 -07.7135 26273.0
 21 11 2013  11 44  -21.0248 26035.4 -03526.4 -07.7135 26273.1
 21 11 2013  11 45  -21.0245 26035.5 -03526.4 -07.7136 26273.2
 21 11 2013  11 46  -21.0244 26035.7 -03526.5 -07.7137 26273.4
 21 11 2013  11 47  -21.0244 26036.4 -03526.7 -07.7140 26274.2
 21 11 2013  11 48  -21.0250 26036.8 -03526.8 -07.7141 26274.6
 21 11 2013  11 49  -21.0256 26037.4 -03526.9 -07.7140 26275.1
 21 11 2013  11 50  -21.0258 26037.6 -03526.8 -07.7137 26275.3
 21 11 2013  11 51  -21.0260 26037.8 -03526.6 -07.7134 26275.5
 21 11 2013  11 52  -21.0260 26038.4 -03526.7 -07.7133 26276.2
 21 11 2013  11 53  -21.0262 26038.4 -03526.5 -07.7128 26276.1
 21 11 2013  11 54  -21.0260 26038.5 -03526.3 -07.7124 26276.1
 21 11 2013  11 55  -21.0261 26038.8 -03526.3 -07.7124 26276.5
 21 11 2013  11 56  -21.0264 26039.2 -03526.3 -07.7122 26276.9
 21 11 2013  11 57  -21.0260 26039.1 -03526.1 -07.7119 26276.8
 21 11 2013  11 58  -21.0258 26039.3 -03526.1 -07.7117 26276.9
 21 11 2013  11 59  -21.0256 26039.5 -03526.0 -07.7116 26277.2
 21 11 2013  12 00  -21.0255 26039.9 -03526.2 -07.7117 26277.6
 21 11 2013  12 01  -21.0257 26040.3 -03526.1 -07.7115 26277.9
 21 11 2013  12 02  -21.0256 26040.3 -03526.0 -07.7112 26277.9
 21 11 2013  12 03  -21.0256 26040.7 -03526.1 -07.7113 26278.3
 21 11 2013  12 04  -21.0255 26041.0 -03526.1 -07.7112 26278.6
 21 11 2013  12 05  -21.0262 26041.4 -03526.1 -07.7111 26279.1
 21 11 2013  12 06  -21.0270 26041.9 -03526.0 -07.7109 26279.5
 21 11 2013  12 07  -21.0277 26042.7 -03526.2 -07.7109 26280.3
 21 11 2013  12 08  -21.0287 26043.5 -03526.2 -07.7108 26281.2
 21 11 2013  12 09  -21.0291 26043.4 -03525.9 -07.7100 26281.0
 21 11 2013  12 10  -21.0286 26043.2 -03525.4 -07.7092 26280.8
 21 11 2013  12 11  -21.0291 26043.2 -03525.3 -07.7090 26280.7
 21 11 2013  12 12  -21.0293 26043.5 -03525.4 -07.7089 26281.1
 21 11 2013  12 13  -21.0290 26043.9 -03525.3 -07.7087 26281.4
 21 11 2013  12 14  -21.0296 26043.9 -03525.2 -07.7084 26281.4
 21 11 2013  12 15  -21.0301 26044.4 -03525.2 -07.7084 26281.8
 21 11 2013  12 16  -21.0304 26044.9 -03525.3 -07.7084 26282.4
 21 11 2013  12 17  -21.0303 26044.6 -03525.0 -07.7078 26282.1
 21 11 2013  12 18  -21.0304 26044.7 -03524.9 -07.7077 26282.1
 21 11 2013  12 19  -21.0306 26044.8 -03524.9 -07.7075 26282.2
 21 11 2013  12 20  -21.0309 26045.1 -03525.0 -07.7076 26282.5
 21 11 2013  12 21  -21.0313 26045.8 -03525.2 -07.7078 26283.3
 21 11 2013  12 22  -21.0313 26045.9 -03525.0 -07.7075 26283.4
 21 11 2013  12 23  -21.0316 26046.7 -03525.2 -07.7076 26284.2
 21 11 2013  12 24  -21.0321 26047.5 -03525.3 -07.7076 26285.0
 21 11 2013  12 25  -21.0324 26047.8 -03525.1 -07.7072 26285.2
 21 11 2013  12 26  -21.0331 26048.1 -03525.0 -07.7068 26285.5
 21 11 2013  12 27  -21.0335 26048.9 -03525.0 -07.7066 26286.4
 21 11 2013  12 28  -21.0343 26049.2 -03524.8 -07.7060 26286.5
 21 11 2013  12 29  -21.0350 26049.1 -03524.4 -07.7053 26286.4
 21 11 2013  12 30  -21.0352 26049.4 -03524.3 -07.7049 26286.7
 21 11 2013  12 31  -21.0358 26049.6 -03524.1 -07.7045 26286.9
 21 11 2013  12 32  -21.0357 26049.5 -03523.8 -07.7038 26286.7
 21 11 2013  12 33  -21.0359 26049.6 -03523.7 -07.7035 26286.9
 21 11 2013  12 34  -21.0361 26049.7 -03523.5 -07.7031 26286.9
 21 11 2013  12 35  -21.0363 26049.9 -03523.4 -07.7028 26287.1
 21 11 2013  12 36  -21.0366 26050.0 -03523.2 -07.7025 26287.1
 21 11 2013  12 37  -21.0372 26050.3 -03523.2 -07.7023 26287.5
 21 11 2013  12 38  -21.0375 26050.5 -03523.0 -07.7018 26287.6
 21 11 2013  12 39  -21.0376 26050.6 -03522.7 -07.7012 26287.7
 21 11 2013  12 40  -21.0384 26050.8 -03522.6 -07.7009 26287.9
 21 11 2013  12 41  -21.0392 26051.3 -03522.6 -07.7007 26288.4
 21 11 2013  12 42  -21.0395 26051.4 -03522.3 -07.7001 26288.4
 21 11 2013  12 43  -21.0401 26051.5 -03522.1 -07.6996 26288.5
 21 11 2013  12 44  -21.0404 26051.6 -03521.9 -07.6991 26288.6
 21 11 2013  12 45  -21.0408 26052.0 -03521.8 -07.6988 26288.9
 21 11 2013  12 46  -21.0408 26051.7 -03521.5 -07.6981 26288.6
 21 11 2013  12 47  -21.0403 26051.9 -03521.3 -07.6977 26288.8
 21 11 2013  12 48  -21.0409 26052.3 -03521.3 -07.6975 26289.1
 21 11 2013  12 49  -21.0410 26052.7 -03521.2 -07.6972 26289.6
 21 11 2013  12 50  -21.0409 26053.0 -03521.0 -07.6968 26289.9
 21 11 2013  12 51  -21.0410 26053.2 -03520.8 -07.6962 26290.0
 21 11 2013  12 52  -21.0414 26053.7 -03520.7 -07.6960 26290.5
 21 11 2013  12 53  -21.0413 26053.9 -03520.5 -07.6954 26290.7
 21 11 2013  12 54  -21.0412 26054.2 -03520.3 -07.6949 26290.9
 21 11 2013  12 55  -21.0412 26054.4 -03520.1 -07.6945 26291.1
 21 11 2013  12 56  -21.0410 26054.8 -03520.0 -07.6941 26291.5
 21 11 2013  12 57  -21.0413 26055.2 -03519.8 -07.6936 26291.8
 21 11 2013  12 58  -21.0413 26055.6 -03519.7 -07.6931 26292.2
 21 11 2013  12 59  -21.0419 26056.3 -03519.6 -07.6928 26293.0
 21 11 2013  13 00  -21.0417 26056.6 -03519.3 -07.6920 26293.2
 21 11 2013  13 01  -21.0413 26057.4 -03519.2 -07.6915 26293.9
 21 11 2013  13 02  -21.0408 26057.5 -03518.7 -07.6905 26294.0
 21 11 2013  13 03  -21.0400 26057.6 -03518.3 -07.6896 26294.1
 21 11 2013  13 04  -21.0390 26057.1 -03517.7 -07.6885 26293.4
 21 11 2013  13 05  -21.0387 26057.0 -03517.5 -07.6879 26293.3
 21 11 2013  13 06  -21.0390 26057.7 -03517.6 -07.6881 26294.1
 21 11 2013  13 07  -21.0400 26058.2 -03517.6 -07.6879 26294.5
 21 11 2013  13 08  -21.0409 26058.5 -03517.4 -07.6874 26294.9
 21 11 2013  13 09  -21.0416 26058.7 -03517.2 -07.6870 26295.0
 21 11 2013  13 10  -21.0422 26059.4 -03517.3 -07.6869 26295.7
 21 11 2013  13 11  -21.0427 26060.4 -03517.3 -07.6866 26296.7
 21 11 2013  13 12  -21.0434 26061.4 -03517.2 -07.6861 26297.7
 21 11 2013  13 13  -21.0435 26062.5 -03517.1 -07.6856 26298.8
 21 11 2013  13 14  -21.0422 26062.3 -03516.4 -07.6840 26298.4
 21 11 2013  13 15  -21.0416 26062.7 -03516.1 -07.6833 26298.8
 21 11 2013  13 16  -21.0414 26062.8 -03515.7 -07.6823 26298.9
 21 11 2013  13 17  -21.0406 26062.2 -03515.0 -07.6810 26298.2
 21 11 2013  13 18  -21.0401 26061.7 -03514.4 -07.6800 26297.6
 21 11 2013  13 19  -21.0405 26061.9 -03514.4 -07.6798 26297.8
 21 11 2013  13 20  -21.0408 26062.6 -03514.5 -07.6799 26298.5
 21 11 2013  13 21  -21.0410 26063.4 -03514.6 -07.6799 26299.3
 21 11 2013  13 22  -21.0415 26063.9 -03514.5 -07.6795 26299.8
 21 11 2013  13 23  -21.0415 26064.8 -03514.5 -07.6793 26300.7
 21 11 2013  13 24  -21.0414 26065.4 -03514.3 -07.6786 26301.2
 21 11 2013  13 25  -21.0408 26065.8 -03514.0 -07.6779 26301.6
 21 11 2013  13 26  -21.0393 26065.8 -03513.5 -07.6769 26301.6
 21 11 2013  13 27  -21.0376 26065.3 -03512.9 -07.6757 26301.0
 21 11 2013  13 28  -21.0358 26064.4 -03512.2 -07.6745 26300.0
 21 11 2013  13 29  -21.0346 26063.4 -03511.6 -07.6735 26298.9
 21 11 2013  13 30  -21.0343 26062.9 -03511.4 -07.6732 26298.4
 21 11 2013  13 31  -21.0348 26063.0 -03511.5 -07.6734 26298.5
 21 11 2013  13 32  -21.0356 26063.8 -03511.8 -07.6738 26299.3
 21 11 2013  13 33  -21.0367 26064.6 -03512.0 -07.6740 26300.2
 21 11 2013  13 34  -21.0376 26065.4 -03512.1 -07.6740 26300.9
 21 11 2013  13 35  -21.0380 26065.7 -03512.0 -07.6736 26301.3
 21 11 2013  13 36  -21.0380 26065.8 -03511.7 -07.6729 26301.3
 21 11 2013  13 37  -21.0377 26066.0 -03511.5 -07.6724 26301.4
 21 11 2013  13 38  -21.0369 26065.9 -03511.1 -07.6716 26301.3
 21 11 2013  13 39  -21.0357 26065.4 -03510.6 -07.6707 26300.8
 21 11 2013  13 40  -21.0351 26065.2 -03510.3 -07.6701 26300.5
 21 11 2013  13 41  -21.0350 26065.3 -03510.2 -07.6698 26300.5
 21 11 2013  13 42  -21.0354 26065.5 -03510.1 -07.6696 26300.8
 21 11 2013  13 43  -21.0358 26065.6 -03509.9 -07.6691 26300.8
 21 11 2013  13 44  -21.0359 26065.5 -03509.6 -07.6685 26300.7
 21 11 2013  13 45  -21.0363 26065.6 -03509.4 -07.6681 26300.8
 21 11 2013  13 46  -21.0362 26065.4 -03509.1 -07.6675 26300.6
 21 11 2013  13 47  -21.0361 26065.1 -03508.8 -07.6668 26300.2
 21 11 2013  13 48  -21.0361 26065.1 -03508.6 -07.6664 26300.2
 21 11 2013  13 49  -21.0361 26065.3 -03508.4 -07.6659 26300.4
 21 11 2013  13 50  -21.0364 26065.6 -03508.3 -07.6657 26300.6
 21 11 2013  13 51  -21.0364 26065.6 -03508.0 -07.6651 26300.6
 21 11 2013  13 52  -21.0363 26065.7 -03507.8 -07.6645 26300.6
 21 11 2013  13 53  -21.0363 26065.8 -03507.6 -07.6640 26300.7
 21 11 2013  13 54  -21.0360 26065.6 -03507.2 -07.6633 26300.5
 21 11 2013  13 55  -21.0358 26065.8 -03507.0 -07.6629 26300.7
 21 11 2013  13 56  -21.0359 26065.9 -03506.8 -07.6622 26300.7
 21 11 2013  13 57  -21.0360 26066.4 -03506.7 -07.6619 26301.2
 21 11 2013  13 58  -21.0360 26066.5 -03506.4 -07.6613 26301.3
 21 11 2013  13 59  -21.0359 26066.9 -03506.3 -07.6609 26301.6
 21 11 2013  14 00  -21.0358 26067.3 -03506.1 -07.6604 26302.0
 21 11 2013  14 01  -21.0354 26067.5 -03505.8 -07.6597 26302.2
 21 11 2013  14 02  -21.0354 26067.5 -03505.5 -07.6590 26302.2
 21 11 2013  14 03  -21.0351 26067.9 -03505.3 -07.6585 26302.5
 21 11 2013  14 04  -21.0348 26068.3 -03505.2 -07.6581 26302.9
 21 11 2013  14 05  -21.0344 26068.3 -03504.8 -07.6573 26302.9
 21 11 2013  14 06  -21.0336 26068.5 -03504.5 -07.6566 26303.1
 21 11 2013  14 07  -21.0333 26068.8 -03504.3 -07.6561 26303.3
 21 11 2013  14 08  -21.0329 26068.9 -03504.1 -07.6555 26303.4
 21 11 2013  14 09  -21.0324 26069.3 -03503.9 -07.6551 26303.7
 21 11 2013  14 10  -21.0319 26069.4 -03503.6 -07.6545 26303.8
 21 11 2013  14 11  -21.0315 26069.4 -03503.3 -07.6538 26303.8
 21 11 2013  14 12  -21.0308 26069.4 -03503.1 -07.6533 26303.7
 21 11 2013  14 13  -21.0301 26069.3 -03502.8 -07.6527 26303.6
 21 11 2013  14 14  -21.0295 26069.6 -03502.7 -07.6524 26303.8
 21 11 2013  14 15  -21.0291 26070.1 -03502.7 -07.6523 26304.3
 21 11 2013  14 16  -21.0287 26070.6 -03502.7 -07.6520 26304.8
 21 11 2013  14 17  -21.0281 26070.7 -03502.5 -07.6516 26305.0
 21 11 2013  14 18  -21.0273 26071.0 -03502.3 -07.6511 26305.2
 21 11 2013  14 19  -21.0270 26071.5 -03502.2 -07.6508 26305.6
 21 11 2013  14 20  -21.0266 26071.9 -03502.1 -07.6505 26306.1
 21 11 2013  14 21  -21.0264 26072.5 -03502.1 -07.6503 26306.7
 21 11 2013  14 22  -21.0262 26073.1 -03502.0 -07.6500 26307.2
 21 11 2013  14 23  -21.0258 26073.5 -03501.8 -07.6494 26307.6
 21 11 2013  14 24  -21.0256 26074.0 -03501.8 -07.6491 26308.1
 21 11 2013  14 25  -21.0252 26074.2 -03501.5 -07.6484 26308.2
 21 11 2013  14 26  -21.0245 26074.5 -03501.3 -07.6479 26308.5
 21 11 2013  14 27  -21.0241 26074.7 -03501.0 -07.6473 26308.6
 21 11 2013  14 28  -21.0236 26074.9 -03500.9 -07.6469 26308.9
 21 11 2013  14 29  -21.0231 26075.2 -03500.7 -07.6465 26309.1
 21 11 2013  14 30  -21.0226 26075.4 -03500.5 -07.6461 26309.3
 21 11 2013  14 31  -21.0222 26075.7 -03500.5 -07.6458 26309.7
 21 11 2013  14 32  -21.0220 26076.2 -03500.4 -07.6455 26310.1
 21 11 2013  14 33  -21.0216 26076.6 -03500.3 -07.6451 26310.4
 21 11 2013  14 34  -21.0211 26076.9 -03500.1 -07.6446 26310.7
 21 11 2013  14 35  -21.0206 26077.2 -03499.9 -07.6442 26311.0
 21 11 2013  14 36  -21.0202 26077.4 -03499.8 -07.6438 26311.2
 21 11 2013  14 37  -21.0199 26077.7 -03499.6 -07.6434 26311.5
 21 11 2013  14 38  -21.0195 26077.9 -03499.4 -07.6429 26311.7
 21 11 2013  14 39  -21.0190 26078.1 -03499.2 -07.6425 26311.9
 21 11 2013  14 40  -21.0187 26078.4 -03499.1 -07.6421 26312.1
 21 11 2013  14 41  -21.0186 26078.6 -03498.9 -07.6416 26312.3
 21 11 2013  14 42  -21.0180 26078.8 -03498.7 -07.6411 26312.4
 21 11 2013  14 43  -21.0176 26079.0 -03498.6 -07.6407 26312.6
 21 11 2013  14 44  -21.0174 26079.2 -03498.4 -07.6403 26312.8
 21 11 2013  14 45  -21.0171 26079.3 -03498.2 -07.6398 26312.9
 21 11 2013  14 46  -21.0168 26079.5 -03498.0 -07.6394 26313.0
 21 11 2013  14 47  -21.0164 26079.6 -03497.8 -07.6389 26313.1
 21 11 2013  14 48  -21.0161 26079.7 -03497.6 -07.6384 26313.2
 21 11 2013  14 49  -21.0158 26079.9 -03497.4 -07.6380 26313.4
 21 11 2013  14 50  -21.0155 26080.1 -03497.3 -07.6377 26313.5
 21 11 2013  14 51  -21.0152 26080.3 -03497.2 -07.6374 26313.8
 21 11 2013  14 52  -21.0147 26080.5 -03497.0 -07.6370 26313.9
 21 11 2013  14 53  -21.0143 26080.6 -03496.9 -07.6367 26314.0
 21 11 2013  14 54  -21.0138 26080.7 -03496.8 -07.6364 26314.1
 21 11 2013  14 55  -21.0132 26080.9 -03496.7 -07.6361 26314.2
 21 11 2013  14 56  -21.0129 26081.1 -03496.6 -07.6359 26314.4
 21 11 2013  14 57  -21.0124 26081.2 -03496.5 -07.6356 26314.6
 21 11 2013  14 58  -21.0120 26081.3 -03496.3 -07.6352 26314.6
 21 11 2013  14 59  -21.0115 26081.4 -03496.2 -07.6349 26314.7
 21 11 2013  15 00  -21.0111 26081.6 -03496.1 -07.6346 26314.9
 21 11 2013  15 01  -21.0108 26081.8 -03496.0 -07.6344 26315.1
 21 11 2013  15 02  -21.0104 26082.0 -03495.9 -07.6342 26315.3
 21 11 2013  15 03  -21.0100 26082.3 -03495.9 -07.6340 26315.5
 21 11 2013  15 04  -21.0095 26082.4 -03495.8 -07.6337 26315.6
 21 11 2013  15 05  -21.0090 26082.6 -03495.6 -07.6334 26315.8
 21 11 2013  15 06  -21.0085 26082.8 -03495.5 -07.6331 26315.9
 21 11 2013  15 07  -21.0081 26082.8 -03495.4 -07.6329 26316.0
 21 11 2013  15 08  -21.0076 26082.9 -03495.3 -07.6326 26316.1
 21 11 2013  15 09  -21.0070 26083.1 -03495.2 -07.6324 26316.2
 21 11 2013  15 10  -21.0065 26083.2 -03495.1 -07.6321 26316.3
 21 11 2013  15 11  -21.0061 26083.3 -03495.0 -07.6319 26316.4
 21 11 2013  15 12  -21.0059 26083.5 -03494.9 -07.6316 26316.6
 21 11 2013  15 13  -21.0056 26083.8 -03494.9 -07.6315 26316.9
 21 11 2013  15 14  -21.0054 26084.0 -03494.8 -07.6311 26317.0
 21 11 2013  15 15  -21.0049 26084.0 -03494.6 -07.6306 26317.1
 21 11 2013  15 16  -21.0045 26084.1 -03494.4 -07.6302 26317.1
 21 11 2013  15 17  -21.0040 26084.1 -03494.2 -07.6298 26317.1
 21 11 2013  15 18  -21.0035 26084.2 -03494.0 -07.6294 26317.1
 21 11 2013  15 19  -21.0031 26084.4 -03493.9 -07.6291 26317.3
 21 11 2013  15 20  -21.0026 26084.6 -03493.8 -07.6288 26317.5
 21 11 2013  15 21  -21.0022 26084.4 -03493.5 -07.6283 26317.3
 21 11 2013  15 22  -21.0014 26084.6 -03493.4 -07.6279 26317.5
 21 11 2013  15 23  -21.0010 26084.6 -03493.2 -07.6275 26317.4
 21 11 2013  15 24  -21.0005 26084.8 -03493.1 -07.6272 26317.7
 21 11 2013  15 25  -20.9999 26085.2 -03493.1 -07.6271 26318.1
 21 11 2013  15 26  -20.9994 26085.3 -03492.9 -07.6266 26318.1
 21 11 2013  15 27  -20.9987 26085.4 -03492.7 -07.6262 26318.1
 21 11 2013  15 28  -20.9981 26085.7 -03492.7 -07.6261 26318.5
 21 11 2013  15 29  -20.9974 26085.5 -03492.4 -07.6255 26318.3
 21 11 2013  15 30  -20.9966 26085.5 -03492.3 -07.6252 26318.3
 21 11 2013  15 31  -20.9958 26085.3 -03492.0 -07.6247 26318.0
 21 11 2013  15 32  -20.9951 26085.5 -03491.9 -07.6246 26318.2
 21 11 2013  15 33  -20.9946 26085.4 -03491.8 -07.6242 26318.1
 21 11 2013  15 34  -20.9941 26085.5 -03491.7 -07.6241 26318.2
 21 11 2013  15 35  -20.9937 26085.8 -03491.7 -07.6240 26318.4
 21 11 2013  15 36  -20.9932 26086.0 -03491.6 -07.6237 26318.6
 21 11 2013  15 37  -20.9928 26085.7 -03491.3 -07.6231 26318.3
 21 11 2013  15 38  -20.9922 26085.9 -03491.3 -07.6230 26318.5
 21 11 2013  15 39  -20.9918 26085.8 -03491.1 -07.6226 26318.3
 21 11 2013  15 40  -20.9912 26085.6 -03490.8 -07.6221 26318.1
 21 11 2013  15 41  -20.9906 26085.4 -03490.6 -07.6217 26317.9
 21 11 2013  15 42  -20.9900 26085.6 -03490.5 -07.6215 26318.1
 21 11 2013  15 43  -20.9895 26085.5 -03490.3 -07.6211 26318.0
 21 11 2013  15 44  -20.9887 26085.6 -03490.2 -07.6208 26318.0
 21 11 2013  15 45  -20.9880 26085.5 -03490.0 -07.6205 26317.9
 21 11 2013  15 46  -20.9871 26085.3 -03489.8 -07.6200 26317.7
 21 11 2013  15 47  -20.9864 26085.3 -03489.7 -07.6198 26317.7
 21 11 2013  15 48  -20.9855 26085.0 -03489.5 -07.6194 26317.4
 21 11 2013  15 49  -20.9848 26085.0 -03489.4 -07.6192 26317.3
 21 11 2013  15 50  -20.9843 26084.8 -03489.3 -07.6190 26317.1
 21 11 2013  15 51  -20.9840 26085.0 -03489.2 -07.6189 26317.3
 21 11 2013  15 52  -20.9838 26085.1 -03489.2 -07.6187 26317.4
 21 11 2013  15 53  -20.9835 26085.2 -03489.1 -07.6184 26317.5
 21 11 2013  15 54  -20.9831 26085.4 -03489.0 -07.6182 26317.7
 21 11 2013  15 55  -20.9827 26085.3 -03488.8 -07.6178 26317.6
 21 11 2013  15 56  -20.9820 26085.3 -03488.6 -07.6174 26317.5
 21 11 2013  15 57  -20.9815 26085.4 -03488.5 -07.6172 26317.7
 21 11 2013  15 58  -20.9810 26085.6 -03488.4 -07.6168 26317.8
 21 11 2013  15 59  -20.9806 26085.6 -03488.2 -07.6164 26317.8
 21 11 2013  16 00  -20.9800 26085.4 -03487.9 -07.6158 26317.6
 21 11 2013  16 01  -20.9795 26085.6 -03487.8 -07.6156 26317.7
 21 11 2013  16 02  -20.9794 26085.5 -03487.6 -07.6152 26317.7
 21 11 2013  16 03  -20.9790 26085.5 -03487.3 -07.6146 26317.6
 21 11 2013  16 04  -20.9790 26085.6 -03487.2 -07.6143 26317.7
 21 11 2013  16 05  -20.9789 26085.8 -03487.1 -07.6141 26317.9
 21 11 2013  16 06  -20.9785 26085.6 -03486.8 -07.6135 26317.6
 21 11 2013  16 07  -20.9781 26085.6 -03486.7 -07.6132 26317.6
 21 11 2013  16 08  -20.9775 26085.5 -03486.5 -07.6129 26317.5
 21 11 2013  16 09  -20.9769 26085.3 -03486.3 -07.6125 26317.2
 21 11 2013  16 10  -20.9763 26085.2 -03486.2 -07.6122 26317.1
 21 11 2013  16 11  -20.9756 26084.9 -03486.0 -07.6120 26316.8
 21 11 2013  16 12  -20.9747 26084.7 -03485.9 -07.6118 26316.6
 21 11 2013  16 13  -20.9744 26084.7 -03485.9 -07.6119 26316.6
 21 11 2013  16 14  -20.9742 26084.6 -03485.9 -07.6119 26316.5
 21 11 2013  16 15  -20.9738 26084.5 -03485.9 -07.6117 26316.4
 21 11 2013  16 16  -20.9738 26084.3 -03485.8 -07.6116 26316.2
 21 11 2013  16 17  -20.9734 26084.1 -03485.7 -07.6115 26316.0
 21 11 2013  16 18  -20.9726 26083.7 -03485.5 -07.6113 26315.5
 21 11 2013  16 19  -20.9723 26083.5 -03485.5 -07.6113 26315.4
 21 11 2013  16 20  -20.9720 26083.3 -03485.6 -07.6115 26315.2
 21 11 2013  16 21  -20.9717 26083.1 -03485.6 -07.6115 26315.0
 21 11 2013  16 22  -20.9709 26082.9 -03485.6 -07.6116 26314.7
 21 11 2013  16 23  -20.9707 26082.7 -03485.6 -07.6118 26314.6
 21 11 2013  16 24  -20.9704 26082.6 -03485.7 -07.6120 26314.5
 21 11 2013  16 25  -20.9699 26082.0 -03485.6 -07.6120 26313.9
 21 11 2013  16 26  -20.9694 26081.8 -03485.7 -07.6122 26313.7
 21 11 2013  16 27  -20.9694 26081.7 -03485.9 -07.6125 26313.6
 21 11 2013  16 28  -20.9692 26081.8 -03486.1 -07.6129 26313.8
 21 11 2013  16 29  -20.9689 26081.6 -03486.1 -07.6130 26313.5
 21 11 2013  16 30  -20.9688 26081.8 -03486.3 -07.6134 26313.8
 21 11 2013  16 31  -20.9685 26081.3 -03486.2 -07.6134 26313.3
 21 11 2013  16 32  -20.9678 26081.2 -03486.3 -07.6135 26313.1
 21 11 2013  16 33  -20.9684 26081.3 -03486.5 -07.6140 26313.3
 21 11 2013  16 34  -20.9680 26081.0 -03486.4 -07.6140 26313.0
 21 11 2013  16 35  -20.9678 26080.7 -03486.4 -07.6140 26312.7
 21 11 2013  16 36  -20.9673 26080.5 -03486.5 -07.6142 26312.5
 21 11 2013  16 37  -20.9673 26080.2 -03486.5 -07.6144 26312.2
 21 11 2013  16 38  -20.9671 26080.2 -03486.7 -07.6147 26312.2
 21 11 2013  16 39  -20.9675 26080.1 -03486.7 -07.6149 26312.1
 21 11 2013  16 40  -20.9669 26079.6 -03486.6 -07.6148 26311.7
 21 11 2013  16 41  -20.9667 26079.4 -03486.7 -07.6151 26311.5
 21 11 2013  16 42  -20.9666 26079.3 -03486.8 -07.6153 26311.3
 21 11 2013  16 43  -20.9663 26078.9 -03486.8 -07.6154 26310.9
 21 11 2013  16 44  -20.9660 26078.7 -03486.9 -07.6156 26310.7
 21 11 2013  16 45  -20.9662 26078.8 -03487.1 -07.6160 26310.9
 21 11 2013  16 46  -20.9662 26078.3 -03487.0 -07.6159 26310.4
 21 11 2013  16 47  -20.9656 26078.1 -03487.0 -07.6161 26310.2
 21 11 2013  16 48  -20.9663 26078.4 -03487.3 -07.6165 26310.5
 21 11 2013  16 49  -20.9665 26078.2 -03487.3 -07.6166 26310.3
 21 11 2013  16 50  -20.9660 26077.7 -03487.1 -07.6163 26309.8
 21 11 2013  16 51  -20.9660 26077.7 -03487.2 -07.6166 26309.9
 21 11 2013  16 52  -20.9669 26077.7 -03487.3 -07.6169 26309.9
 21 11 2013  16 53  -20.9663 26077.5 -03487.2 -07.6166 26309.6
 21 11 2013  16 54  -20.9662 26077.2 -03487.2 -07.6167 26309.4
 21 11 2013  16 55  -20.9666 26076.8 -03487.1 -07.6167 26308.9
 21 11 2013  16 56  -20.9662 26076.9 -03487.2 -07.6169 26309.0
 21 11 2013  16 57  -20.9657 26076.2 -03487.0 -07.6167 26308.3
 21 11 2013  16 58  -20.9661 26076.6 -03487.4 -07.6174 26308.7
 21 11 2013  16 59  -20.9664 26076.4 -03487.4 -07.6174 26308.6
 21 11 2013  17 00  -20.9660 26076.1 -03487.3 -07.6173 26308.3
 21 11 2013  17 01  -20.9664 26076.4 -03487.5 -07.6177 26308.6
 21 11 2013  17 02  -20.9661 26076.0 -03487.4 -07.6176 26308.1
 21 11 2013  17 03  -20.9659 26075.8 -03487.4 -07.6176 26308.0
 21 11 2013  17 04  -20.9664 26076.0 -03487.7 -07.6181 26308.2
 21 11 2013  17 05  -20.9663 26075.6 -03487.6 -07.6180 26307.8
 21 11 2013  17 06  -20.9660 26075.4 -03487.6 -07.6182 26307.6
 21 11 2013  17 07  -20.9666 26075.5 -03487.8 -07.6186 26307.7
 21 11 2013  17 08  -20.9667 26075.4 -03487.8 -07.6186 26307.6
 21 11 2013  17 09  -20.9666 26075.2 -03487.9 -07.6188 26307.4
 21 11 2013  17 10  -20.9672 26075.0 -03488.0 -07.6190 26307.2
 21 11 2013  17 11  -20.9675 26074.8 -03488.1 -07.6193 26307.0
 21 11 2013  17 12  -20.9677 26074.6 -03488.1 -07.6195 26306.9
 21 11 2013  17 13  -20.9685 26074.6 -03488.4 -07.6200 26307.0
 21 11 2013  17 14  -20.9688 26074.4 -03488.4 -07.6201 26306.8
 21 11 2013  17 15  -20.9690 26074.3 -03488.5 -07.6203 26306.7
 21 11 2013  17 16  -20.9696 26074.3 -03488.6 -07.6207 26306.6
 21 11 2013  17 17  -20.9699 26074.1 -03488.7 -07.6209 26306.4
 21 11 2013  17 18  -20.9701 26073.7 -03488.8 -07.6211 26306.1
 21 11 2013  17 19  -20.9705 26073.6 -03488.9 -07.6215 26306.0
 21 11 2013  17 20  -20.9709 26073.3 -03489.0 -07.6218 26305.7
 21 11 2013  17 21  -20.9712 26073.1 -03489.1 -07.6221 26305.5
 21 11 2013  17 22  -20.9717 26072.8 -03489.3 -07.6224 26305.3
 21 11 2013  17 23  -20.9723 26072.6 -03489.4 -07.6229 26305.1
 21 11 2013  17 24  -20.9728 26072.4 -03489.6 -07.6233 26304.9
 21 11 2013  17 25  -20.9735 26072.1 -03489.7 -07.6235 26304.6
 21 11 2013  17 26  -20.9741 26071.9 -03489.8 -07.6239 26304.5
 21 11 2013  17 27  -20.9745 26071.5 -03489.8 -07.6240 26304.0
 21 11 2013  17 28  -20.9750 26071.2 -03489.9 -07.6243 26303.8
 21 11 2013  17 29  -20.9755 26070.8 -03490.0 -07.6246 26303.4
 21 11 2013  17 30  -20.9760 26070.7 -03490.2 -07.6250 26303.2
 21 11 2013  17 31  -20.9766 26070.3 -03490.2 -07.6252 26302.9
 21 11 2013  17 32  -20.9771 26070.0 -03490.3 -07.6255 26302.7
 21 11 2013  17 33  -20.9777 26069.9 -03490.4 -07.6258 26302.5
 21 11 2013  17 34  -20.9784 26069.6 -03490.5 -07.6260 26302.3
 21 11 2013  17 35  -20.9791 26069.4 -03490.5 -07.6262 26302.0
 21 11 2013  17 36  -20.9795 26069.0 -03490.6 -07.6263 26301.7
 21 11 2013  17 37  -20.9799 26068.7 -03490.6 -07.6266 26301.3
 21 11 2013  17 38  -20.9802 26068.5 -03490.7 -07.6268 26301.1
 21 11 2013  17 39  -20.9807 26068.1 -03490.7 -07.6270 26300.8
 21 11 2013  17 40  -20.9810 26068.0 -03490.8 -07.6271 26300.7
 21 11 2013  17 41  -20.9813 26067.8 -03490.9 -07.6274 26300.5
 21 11 2013  17 42  -20.9816 26067.5 -03490.9 -07.6275 26300.2
 21 11 2013  17 43  -20.9821 26067.4 -03491.0 -07.6277 26300.1
 21 11 2013  17 44  -20.9825 26067.2 -03491.0 -07.6278 26299.9
 21 11 2013  17 45  -20.9829 26067.1 -03491.1 -07.6280 26299.8
 21 11 2013  17 46  -20.9831 26067.0 -03491.2 -07.6283 26299.7
 21 11 2013  17 47  -20.9837 26067.0 -03491.3 -07.6286 26299.8
 21 11 2013  17 48  -20.9840 26066.9 -03491.4 -07.6288 26299.7
 21 11 2013  17 49  -20.9844 26066.9 -03491.5 -07.6289 26299.7
 21 11 2013  17 50  -20.9847 26066.7 -03491.5 -07.6290 26299.5
 21 11 2013  17 51  -20.9848 26066.5 -03491.4 -07.6289 26299.3
 21 11 2013  17 52  -20.9850 26066.3 -03491.4 -07.6290 26299.0
 21 11 2013  17 53  -20.9850 26065.9 -03491.4 -07.6290 26298.7
 21 11 2013  17 54  -20.9849 26065.6 -03491.3 -07.6289 26298.4
 21 11 2013  17 55  -20.9848 26065.2 -03491.3 -07.6290 26298.0
 21 11 2013  17 56  -20.9848 26064.8 -03491.3 -07.6291 26297.6
 21 11 2013  17 57  -20.9846 26064.5 -03491.3 -07.6293 26297.3
 21 11 2013  17 58  -20.9845 26064.1 -03491.4 -07.6295 26296.9
 21 11 2013  17 59  -20.9844 26063.9 -03491.5 -07.6299 26296.8
 21 11 2013  18 00  -20.9843 26063.7 -03491.6 -07.6301 26296.6
 21 11 2013  18 01  -20.9842 26063.5 -03491.7 -07.6305 26296.4
 21 11 2013  18 02  -20.9843 26063.3 -03491.9 -07.6308 26296.2
 21 11 2013  18 03  -20.9843 26063.2 -03492.0 -07.6312 26296.1
 21 11 2013  18 04  -20.9844 26063.1 -03492.2 -07.6316 26296.0
 21 11 2013  18 05  -20.9845 26062.9 -03492.3 -07.6319 26295.8
 21 11 2013  18 06  -20.9846 26062.4 -03492.3 -07.6319 26295.3
 21 11 2013  18 07  -20.9844 26062.1 -03492.3 -07.6321 26295.0
 21 11 2013  18 08  -20.9844 26061.7 -03492.3 -07.6322 26294.6
 21 11 2013  18 09  -20.9844 26061.7 -03492.5 -07.6326 26294.7
 21 11 2013  18 10  -20.9846 26061.3 -03492.5 -07.6327 26294.2
 21 11 2013  18 11  -20.9846 26061.2 -03492.6 -07.6330 26294.2
 21 11 2013  18 12  -20.9848 26061.0 -03492.6 -07.6331 26294.0
 21 11 2013  18 13  -20.9849 26060.7 -03492.6 -07.6332 26293.7
 21 11 2013  18 14  -20.9850 26060.4 -03492.6 -07.6333 26293.4
 21 11 2013  18 15  -20.9850 26060.5 -03492.7 -07.6335 26293.6
 21 11 2013  18 16  -20.9853 26059.4 -03492.4 -07.6331 26292.4
 21 11 2013  18 17  -20.9850 26060.1 -03492.7 -07.6337 26293.1
 21 11 2013  18 18  -20.9854 26059.4 -03492.6 -07.6334 26292.4
 21 11 2013  18 19  -20.9854 26059.0 -03492.5 -07.6334 26292.0
 21 11 2013  18 20  -20.9854 26059.2 -03492.7 -07.6338 26292.2
 21 11 2013  18 21  -20.9856 26058.7 -03492.6 -07.6338 26291.7
 21 11 2013  18 22  -20.9855 26058.9 -03492.8 -07.6341 26291.9
 21 11 2013  18 23  -20.9858 26058.3 -03492.7 -07.6341 26291.4
 21 11 2013  18 24  -20.9859 26057.9 -03492.6 -07.6340 26290.9
 21 11 2013  18 25  -20.9860 26057.5 -03492.6 -07.6341 26290.5
 21 11 2013  18 26  -20.9861 26057.1 -03492.7 -07.6344 26290.2
 21 11 2013  18 27  -20.9862 26056.7 -03492.7 -07.6346 26289.7
 21 11 2013  18 28  -20.9863 26056.5 -03492.9 -07.6350 26289.6
 21 11 2013  18 29  -20.9865 26056.1 -03492.9 -07.6352 26289.2
 21 11 2013  18 30  -20.9868 26055.9 -03493.1 -07.6355 26289.0
 21 11 2013  18 31  -20.9869 26055.9 -03493.3 -07.6361 26289.1
 21 11 2013  18 32  -20.9873 26055.8 -03493.5 -07.6365 26289.0
 21 11 2013  18 33  -20.9877 26055.3 -03493.5 -07.6366 26288.5
 21 11 2013  18 34  -20.9878 26055.5 -03493.8 -07.6373 26288.7
 21 11 2013  18 35  -20.9881 26054.9 -03493.8 -07.6375 26288.1
 21 11 2013  18 36  -20.9886 26054.8 -03494.0 -07.6379 26288.0
 21 11 2013  18 37  -20.9890 26054.5 -03494.1 -07.6381 26287.7
 21 11 2013  18 38  -20.9894 26054.4 -03494.3 -07.6385 26287.7
 21 11 2013  18 39  -20.9898 26054.2 -03494.4 -07.6388 26287.5
 21 11 2013  18 40  -20.9901 26054.0 -03494.4 -07.6390 26287.3
 21 11 2013  18 41  -20.9907 26053.7 -03494.5 -07.6393 26287.0
 21 11 2013  18 42  -20.9910 26053.5 -03494.6 -07.6395 26286.8
 21 11 2013  18 43  -20.9914 26053.0 -03494.6 -07.6397 26286.3
 21 11 2013  18 44  -20.9916 26052.8 -03494.7 -07.6400 26286.2
 21 11 2013  18 45  -20.9920 26052.6 -03494.8 -07.6402 26285.9
 21 11 2013  18 46  -20.9923 26052.4 -03494.9 -07.6406 26285.8
 21 11 2013  18 47  -20.9927 26052.2 -03495.1 -07.6410 26285.6
 21 11 2013  18 48  -20.9932 26052.0 -03495.2 -07.6414 26285.4
 21 11 2013  18 49  -20.9936 26051.7 -03495.3 -07.6416 26285.2
 21 11 2013  18 50  -20.9939 26051.4 -03495.4 -07.6419 26284.9
 21 11 2013  18 51  -20.9942 26051.1 -03495.5 -07.6422 26284.6
 21 11 2013  18 52  -20.9946 26050.9 -03495.6 -07.6425 26284.4
 21 11 2013  18 53  -20.9950 26050.7 -03495.7 -07.6428 26284.2
 21 11 2013  18 54  -20.9953 26050.5 -03495.8 -07.6431 26284.0
 21 11 2013  18 55  -20.9955 26050.2 -03495.9 -07.6434 26283.7
 21 11 2013  18 56  -20.9956 26049.9 -03496.1 -07.6438 26283.5
 21 11 2013  18 57  -20.9961 26049.8 -03496.2 -07.6441 26283.4
 21 11 2013  18 58  -20.9964 26049.7 -03496.4 -07.6445 26283.2
 21 11 2013  18 59  -20.9966 26049.4 -03496.4 -07.6447 26283.0
 21 11 2013  19 00  -20.9968 26049.1 -03496.5 -07.6450 26282.7
 21 11 2013  19 01  -20.9970 26048.9 -03496.6 -07.6453 26282.5
 21 11 2013  19 02  -20.9974 26048.7 -03496.8 -07.6457 26282.4
 21 11 2013  19 03  -20.9976 26048.6 -03496.9 -07.6460 26282.2
 21 11 2013  19 04  -20.9979 26048.3 -03497.0 -07.6463 26282.0
 21 11 2013  19 05  -20.9981 26048.1 -03497.1 -07.6465 26281.8
 21 11 2013  19 06  -20.9982 26047.9 -03497.2 -07.6469 26281.6
 21 11 2013  19 07  -20.9985 26047.7 -03497.4 -07.6472 26281.4
 21 11 2013  19 08  -20.9986 26047.5 -03497.5 -07.6475 26281.2
 21 11 2013  19 09  -20.9988 26047.4 -03497.7 -07.6480 26281.2
 21 11 2013  19 10  -20.9990 26047.3 -03497.9 -07.6484 26281.1
 21 11 2013  19 11  -20.9990 26046.8 -03497.9 -07.6486 26280.6
 21 11 2013  19 12  -20.9992 26046.6 -03498.1 -07.6490 26280.5
 21 11 2013  19 13  -20.9993 26046.4 -03498.2 -07.6494 26280.3
 21 11 2013  19 14  -20.9994 26046.3 -03498.4 -07.6498 26280.2
 21 11 2013  19 15  -20.9996 26045.8 -03498.5 -07.6502 26279.8
 21 11 2013  19 16  -20.9996 26045.9 -03498.7 -07.6507 26279.9
 21 11 2013  19 17  -20.9999 26045.5 -03498.8 -07.6510 26279.5
 21 11 2013  19 18  -21.0002 26045.6 -03499.1 -07.6516 26279.6
 21 11 2013  19 19  -21.0005 26045.3 -03499.2 -07.6520 26279.3
 21 11 2013  19 20  -21.0005 26045.3 -03499.4 -07.6524 26279.3
 21 11 2013  19 21  -21.0008 26045.2 -03499.6 -07.6529 26279.2
 21 11 2013  19 22  -21.0009 26045.0 -03499.8 -07.6533 26279.1
 21 11 2013  19 23  -21.0011 26044.7 -03499.9 -07.6536 26278.8
 21 11 2013  19 24  -21.0012 26044.8 -03500.2 -07.6542 26278.9
 21 11 2013  19 25  -21.0015 26044.7 -03500.4 -07.6546 26278.9
 21 11 2013  19 26  -21.0019 26044.6 -03500.5 -07.6550 26278.7
 21 11 2013  19 27  -21.0019 26044.6 -03500.8 -07.6555 26278.8
 21 11 2013  19 28  -21.0022 26044.3 -03500.9 -07.6558 26278.5
 21 11 2013  19 29  -21.0025 26044.2 -03501.0 -07.6561 26278.5
 21 11 2013  19 30  -21.0028 26044.0 -03501.1 -07.6564 26278.3
 21 11 2013  19 31  -21.0032 26043.7 -03501.2 -07.6566 26278.0
 21 11 2013  19 32  -21.0035 26043.5 -03501.3 -07.6568 26277.8
 21 11 2013  19 33  -21.0038 26043.4 -03501.4 -07.6572 26277.7
 21 11 2013  19 34  -21.0041 26043.2 -03501.5 -07.6575 26277.5
 21 11 2013  19 35  -21.0043 26043.0 -03501.6 -07.6578 26277.3
 21 11 2013  19 36  -21.0045 26042.9 -03501.8 -07.6582 26277.3
 21 11 2013  19 37  -21.0048 26042.7 -03501.9 -07.6585 26277.1
 21 11 2013  19 38  -21.0051 26042.6 -03502.0 -07.6588 26277.0
 21 11 2013  19 39  -21.0096 26042.0 -03501.8 -07.6584 26276.4
 21 11 2013  19 40  -21.0103 26041.8 -03501.9 -07.6587 26276.2
 21 11 2013  19 41  -21.0105 26041.7 -03502.0 -07.6590 26276.1
 21 11 2013  19 42  -21.0100 26041.7 -03502.0 -07.6590 26276.1
 21 11 2013  19 43  -21.0100 26041.5 -03502.0 -07.6590 26275.9
 21 11 2013  19 44  -21.0102 26041.5 -03502.1 -07.6594 26275.9
 21 11 2013  19 45  -21.0104 26041.2 -03502.2 -07.6595 26275.6
 21 11 2013  19 46  -21.0107 26041.1 -03502.3 -07.6598 26275.5
 21 11 2013  19 47  -21.0077 26041.1 -03502.5 -07.6603 26275.6
 21 11 2013  19 48  -21.0065 26041.2 -03502.8 -07.6608 26275.7
 21 11 2013  19 49  -21.0067 26040.9 -03502.8 -07.6609 26275.4
 21 11 2013  19 50  -21.0070 26040.7 -03502.9 -07.6612 26275.3
 21 11 2013  19 51  -21.0073 26040.5 -03502.9 -07.6613 26275.1
 21 11 2013  19 52  -21.0076 26040.3 -03503.0 -07.6616 26274.9
 21 11 2013  19 53  -21.0078 26040.2 -03503.1 -07.6618 26274.8
 21 11 2013  19 54  -21.0081 26040.1 -03503.2 -07.6620 26274.7
 21 11 2013  19 55  -21.0084 26039.8 -03503.2 -07.6622 26274.4
 21 11 2013  19 56  -21.0089 26039.7 -03503.3 -07.6624 26274.3
 21 11 2013  19 57  -21.0093 26039.3 -03503.3 -07.6624 26273.9
 21 11 2013  19 58  -21.0096 26039.2 -03503.3 -07.6626 26273.8
 21 11 2013  19 59  -21.0097 26039.1 -03503.5 -07.6629 26273.8
 21 11 2013  20 00  -21.0101 26038.9 -03503.5 -07.6630 26273.6
 21 11 2013  20 01  -21.0104 26038.7 -03503.5 -07.6632 26273.3
 21 11 2013  20 02  -21.0107 26038.6 -03503.6 -07.6634 26273.3
 21 11 2013  20 03  -21.0110 26038.4 -03503.6 -07.6635 26273.1
 21 11 2013  20 04  -21.0111 26038.4 -03503.8 -07.6637 26273.1
 21 11 2013  20 05  -21.0115 26038.2 -03503.8 -07.6639 26272.9
 21 11 2013  20 06  -21.0118 26038.2 -03503.9 -07.6640 26272.8
 21 11 2013  20 07  -21.0121 26038.0 -03503.9 -07.6642 26272.7
 21 11 2013  20 08  -21.0124 26038.0 -03504.0 -07.6643 26272.7
 21 11 2013  20 09  -21.0127 26038.0 -03504.1 -07.6646 26272.8
 21 11 2013  20 10  -21.0131 26037.9 -03504.2 -07.6647 26272.7
 21 11 2013  20 11  -21.0135 26037.9 -03504.2 -07.6649 26272.6
 21 11 2013  20 12  -21.0138 26038.1 -03504.4 -07.6652 26272.8
 21 11 2013  20 13  -21.0142 26038.2 -03504.5 -07.6655 26272.9
 21 11 2013  20 14  -21.0147 26038.3 -03504.6 -07.6657 26273.1
 21 11 2013  20 15  -21.0151 26038.3 -03504.7 -07.6658 26273.1
 21 11 2013  20 16  -21.0155 26038.3 -03504.7 -07.6657 26273.1
 21 11 2013  20 17  -21.0156 26038.5 -03504.7 -07.6658 26273.3
 21 11 2013  20 18  -21.0158 26038.3 -03504.7 -07.6658 26273.1
 21 11 2013  20 19  -21.0161 26038.1 -03504.6 -07.6656 26272.8
 21 11 2013  20 20  -21.0162 26037.7 -03504.4 -07.6653 26272.5
 21 11 2013  20 21  -21.0163 26037.2 -03504.2 -07.6650 26271.9
 21 11 2013  20 22  -21.0164 26036.7 -03504.0 -07.6647 26271.4
 21 11 2013  20 23  -21.0164 26036.4 -03503.8 -07.6644 26271.1
 21 11 2013  20 24  -21.0164 26036.4 -03503.8 -07.6644 26271.1
 21 11 2013  20 25  -21.0162 26036.4 -03503.9 -07.6646 26271.1
 21 11 2013  20 26  -21.0162 26036.3 -03503.9 -07.6646 26271.0
 21 11 2013  20 27  -21.0162 26036.1 -03503.8 -07.6645 26270.8
 21 11 2013  20 28  -21.0162 26036.1 -03503.8 -07.6646 26270.8
 21 11 2013  20 29  -21.0162 26036.0 -03503.8 -07.6646 26270.7
 21 11 2013  20 30  -21.0162 26035.8 -03503.8 -07.6645 26270.5
 21 11 2013  20 31  -21.0162 26035.5 -03503.7 -07.6644 26270.2
 21 11 2013  20 32  -21.0164 26035.3 -03503.6 -07.6643 26270.0
 21 11 2013  20 33  -21.0162 26035.2 -03503.5 -07.6642 26269.9
 21 11 2013  20 34  -21.0160 26035.1 -03503.5 -07.6642 26269.8
 21 11 2013  20 35  -21.0158 26035.0 -03503.5 -07.6641 26269.6
 21 11 2013  20 36  -21.0157 26034.8 -03503.4 -07.6641 26269.4
 21 11 2013  20 37  -21.0156 26034.6 -03503.4 -07.6640 26269.2
 21 11 2013  20 38  -21.0154 26034.4 -03503.3 -07.6639 26269.1
 21 11 2013  20 39  -21.0152 26034.3 -03503.2 -07.6638 26269.0
 21 11 2013  20 40  -21.0149 26034.2 -03503.2 -07.6638 26268.8
 21 11 2013  20 41  -21.0146 26033.9 -03503.1 -07.6636 26268.6
 21 11 2013  20 42  -21.0142 26033.7 -03503.0 -07.6634 26268.4
 21 11 2013  20 43  -21.0138 26033.6 -03503.0 -07.6634 26268.2
 21 11 2013  20 44  -21.0134 26033.5 -03502.9 -07.6634 26268.1
 21 11 2013  20 45  -21.0129 26033.4 -03503.0 -07.6635 26268.0
 21 11 2013  20 46  -21.0123 26033.3 -03503.0 -07.6636 26267.9
 21 11 2013  20 47  -21.0118 26033.2 -03503.0 -07.6637 26267.8
 21 11 2013  20 48  -21.0113 26033.0 -03503.1 -07.6638 26267.6
 21 11 2013  20 49  -21.0109 26032.9 -03503.2 -07.6640 26267.5
 21 11 2013  20 50  -21.0105 26032.8 -03503.2 -07.6642 26267.4
 21 11 2013  20 51  -21.0102 26032.7 -03503.4 -07.6645 26267.3
 21 11 2013  20 52  -21.0099 26032.5 -03503.5 -07.6648 26267.2
 21 11 2013  20 53  -21.0096 26032.4 -03503.6 -07.6651 26267.1
 21 11 2013  20 54  -21.0094 26032.3 -03503.7 -07.6655 26267.0
 21 11 2013  20 55  -21.0091 26032.2 -03503.9 -07.6659 26267.0
 21 11 2013  20 56  -21.0091 26032.1 -03504.0 -07.6662 26266.8
 21 11 2013  20 57  -21.0094 26032.0 -03504.2 -07.6666 26266.8
 21 11 2013  20 58  -21.0095 26031.8 -03504.3 -07.6669 26266.6
 21 11 2013  20 59  -21.0097 26031.7 -03504.4 -07.6671 26266.5
 21 11 2013  21 00  -21.0099 26031.6 -03504.5 -07.6674 26266.4
 21 11 2013  21 01  -21.0101 26031.5 -03504.7 -07.6677 26266.4
 21 11 2013  21 02  -21.0104 26031.4 -03504.8 -07.6679 26266.3
 21 11 2013  21 03  -21.0107 26031.3 -03504.8 -07.6680 26266.2
 21 11 2013  21 04  -21.0110 26031.1 -03504.8 -07.6682 26266.0
 21 11 2013  21 05  -21.0112 26031.0 -03504.8 -07.6682 26265.9
 21 11 2013  21 06  -21.0115 26030.9 -03504.8 -07.6682 26265.8
 21 11 2013  21 07  -21.0117 26030.8 -03504.8 -07.6682 26265.7
 21 11 2013  21 08  -21.0118 26030.6 -03504.8 -07.6682 26265.5
 21 11 2013  21 09  -21.0119 26030.4 -03504.7 -07.6682 26265.3
 21 11 2013  21 10  -21.0120 26030.3 -03504.7 -07.6682 26265.2
 21 11 2013  21 11  -21.0121 26030.2 -03504.7 -07.6682 26265.1
 21 11 2013  21 12  -21.0122 26030.0 -03504.6 -07.6680 26264.9
 21 11 2013  21 13  -21.0121 26029.8 -03504.6 -07.6680 26264.7
 21 11 2013  21 14  -21.0121 26029.6 -03504.5 -07.6679 26264.5
 21 11 2013  21 15  -21.0120 26029.4 -03504.5 -07.6680 26264.3
 21 11 2013  21 16  -21.0120 26029.3 -03504.5 -07.6680 26264.1
 21 11 2013  21 17  -21.0119 26029.2 -03504.5 -07.6680 26264.0
 21 11 2013  21 18  -21.0119 26029.0 -03504.5 -07.6681 26263.9
 21 11 2013  21 19  -21.0119 26028.8 -03504.5 -07.6681 26263.7
 21 11 2013  21 20  -21.0116 26028.7 -03504.5 -07.6681 26263.6
 21 11 2013  21 21  -21.0114 26028.7 -03504.6 -07.6683 26263.6
 21 11 2013  21 22  -21.0113 26028.6 -03504.7 -07.6685 26263.5
 21 11 2013  21 23  -21.0111 26028.5 -03504.7 -07.6687 26263.4
 21 11 2013  21 24  -21.0108 26028.4 -03504.8 -07.6688 26263.3
 21 11 2013  21 25  -21.0106 26028.3 -03504.8 -07.6689 26263.2
 21 11 2013  21 26  -21.0105 26028.2 -03504.9 -07.6691 26263.1
 21 11 2013  21 27  -21.0103 26028.1 -03504.9 -07.6693 26263.1
 21 11 2013  21 28  -21.0103 26028.1 -03505.0 -07.6694 26263.0
 21 11 2013  21 29  -21.0103 26028.0 -03505.0 -07.6695 26263.0
 21 11 2013  21 30  -21.0103 26027.8 -03505.1 -07.6697 26262.8
 21 11 2013  21 31  -21.0101 26027.7 -03505.1 -07.6698 26262.6
 21 11 2013  21 32  -21.0100 26027.6 -03505.1 -07.6697 26262.5
 21 11 2013  21 33  -21.0097 26027.5 -03505.1 -07.6698 26262.4
 21 11 2013  21 34  -21.0096 26027.4 -03505.2 -07.6701 26262.3
 21 11 2013  21 35  -21.0094 26027.3 -03505.2 -07.6701 26262.3
 21 11 2013  21 36  -21.0092 26027.2 -03505.3 -07.6703 26262.2
 21 11 2013  21 37  -21.0092 26027.0 -03505.3 -07.6703 26262.0
 21 11 2013  21 38  -21.0091 26026.9 -03505.4 -07.6705 26261.9
 21 11 2013  21 39  -21.0089 26026.8 -03505.3 -07.6705 26261.8
 21 11 2013  21 40  -21.0090 26026.7 -03505.4 -07.6707 26261.7
 21 11 2013  21 41  -21.0090 26026.6 -03505.4 -07.6707 26261.6
 21 11 2013  21 42  -21.0090 26026.4 -03505.4 -07.6708 26261.4
 21 11 2013  21 43  -21.0092 26026.2 -03505.4 -07.6708 26261.2
 21 11 2013  21 44  -21.0094 26026.0 -03505.4 -07.6708 26261.0
 21 11 2013  21 45  -21.0095 26025.9 -03505.4 -07.6709 26260.9
 21 11 2013  21 46  -21.0095 26025.7 -03505.3 -07.6708 26260.7
 21 11 2013  21 47  -21.0096 26025.6 -03505.3 -07.6709 26260.6
 21 11 2013  21 48  -21.0096 26025.5 -03505.4 -07.6710 26260.5
 21 11 2013  21 49  -21.0097 26025.4 -03505.4 -07.6711 26260.4
 21 11 2013  21 50  -21.0100 26025.3 -03505.4 -07.6712 26260.3
 21 11 2013  21 51  -21.0099 26025.2 -03505.4 -07.6712 26260.2
 21 11 2013  21 52  -21.0099 26025.1 -03505.4 -07.6712 26260.1
 21 11 2013  21 53  -21.0101 26025.0 -03505.4 -07.6713 26260.0
 21 11 2013  21 54  -21.0101 26024.9 -03505.5 -07.6713 26259.9
 21 11 2013  21 55  -21.0100 26024.9 -03505.5 -07.6713 26259.9
 21 11 2013  21 56  -21.0101 26024.7 -03505.5 -07.6715 26259.7
 21 11 2013  21 57  -21.0104 26024.4 -03505.4 -07.6714 26259.4
 21 11 2013  21 58  -21.0108 26024.0 -03505.3 -07.6712 26259.0
 21 11 2013  21 59  -21.0110 26023.7 -03505.2 -07.6712 26258.7
 21 11 2013  22 00  -21.0110 26023.5 -03505.2 -07.6711 26258.5
 21 11 2013  22 01  -21.0105 26023.5 -03505.2 -07.6712 26258.5
 21 11 2013  22 02  -21.0103 26023.5 -03505.3 -07.6714 26258.5
 21 11 2013  22 03  -21.0102 26023.4 -03505.3 -07.6715 26258.5
 21 11 2013  22 04  -21.0099 26023.5 -03505.5 -07.6717 26258.5
 21 11 2013  22 05  -21.0098 26023.5 -03505.6 -07.6720 26258.6
 21 11 2013  22 06  -21.0098 26023.4 -03505.6 -07.6721 26258.5
 21 11 2013  22 07  -21.0100 26023.3 -03505.6 -07.6722 26258.3
 21 11 2013  22 08  -21.0100 26023.2 -03505.6 -07.6722 26258.2
 21 11 2013  22 09  -21.0102 26022.9 -03505.6 -07.6722 26258.0
 21 11 2013  22 10  -21.0105 26022.7 -03505.5 -07.6721 26257.8
 21 11 2013  22 11  -21.0107 26022.5 -03505.5 -07.6722 26257.5
 21 11 2013  22 12  -21.0106 26022.3 -03505.5 -07.6721 26257.4
 21 11 2013  22 13  -21.0107 26022.1 -03505.4 -07.6721 26257.2
 21 11 2013  22 14  -21.0106 26022.0 -03505.4 -07.6721 26257.0
 21 11 2013  22 15  -21.0104 26022.0 -03505.4 -07.6722 26257.0
 21 11 2013  22 16  -21.0104 26021.9 -03505.5 -07.6723 26256.9
 21 11 2013  22 17  -21.0104 26021.8 -03505.5 -07.6724 26256.9
 21 11 2013  22 18  -21.0102 26021.7 -03505.5 -07.6724 26256.8
 21 11 2013  22 19  -21.0101 26021.6 -03505.5 -07.6724 26256.6
 21 11 2013  22 20  -21.0101 26021.4 -03505.5 -07.6725 26256.5
 21 11 2013  22 21  -21.0100 26021.3 -03505.6 -07.6727 26256.4
 21 11 2013  22 22  -21.0098 26021.3 -03505.6 -07.6727 26256.4
 21 11 2013  22 23  -21.0095 26021.2 -03505.6 -07.6728 26256.3
 21 11 2013  22 24  -21.0092 26021.2 -03505.6 -07.6728 26256.3
 21 11 2013  22 25  -21.0091 26021.2 -03505.7 -07.6730 26256.2
 21 11 2013  22 26  -21.0090 26021.2 -03505.8 -07.6731 26256.3
 21 11 2013  22 27  -21.0087 26021.2 -03505.8 -07.6732 26256.3
 21 11 2013  22 28  -21.0083 26021.3 -03505.9 -07.6733 26256.4
 21 11 2013  22 29  -21.0084 26021.2 -03505.9 -07.6734 26256.3
 21 11 2013  22 30  -21.0083 26021.1 -03505.9 -07.6734 26256.2
 21 11 2013  22 31  -21.0084 26020.9 -03505.8 -07.6733 26256.0
 21 11 2013  22 32  -21.0085 26020.8 -03505.8 -07.6733 26255.9
 21 11 2013  22 33  -21.0083 26020.6 -03505.8 -07.6732 26255.8
 21 11 2013  22 34  -21.0082 26020.5 -03505.7 -07.6732 26255.6
 21 11 2013  22 35  -21.0080 26020.4 -03505.7 -07.6731 26255.5
 21 11 2013  22 36  -21.0079 26020.3 -03505.7 -07.6731 26255.4
 21 11 2013  22 37  -21.0077 26020.2 -03505.7 -07.6732 26255.3
 21 11 2013  22 38  -21.0076 26020.2 -03505.7 -07.6732 26255.3
 21 11 2013  22 39  -21.0077 26020.2 -03505.8 -07.6734 26255.3
 21 11 2013  22 40  -21.0076 26020.3 -03505.8 -07.6735 26255.4
 21 11 2013  22 41  -21.0077 26020.2 -03505.9 -07.6736 26255.4
 21 11 2013  22 42  -21.0077 26020.2 -03505.9 -07.6737 26255.3
 21 11 2013  22 43  -21.0077 26020.1 -03505.9 -07.6737 26255.2
 21 11 2013  22 44  -21.0077 26019.9 -03505.8 -07.6736 26255.0
 21 11 2013  22 45  -21.0075 26019.8 -03505.8 -07.6735 26254.9
 21 11 2013  22 46  -21.0072 26019.7 -03505.7 -07.6735 26254.8
 21 11 2013  22 47  -21.0071 26019.7 -03505.8 -07.6736 26254.9
 21 11 2013  22 48  -21.0068 26019.8 -03505.9 -07.6738 26255.0
 21 11 2013  22 49  -21.0069 26019.9 -03506.1 -07.6741 26255.1
 21 11 2013  22 50  -21.0070 26019.9 -03506.1 -07.6742 26255.1
 21 11 2013  22 51  -21.0071 26019.8 -03506.2 -07.6744 26255.0
 21 11 2013  22 52  -21.0069 26019.9 -03506.2 -07.6744 26255.0
 21 11 2013  22 53  -21.0065 26020.0 -03506.3 -07.6745 26255.1
 21 11 2013  22 54  -21.0065 26020.0 -03506.4 -07.6747 26255.2
 21 11 2013  22 55  -21.0064 26020.0 -03506.4 -07.6748 26255.2
 21 11 2013  22 56  -21.0064 26019.9 -03506.5 -07.6750 26255.1
 21 11 2013  22 57  -21.0064 26020.1 -03506.5 -07.6751 26255.3
 21 11 2013  22 58  -21.0063 26020.5 -03506.8 -07.6756 26255.8
 21 11 2013  22 59  -21.0061 26020.2 -03506.8 -07.6755 26255.4
 21 11 2013  23 00  -21.0061 26020.1 -03506.7 -07.6755 26255.4
 21 11 2013  23 01  -21.0062 26020.3 -03506.8 -07.6757 26255.5
 21 11 2013  23 02  -21.0060 26020.2 -03506.9 -07.6758 26255.5
 21 11 2013  23 03  -21.0058 26020.1 -03506.8 -07.6757 26255.3
 21 11 2013  23 04  -21.0059 26019.9 -03506.8 -07.6756 26255.2
 21 11 2013  23 05  -21.0059 26019.8 -03506.7 -07.6756 26255.0
 21 11 2013  23 06  -21.0059 26019.8 -03506.8 -07.6757 26255.0
 21 11 2013  23 07  -21.0059 26019.5 -03506.7 -07.6756 26254.8
 21 11 2013  23 08  -21.0059 26019.4 -03506.7 -07.6756 26254.6
 21 11 2013  23 09  -21.0056 26019.4 -03506.7 -07.6756 26254.7
 21 11 2013  23 10  -21.0054 26019.3 -03506.7 -07.6757 26254.5
 21 11 2013  23 11  -21.0054 26019.1 -03506.7 -07.6757 26254.3
 21 11 2013  23 12  -21.0054 26019.0 -03506.7 -07.6757 26254.2
 21 11 2013  23 13  -21.0053 26019.0 -03506.7 -07.6758 26254.2
 21 11 2013  23 14  -21.0052 26018.8 -03506.7 -07.6758 26254.0
 21 11 2013  23 15  -21.0051 26018.9 -03506.8 -07.6760 26254.2
 21 11 2013  23 16  -21.0051 26018.8 -03506.8 -07.6761 26254.1
 21 11 2013  23 17  -21.0053 26018.8 -03506.8 -07.6761 26254.0
 21 11 2013  23 18  -21.0054 26018.7 -03506.8 -07.6761 26253.9
 21 11 2013  23 19  -21.0054 26018.6 -03506.8 -07.6761 26253.9
 21 11 2013  23 20  -21.0053 26018.5 -03506.8 -07.6762 26253.8
 21 11 2013  23 21  -21.0053 26018.5 -03506.8 -07.6762 26253.8
 21 11 2013  23 22  -21.0053 26018.4 -03506.9 -07.6763 26253.7
 21 11 2013  23 23  -21.0053 26018.4 -03506.9 -07.6763 26253.7
 21 11 2013  23 24  -21.0052 26018.3 -03506.8 -07.6762 26253.6
 21 11 2013  23 25  -21.0052 26018.3 -03506.8 -07.6763 26253.6
 21 11 2013  23 26  -21.0051 26018.2 -03506.8 -07.6762 26253.4
 21 11 2013  23 27  -21.0051 26018.1 -03506.8 -07.6762 26253.3
 21 11 2013  23 28  -21.0051 26018.0 -03506.8 -07.6762 26253.3
 21 11 2013  23 29  -21.0050 26018.0 -03506.8 -07.6762 26253.3
 21 11 2013  23 30  -21.0051 26017.9 -03506.8 -07.6763 26253.2
 21 11 2013  23 31  -21.0054 26017.9 -03506.9 -07.6764 26253.2
 21 11 2013  23 32  -21.0053 26017.9 -03506.9 -07.6764 26253.2
 21 11 2013  23 33  -21.0053 26017.8 -03506.8 -07.6764 26253.1
 21 11 2013  23 34  -21.0055 26017.7 -03506.8 -07.6764 26253.0
 21 11 2013  23 35  -21.0056 26017.7 -03506.8 -07.6764 26252.9
 21 11 2013  23 36  -21.0056 26017.6 -03506.8 -07.6764 26252.9
 21 11 2013  23 37  -21.0056 26017.6 -03506.8 -07.6764 26252.9
 21 11 2013  23 38  -21.0053 26017.5 -03506.8 -07.6764 26252.8
 21 11 2013  23 39  -21.0050 26017.5 -03506.8 -07.6763 26252.7
 21 11 2013  23 40  -21.0047 26017.4 -03506.8 -07.6764 26252.7
 21 11 2013  23 41  -21.0045 26017.4 -03506.8 -07.6764 26252.7
 21 11 2013  23 42  -21.0043 26017.4 -03506.8 -07.6765 26252.6
 21 11 2013  23 43  -21.0042 26017.4 -03506.8 -07.6765 26252.7
 21 11 2013  23 44  -21.0041 26017.4 -03506.9 -07.6766 26252.6
 21 11 2013  23 45  -21.0041 26017.4 -03506.9 -07.6768 26252.7
 21 11 2013  23 46  -21.0042 26017.4 -03507.0 -07.6768 26252.6
 21 11 2013  23 47  -21.0045 26017.3 -03507.0 -07.6769 26252.6
 21 11 2013  23 48  -21.0046 26017.2 -03507.0 -07.6769 26252.5
 21 11 2013  23 49  -21.0045 26017.1 -03506.9 -07.6768 26252.4
 21 11 2013  23 50  -21.0044 26017.1 -03507.0 -07.6769 26252.4
 21 11 2013  23 51  -21.0042 26017.1 -03507.0 -07.6769 26252.4
 21 11 2013  23 52  -21.0040 26017.1 -03507.0 -07.6769 26252.4
 21 11 2013  23 53  -21.0039 26017.0 -03507.0 -07.6770 26252.3
 21 11 2013  23 54  -21.0038 26016.9 -03507.0 -07.6770 26252.2
 21 11 2013  23 55  -21.0038 26016.8 -03506.9 -07.6769 26252.1
 21 11 2013  23 56  -21.0038 26016.7 -03506.9 -07.6770 26252.0
 21 11 2013  23 57  -21.0038 26016.6 -03506.9 -07.6770 26251.9
