SAO LUIS EMBRACE-03 <271> 1 Min. Reported data

 DD MM YYYY  HH MM   D(Deg)  H(nT)   Z(nT)   I(Deg)   F(nT)

 28 09 2013  00 00  -21.0104 26029.8 -03490.7 -07.6379 26262.8
 28 09 2013  00 01  -21.0104 26029.8 -03490.7 -07.6380 26262.8
 28 09 2013  00 02  -21.0103 26029.7 -03490.7 -07.6379 26262.7
 28 09 2013  00 03  -21.0102 26029.7 -03490.6 -07.6379 26262.7
 28 09 2013  00 04  -21.0102 26029.8 -03490.7 -07.6381 26262.8
 28 09 2013  00 05  -21.0101 26029.8 -03490.8 -07.6382 26262.8
 28 09 2013  00 06  -21.0100 26029.8 -03490.8 -07.6382 26262.8
 28 09 2013  00 07  -21.0099 26029.8 -03490.8 -07.6382 26262.8
 28 09 2013  00 08  -21.0099 26029.7 -03490.8 -07.6382 26262.7
 28 09 2013  00 09  -21.0099 26029.7 -03490.7 -07.6381 26262.7
 28 09 2013  00 10  -21.0098 26029.7 -03490.8 -07.6382 26262.8
 28 09 2013  00 11  -21.0098 26029.7 -03490.8 -07.6382 26262.7
 28 09 2013  00 12  -21.0098 26029.7 -03490.8 -07.6382 26262.7
 28 09 2013  00 13  -21.0097 26029.6 -03490.8 -07.6382 26262.7
 28 09 2013  00 14  -21.0096 26029.6 -03490.8 -07.6383 26262.7
 28 09 2013  00 15  -21.0095 26029.6 -03490.8 -07.6383 26262.7
 28 09 2013  00 16  -21.0094 26029.6 -03490.8 -07.6384 26262.7
 28 09 2013  00 17  -21.0094 26029.6 -03490.9 -07.6384 26262.6
 28 09 2013  00 18  -21.0095 26029.5 -03490.9 -07.6384 26262.6
 28 09 2013  00 19  -21.0096 26029.5 -03490.9 -07.6384 26262.5
 28 09 2013  00 20  -21.0096 26029.5 -03490.8 -07.6384 26262.5
 28 09 2013  00 21  -21.0096 26029.5 -03490.9 -07.6384 26262.6
 28 09 2013  00 22  -21.0095 26029.6 -03490.9 -07.6385 26262.6
 28 09 2013  00 23  -21.0093 26029.6 -03490.9 -07.6386 26262.6
 28 09 2013  00 24  -21.0092 26029.6 -03491.0 -07.6386 26262.7
 28 09 2013  00 25  -21.0092 26029.6 -03491.0 -07.6386 26262.7
 28 09 2013  00 26  -21.0091 26029.7 -03491.0 -07.6387 26262.8
 28 09 2013  00 27  -21.0091 26029.8 -03491.0 -07.6388 26262.8
 28 09 2013  00 28  -21.0091 26029.8 -03491.1 -07.6388 26262.9
 28 09 2013  00 29  -21.0090 26029.8 -03491.1 -07.6389 26262.8
 28 09 2013  00 30  -21.0090 26029.7 -03491.0 -07.6387 26262.7
 28 09 2013  00 31  -21.0089 26029.5 -03491.0 -07.6387 26262.6
 28 09 2013  00 32  -21.0088 26029.4 -03490.9 -07.6386 26262.5
 28 09 2013  00 33  -21.0089 26029.3 -03490.9 -07.6386 26262.4
 28 09 2013  00 34  -21.0088 26029.3 -03490.9 -07.6386 26262.3
 28 09 2013  00 35  -21.0087 26029.3 -03490.9 -07.6386 26262.3
 28 09 2013  00 36  -21.0086 26029.2 -03490.9 -07.6386 26262.3
 28 09 2013  00 37  -21.0085 26029.2 -03490.9 -07.6386 26262.2
 28 09 2013  00 38  -21.0084 26029.1 -03490.9 -07.6386 26262.1
 28 09 2013  00 39  -21.0083 26029.1 -03490.9 -07.6386 26262.1
 28 09 2013  00 40  -21.0083 26029.1 -03490.9 -07.6387 26262.1
 28 09 2013  00 41  -21.0084 26029.1 -03491.0 -07.6388 26262.2
 28 09 2013  00 42  -21.0084 26029.1 -03491.0 -07.6388 26262.2
 28 09 2013  00 43  -21.0084 26029.2 -03491.0 -07.6389 26262.2
 28 09 2013  00 44  -21.0084 26029.2 -03491.1 -07.6390 26262.3
 28 09 2013  00 45  -21.0085 26029.3 -03491.1 -07.6391 26262.3
 28 09 2013  00 46  -21.0085 26029.3 -03491.2 -07.6392 26262.4
 28 09 2013  00 47  -21.0085 26029.4 -03491.2 -07.6392 26262.5
 28 09 2013  00 48  -21.0083 26029.5 -03491.2 -07.6392 26262.6
 28 09 2013  00 49  -21.0083 26029.4 -03491.2 -07.6393 26262.5
 28 09 2013  00 50  -21.0082 26029.4 -03491.2 -07.6393 26262.5
 28 09 2013  00 51  -21.0082 26029.4 -03491.3 -07.6393 26262.5
 28 09 2013  00 52  -21.0081 26029.5 -03491.3 -07.6393 26262.6
 28 09 2013  00 53  -21.0079 26029.4 -03491.3 -07.6393 26262.5
 28 09 2013  00 54  -21.0078 26029.4 -03491.3 -07.6393 26262.5
 28 09 2013  00 55  -21.0078 26029.5 -03491.3 -07.6394 26262.5
 28 09 2013  00 56  -21.0077 26029.4 -03491.3 -07.6394 26262.5
 28 09 2013  00 57  -21.0077 26029.5 -03491.3 -07.6394 26262.6
 28 09 2013  00 58  -21.0076 26029.5 -03491.4 -07.6395 26262.6
 28 09 2013  00 59  -21.0075 26029.6 -03491.4 -07.6396 26262.7
 28 09 2013  01 00  -21.0075 26029.6 -03491.4 -07.6396 26262.7
 28 09 2013  01 01  -21.0074 26029.7 -03491.4 -07.6397 26262.8
 28 09 2013  01 02  -21.0073 26029.7 -03491.5 -07.6397 26262.8
 28 09 2013  01 03  -21.0073 26029.7 -03491.5 -07.6398 26262.9
 28 09 2013  01 04  -21.0072 26029.7 -03491.5 -07.6398 26262.9
 28 09 2013  01 05  -21.0072 26029.7 -03491.5 -07.6398 26262.9
 28 09 2013  01 06  -21.0072 26029.7 -03491.5 -07.6398 26262.8
 28 09 2013  01 07  -21.0072 26029.7 -03491.5 -07.6398 26262.8
 28 09 2013  01 08  -21.0072 26029.7 -03491.5 -07.6398 26262.8
 28 09 2013  01 09  -21.0071 26029.6 -03491.5 -07.6398 26262.8
 28 09 2013  01 10  -21.0070 26029.6 -03491.5 -07.6398 26262.7
 28 09 2013  01 11  -21.0070 26029.5 -03491.5 -07.6398 26262.7
 28 09 2013  01 12  -21.0068 26029.5 -03491.5 -07.6397 26262.6
 28 09 2013  01 13  -21.0068 26029.5 -03491.5 -07.6398 26262.6
 28 09 2013  01 14  -21.0068 26029.4 -03491.5 -07.6398 26262.5
 28 09 2013  01 15  -21.0068 26029.3 -03491.4 -07.6397 26262.4
 28 09 2013  01 16  -21.0067 26029.2 -03491.4 -07.6397 26262.3
 28 09 2013  01 17  -21.0067 26029.2 -03491.4 -07.6397 26262.3
 28 09 2013  01 18  -21.0067 26029.2 -03491.4 -07.6397 26262.3
 28 09 2013  01 19  -21.0068 26029.1 -03491.4 -07.6397 26262.2
 28 09 2013  01 20  -21.0068 26029.0 -03491.4 -07.6397 26262.2
 28 09 2013  01 21  -21.0068 26029.0 -03491.4 -07.6398 26262.1
 28 09 2013  01 22  -21.0068 26029.0 -03491.4 -07.6398 26262.1
 28 09 2013  01 23  -21.0068 26029.1 -03491.5 -07.6399 26262.2
 28 09 2013  01 24  -21.0069 26029.1 -03491.5 -07.6399 26262.2
 28 09 2013  01 25  -21.0069 26029.1 -03491.5 -07.6399 26262.2
 28 09 2013  01 26  -21.0069 26029.0 -03491.5 -07.6400 26262.2
 28 09 2013  01 27  -21.0069 26029.0 -03491.5 -07.6400 26262.2
 28 09 2013  01 28  -21.0070 26029.0 -03491.5 -07.6400 26262.2
 28 09 2013  01 29  -21.0070 26029.0 -03491.5 -07.6400 26262.2
 28 09 2013  01 30  -21.0070 26029.0 -03491.5 -07.6400 26262.2
 28 09 2013  01 31  -21.0070 26029.1 -03491.6 -07.6401 26262.2
 28 09 2013  01 32  -21.0070 26029.1 -03491.6 -07.6401 26262.2
 28 09 2013  01 33  -21.0069 26029.1 -03491.5 -07.6400 26262.2
 28 09 2013  01 34  -21.0069 26029.0 -03491.5 -07.6400 26262.2
 28 09 2013  01 35  -21.0069 26029.0 -03491.5 -07.6400 26262.1
 28 09 2013  01 36  -21.0069 26028.9 -03491.5 -07.6399 26262.1
 28 09 2013  01 37  -21.0068 26028.9 -03491.4 -07.6399 26262.0
 28 09 2013  01 38  -21.0068 26028.8 -03491.4 -07.6397 26261.9
 28 09 2013  01 39  -21.0067 26028.7 -03491.3 -07.6397 26261.8
 28 09 2013  01 40  -21.0067 26028.7 -03491.3 -07.6396 26261.8
 28 09 2013  01 41  -21.0067 26028.6 -03491.3 -07.6396 26261.7
 28 09 2013  01 42  -21.0067 26028.6 -03491.3 -07.6395 26261.7
 28 09 2013  01 43  -21.0066 26028.6 -03491.2 -07.6395 26261.7
 28 09 2013  01 44  -21.0066 26028.6 -03491.3 -07.6396 26261.7
 28 09 2013  01 45  -21.0066 26028.6 -03491.3 -07.6396 26261.7
 28 09 2013  01 46  -21.0066 26028.6 -03491.3 -07.6396 26261.7
 28 09 2013  01 47  -21.0066 26028.6 -03491.2 -07.6395 26261.7
 28 09 2013  01 48  -21.0066 26028.6 -03491.2 -07.6395 26261.7
 28 09 2013  01 49  -21.0065 26028.7 -03491.3 -07.6396 26261.8
 28 09 2013  01 50  -21.0065 26028.6 -03491.2 -07.6395 26261.7
 28 09 2013  01 51  -21.0066 26028.5 -03491.2 -07.6394 26261.6
 28 09 2013  01 52  -21.0067 26028.5 -03491.2 -07.6394 26261.6
 28 09 2013  01 53  -21.0066 26028.4 -03491.1 -07.6393 26261.5
 28 09 2013  01 54  -21.0067 26028.3 -03491.1 -07.6392 26261.4
 28 09 2013  01 55  -21.0067 26028.4 -03491.1 -07.6392 26261.4
 28 09 2013  01 56  -21.0067 26028.3 -03491.0 -07.6391 26261.4
 28 09 2013  01 57  -21.0067 26028.2 -03491.0 -07.6390 26261.3
 28 09 2013  01 58  -21.0066 26028.3 -03491.0 -07.6391 26261.3
 28 09 2013  01 59  -21.0066 26028.3 -03491.0 -07.6391 26261.4
 28 09 2013  02 00  -21.0066 26028.3 -03491.0 -07.6391 26261.3
 28 09 2013  02 01  -21.0066 26028.3 -03491.0 -07.6391 26261.3
 28 09 2013  02 02  -21.0067 26028.2 -03491.0 -07.6391 26261.3
 28 09 2013  02 03  -21.0066 26028.2 -03491.0 -07.6391 26261.3
 28 09 2013  02 04  -21.0067 26028.2 -03491.0 -07.6391 26261.2
 28 09 2013  02 05  -21.0067 26028.1 -03491.0 -07.6391 26261.2
 28 09 2013  02 06  -21.0068 26028.0 -03490.9 -07.6389 26261.1
 28 09 2013  02 07  -21.0067 26028.0 -03490.9 -07.6389 26261.1
 28 09 2013  02 08  -21.0066 26028.1 -03490.9 -07.6389 26261.2
 28 09 2013  02 09  -21.0065 26028.3 -03491.0 -07.6391 26261.4
 28 09 2013  02 10  -21.0064 26028.2 -03491.0 -07.6391 26261.3
 28 09 2013  02 11  -21.0066 26028.0 -03490.9 -07.6390 26261.1
 28 09 2013  02 12  -21.0068 26028.1 -03491.0 -07.6391 26261.2
 28 09 2013  02 13  -21.0068 26028.2 -03491.0 -07.6392 26261.3
 28 09 2013  02 14  -21.0069 26028.2 -03491.0 -07.6392 26261.3
 28 09 2013  02 15  -21.0068 26028.2 -03491.0 -07.6392 26261.3
 28 09 2013  02 16  -21.0070 26027.9 -03490.9 -07.6390 26261.0
 28 09 2013  02 17  -21.0069 26028.3 -03491.0 -07.6391 26261.3
 28 09 2013  02 18  -21.0071 26028.1 -03491.0 -07.6392 26261.2
 28 09 2013  02 19  -21.0070 26028.1 -03491.0 -07.6391 26261.2
 28 09 2013  02 20  -21.0068 26028.4 -03491.1 -07.6393 26261.5
 28 09 2013  02 21  -21.0067 26028.7 -03491.3 -07.6397 26261.8
 28 09 2013  02 22  -21.0066 26028.8 -03491.3 -07.6397 26261.9
 28 09 2013  02 23  -21.0069 26028.3 -03491.1 -07.6394 26261.4
 28 09 2013  02 24  -21.0068 26028.6 -03491.2 -07.6395 26261.7
 28 09 2013  02 25  -21.0069 26028.5 -03491.2 -07.6395 26261.6
 28 09 2013  02 26  -21.0069 26028.7 -03491.3 -07.6396 26261.8
 28 09 2013  02 27  -21.0071 26028.5 -03491.2 -07.6395 26261.6
 28 09 2013  02 28  -21.0071 26028.6 -03491.3 -07.6395 26261.7
 28 09 2013  02 29  -21.0073 26028.4 -03491.1 -07.6393 26261.5
 28 09 2013  02 30  -21.0073 26028.4 -03491.1 -07.6394 26261.5
 28 09 2013  02 31  -21.0073 26028.5 -03491.2 -07.6394 26261.6
 28 09 2013  02 32  -21.0073 26028.5 -03491.2 -07.6395 26261.6
 28 09 2013  02 33  -21.0076 26028.1 -03491.1 -07.6393 26261.2
 28 09 2013  02 34  -21.0077 26028.2 -03491.0 -07.6392 26261.2
 28 09 2013  02 35  -21.0077 26028.2 -03491.1 -07.6393 26261.3
 28 09 2013  02 36  -21.0077 26028.2 -03491.0 -07.6392 26261.2
 28 09 2013  02 37  -21.0079 26028.0 -03491.0 -07.6391 26261.1
 28 09 2013  02 38  -21.0080 26027.9 -03491.0 -07.6391 26261.0
 28 09 2013  02 39  -21.0081 26027.7 -03490.8 -07.6389 26260.8
 28 09 2013  02 40  -21.0081 26027.8 -03490.9 -07.6390 26260.9
 28 09 2013  02 41  -21.0082 26027.7 -03490.8 -07.6389 26260.7
 28 09 2013  02 42  -21.0083 26027.5 -03490.8 -07.6388 26260.6
 28 09 2013  02 43  -21.0082 26027.5 -03490.8 -07.6388 26260.6
 28 09 2013  02 44  -21.0082 26027.4 -03490.7 -07.6387 26260.5
 28 09 2013  02 45  -21.0082 26027.4 -03490.8 -07.6388 26260.5
 28 09 2013  02 46  -21.0082 26027.5 -03490.8 -07.6389 26260.6
 28 09 2013  02 47  -21.0082 26027.4 -03490.8 -07.6389 26260.4
 28 09 2013  02 48  -21.0083 26027.1 -03490.7 -07.6387 26260.1
 28 09 2013  02 49  -21.0083 26027.4 -03490.8 -07.6390 26260.4
 28 09 2013  02 50  -21.0083 26027.3 -03490.9 -07.6391 26260.4
 28 09 2013  02 51  -21.0084 26027.2 -03490.8 -07.6390 26260.3
 28 09 2013  02 52  -21.0085 26027.2 -03490.8 -07.6390 26260.3
 28 09 2013  02 53  -21.0086 26027.3 -03490.9 -07.6391 26260.4
 28 09 2013  02 54  -21.0088 26027.2 -03490.9 -07.6392 26260.2
 28 09 2013  02 55  -21.0089 26027.1 -03490.9 -07.6391 26260.2
 28 09 2013  02 56  -21.0091 26027.1 -03490.9 -07.6393 26260.2
 28 09 2013  02 57  -21.0092 26027.2 -03490.9 -07.6393 26260.2
 28 09 2013  02 58  -21.0092 26027.1 -03491.0 -07.6393 26260.2
 28 09 2013  02 59  -21.0093 26027.0 -03490.9 -07.6393 26260.1
 28 09 2013  03 00  -21.0094 26027.1 -03491.0 -07.6394 26260.2
 28 09 2013  03 01  -21.0095 26027.2 -03491.1 -07.6395 26260.3
 28 09 2013  03 02  -21.0097 26027.2 -03491.1 -07.6396 26260.2
 28 09 2013  03 03  -21.0098 26027.1 -03491.1 -07.6396 26260.2
 28 09 2013  03 04  -21.0099 26027.1 -03491.1 -07.6397 26260.2
 28 09 2013  03 05  -21.0101 26027.1 -03491.1 -07.6397 26260.2
 28 09 2013  03 06  -21.0102 26027.0 -03491.2 -07.6398 26260.1
 28 09 2013  03 07  -21.0104 26027.1 -03491.2 -07.6399 26260.2
 28 09 2013  03 08  -21.0106 26027.0 -03491.2 -07.6399 26260.1
 28 09 2013  03 09  -21.0108 26027.0 -03491.2 -07.6400 26260.1
 28 09 2013  03 10  -21.0109 26027.0 -03491.3 -07.6401 26260.1
 28 09 2013  03 11  -21.0109 26027.0 -03491.3 -07.6402 26260.1
 28 09 2013  03 12  -21.0110 26026.9 -03491.3 -07.6402 26260.1
 28 09 2013  03 13  -21.0111 26026.9 -03491.4 -07.6403 26260.1
 28 09 2013  03 14  -21.0112 26026.9 -03491.4 -07.6403 26260.0
 28 09 2013  03 15  -21.0113 26026.9 -03491.4 -07.6404 26260.0
 28 09 2013  03 16  -21.0114 26026.9 -03491.4 -07.6405 26260.0
 28 09 2013  03 17  -21.0115 26026.8 -03491.5 -07.6405 26259.9
 28 09 2013  03 18  -21.0116 26026.8 -03491.5 -07.6406 26259.9
 28 09 2013  03 19  -21.0117 26026.7 -03491.5 -07.6406 26259.9
 28 09 2013  03 20  -21.0117 26026.7 -03491.5 -07.6406 26259.8
 28 09 2013  03 21  -21.0118 26026.6 -03491.5 -07.6407 26259.8
 28 09 2013  03 22  -21.0119 26026.6 -03491.5 -07.6407 26259.7
 28 09 2013  03 23  -21.0120 26026.6 -03491.6 -07.6408 26259.7
 28 09 2013  03 24  -21.0123 26026.5 -03491.6 -07.6409 26259.7
 28 09 2013  03 25  -21.0126 26026.5 -03491.6 -07.6410 26259.7
 28 09 2013  03 26  -21.0129 26026.6 -03491.7 -07.6411 26259.8
 28 09 2013  03 27  -21.0131 26026.6 -03491.7 -07.6412 26259.7
 28 09 2013  03 28  -21.0134 26026.6 -03491.7 -07.6411 26259.8
 28 09 2013  03 29  -21.0136 26026.7 -03491.8 -07.6412 26259.9
 28 09 2013  03 30  -21.0139 26026.7 -03491.8 -07.6412 26259.9
 28 09 2013  03 31  -21.0141 26026.7 -03491.7 -07.6412 26259.9
 28 09 2013  03 32  -21.0142 26026.7 -03491.7 -07.6411 26259.8
 28 09 2013  03 33  -21.0143 26026.7 -03491.7 -07.6411 26259.8
 28 09 2013  03 34  -21.0143 26026.6 -03491.7 -07.6411 26259.8
 28 09 2013  03 35  -21.0144 26026.7 -03491.7 -07.6411 26259.8
 28 09 2013  03 36  -21.0144 26026.6 -03491.7 -07.6411 26259.8
 28 09 2013  03 37  -21.0143 26026.6 -03491.7 -07.6410 26259.8
 28 09 2013  03 38  -21.0144 26026.7 -03491.7 -07.6410 26259.8
 28 09 2013  03 39  -21.0145 26026.7 -03491.7 -07.6410 26259.8
 28 09 2013  03 40  -21.0145 26026.6 -03491.6 -07.6409 26259.8
 28 09 2013  03 41  -21.0146 26026.6 -03491.6 -07.6409 26259.8
 28 09 2013  03 42  -21.0146 26026.6 -03491.6 -07.6408 26259.8
 28 09 2013  03 43  -21.0146 26026.6 -03491.5 -07.6407 26259.8
 28 09 2013  03 44  -21.0146 26026.6 -03491.5 -07.6407 26259.8
 28 09 2013  03 45  -21.0146 26026.6 -03491.5 -07.6406 26259.8
 28 09 2013  03 46  -21.0146 26026.7 -03491.5 -07.6406 26259.8
 28 09 2013  03 47  -21.0145 26026.8 -03491.5 -07.6407 26260.0
 28 09 2013  03 48  -21.0143 26026.9 -03491.5 -07.6406 26260.0
 28 09 2013  03 49  -21.0143 26026.7 -03491.4 -07.6404 26259.8
 28 09 2013  03 50  -21.0141 26026.9 -03491.4 -07.6404 26260.0
 28 09 2013  03 51  -21.0142 26027.1 -03491.6 -07.6407 26260.3
 28 09 2013  03 52  -21.0143 26027.1 -03491.5 -07.6406 26260.2
 28 09 2013  03 53  -21.0142 26027.0 -03491.5 -07.6404 26260.2
 28 09 2013  03 54  -21.0139 26026.9 -03491.4 -07.6403 26260.1
 28 09 2013  03 55  -21.0138 26027.0 -03491.3 -07.6402 26260.1
 28 09 2013  03 56  -21.0137 26027.0 -03491.3 -07.6402 26260.1
 28 09 2013  03 57  -21.0134 26026.9 -03491.3 -07.6401 26260.1
 28 09 2013  03 58  -21.0131 26026.9 -03491.2 -07.6400 26260.0
 28 09 2013  03 59  -21.0129 26027.0 -03491.2 -07.6399 26260.1
 28 09 2013  04 00  -21.0128 26027.0 -03491.3 -07.6400 26260.1
 28 09 2013  04 01  -21.0127 26027.0 -03491.2 -07.6400 26260.1
 28 09 2013  04 02  -21.0124 26027.0 -03491.2 -07.6399 26260.2
 28 09 2013  04 03  -21.0122 26027.0 -03491.2 -07.6399 26260.1
 28 09 2013  04 04  -21.0120 26027.1 -03491.2 -07.6399 26260.2
 28 09 2013  04 05  -21.0118 26027.1 -03491.2 -07.6399 26260.2
 28 09 2013  04 06  -21.0116 26027.1 -03491.2 -07.6399 26260.2
 28 09 2013  04 07  -21.0115 26027.3 -03491.3 -07.6400 26260.4
 28 09 2013  04 08  -21.0113 26027.4 -03491.4 -07.6401 26260.5
 28 09 2013  04 09  -21.0113 26027.5 -03491.4 -07.6402 26260.6
 28 09 2013  04 10  -21.0112 26027.6 -03491.5 -07.6403 26260.7
 28 09 2013  04 11  -21.0111 26027.7 -03491.5 -07.6403 26260.9
 28 09 2013  04 12  -21.0111 26027.7 -03491.5 -07.6403 26260.9
 28 09 2013  04 13  -21.0109 26027.8 -03491.5 -07.6403 26260.9
 28 09 2013  04 14  -21.0108 26027.8 -03491.5 -07.6403 26260.9
 28 09 2013  04 15  -21.0106 26027.8 -03491.5 -07.6402 26260.9
 28 09 2013  04 16  -21.0105 26027.8 -03491.5 -07.6403 26261.0
 28 09 2013  04 17  -21.0103 26027.9 -03491.5 -07.6403 26261.0
 28 09 2013  04 18  -21.0101 26027.9 -03491.5 -07.6403 26261.0
 28 09 2013  04 19  -21.0099 26027.9 -03491.5 -07.6403 26261.0
 28 09 2013  04 20  -21.0098 26028.0 -03491.6 -07.6404 26261.2
 28 09 2013  04 21  -21.0096 26028.1 -03491.6 -07.6404 26261.2
 28 09 2013  04 22  -21.0095 26028.0 -03491.6 -07.6404 26261.2
 28 09 2013  04 23  -21.0093 26028.0 -03491.5 -07.6404 26261.1
 28 09 2013  04 24  -21.0094 26028.0 -03491.6 -07.6404 26261.1
 28 09 2013  04 25  -21.0095 26028.0 -03491.6 -07.6405 26261.2
 28 09 2013  04 26  -21.0095 26028.0 -03491.6 -07.6405 26261.2
 28 09 2013  04 27  -21.0094 26028.1 -03491.7 -07.6406 26261.2
 28 09 2013  04 28  -21.0093 26028.0 -03491.6 -07.6405 26261.2
 28 09 2013  04 29  -21.0092 26028.0 -03491.6 -07.6405 26261.2
 28 09 2013  04 30  -21.0090 26028.0 -03491.6 -07.6405 26261.2
 28 09 2013  04 31  -21.0090 26028.1 -03491.7 -07.6406 26261.2
 28 09 2013  04 32  -21.0090 26028.1 -03491.7 -07.6406 26261.3
 28 09 2013  04 33  -21.0090 26028.2 -03491.7 -07.6406 26261.4
 28 09 2013  04 34  -21.0091 26028.2 -03491.7 -07.6407 26261.4
 28 09 2013  04 35  -21.0092 26028.3 -03491.8 -07.6408 26261.5
 28 09 2013  04 36  -21.0095 26028.4 -03491.8 -07.6408 26261.6
 28 09 2013  04 37  -21.0095 26028.4 -03491.8 -07.6408 26261.6
 28 09 2013  04 38  -21.0096 26028.5 -03491.8 -07.6408 26261.6
 28 09 2013  04 39  -21.0097 26028.5 -03491.8 -07.6408 26261.7
 28 09 2013  04 40  -21.0097 26028.6 -03491.8 -07.6408 26261.7
 28 09 2013  04 41  -21.0097 26028.6 -03491.8 -07.6408 26261.8
 28 09 2013  04 42  -21.0098 26028.7 -03491.8 -07.6407 26261.8
 28 09 2013  04 43  -21.0099 26028.7 -03491.8 -07.6407 26261.9
 28 09 2013  04 44  -21.0099 26028.8 -03491.8 -07.6407 26262.0
 28 09 2013  04 45  -21.0099 26028.9 -03491.8 -07.6407 26262.0
 28 09 2013  04 46  -21.0099 26028.9 -03491.8 -07.6407 26262.1
 28 09 2013  04 47  -21.0100 26028.9 -03491.8 -07.6407 26262.1
 28 09 2013  04 48  -21.0099 26029.0 -03491.8 -07.6407 26262.1
 28 09 2013  04 49  -21.0098 26028.9 -03491.8 -07.6405 26262.1
 28 09 2013  04 50  -21.0097 26028.9 -03491.7 -07.6405 26262.1
 28 09 2013  04 51  -21.0096 26028.9 -03491.7 -07.6405 26262.1
 28 09 2013  04 52  -21.0097 26028.9 -03491.7 -07.6404 26262.0
 28 09 2013  04 53  -21.0097 26028.8 -03491.7 -07.6404 26262.0
 28 09 2013  04 54  -21.0097 26028.9 -03491.7 -07.6404 26262.0
 28 09 2013  04 55  -21.0097 26028.9 -03491.7 -07.6404 26262.1
 28 09 2013  04 56  -21.0097 26028.9 -03491.7 -07.6404 26262.1
 28 09 2013  04 57  -21.0096 26028.9 -03491.6 -07.6403 26262.1
 28 09 2013  04 58  -21.0095 26028.9 -03491.6 -07.6402 26262.0
 28 09 2013  04 59  -21.0094 26028.9 -03491.6 -07.6402 26262.1
 28 09 2013  05 00  -21.0094 26028.9 -03491.6 -07.6402 26262.1
 28 09 2013  05 01  -21.0094 26029.0 -03491.6 -07.6403 26262.2
 28 09 2013  05 02  -21.0093 26029.1 -03491.6 -07.6403 26262.3
 28 09 2013  05 03  -21.0093 26029.2 -03491.6 -07.6402 26262.3
 28 09 2013  05 04  -21.0092 26029.2 -03491.6 -07.6402 26262.3
 28 09 2013  05 05  -21.0091 26029.3 -03491.6 -07.6402 26262.4
 28 09 2013  05 06  -21.0091 26029.3 -03491.6 -07.6402 26262.4
 28 09 2013  05 07  -21.0090 26029.3 -03491.6 -07.6401 26262.4
 28 09 2013  05 08  -21.0090 26029.3 -03491.6 -07.6401 26262.4
 28 09 2013  05 09  -21.0089 26029.3 -03491.6 -07.6401 26262.4
 28 09 2013  05 10  -21.0090 26029.3 -03491.6 -07.6400 26262.4
 28 09 2013  05 11  -21.0090 26029.3 -03491.6 -07.6400 26262.4
 28 09 2013  05 12  -21.0090 26029.3 -03491.5 -07.6400 26262.4
 28 09 2013  05 13  -21.0090 26029.3 -03491.5 -07.6400 26262.4
 28 09 2013  05 14  -21.0089 26029.3 -03491.5 -07.6400 26262.4
 28 09 2013  05 15  -21.0088 26029.3 -03491.6 -07.6400 26262.5
 28 09 2013  05 16  -21.0088 26029.4 -03491.6 -07.6400 26262.5
 28 09 2013  05 17  -21.0087 26029.4 -03491.6 -07.6400 26262.6
 28 09 2013  05 18  -21.0086 26029.4 -03491.6 -07.6400 26262.6
 28 09 2013  05 19  -21.0086 26029.5 -03491.6 -07.6400 26262.6
 28 09 2013  05 20  -21.0086 26029.5 -03491.6 -07.6400 26262.6
 28 09 2013  05 21  -21.0085 26029.5 -03491.5 -07.6399 26262.6
 28 09 2013  05 22  -21.0085 26029.5 -03491.5 -07.6399 26262.6
 28 09 2013  05 23  -21.0085 26029.4 -03491.5 -07.6399 26262.5
 28 09 2013  05 24  -21.0084 26029.4 -03491.5 -07.6399 26262.5
 28 09 2013  05 25  -21.0084 26029.4 -03491.5 -07.6398 26262.6
 28 09 2013  05 26  -21.0084 26029.5 -03491.5 -07.6399 26262.6
 28 09 2013  05 27  -21.0083 26029.5 -03491.5 -07.6399 26262.6
 28 09 2013  05 28  -21.0082 26029.5 -03491.5 -07.6399 26262.7
 28 09 2013  05 29  -21.0082 26029.6 -03491.5 -07.6399 26262.7
 28 09 2013  05 30  -21.0081 26029.5 -03491.5 -07.6398 26262.7
 28 09 2013  05 31  -21.0081 26029.5 -03491.5 -07.6398 26262.6
 28 09 2013  05 32  -21.0080 26029.5 -03491.5 -07.6398 26262.6
 28 09 2013  05 33  -21.0080 26029.5 -03491.5 -07.6398 26262.6
 28 09 2013  05 34  -21.0080 26029.5 -03491.5 -07.6398 26262.7
 28 09 2013  05 35  -21.0079 26029.5 -03491.5 -07.6398 26262.6
 28 09 2013  05 36  -21.0078 26029.5 -03491.4 -07.6397 26262.6
 28 09 2013  05 37  -21.0076 26029.5 -03491.5 -07.6397 26262.6
 28 09 2013  05 38  -21.0074 26029.5 -03491.5 -07.6397 26262.6
 28 09 2013  05 39  -21.0073 26029.5 -03491.5 -07.6398 26262.7
 28 09 2013  05 40  -21.0072 26029.6 -03491.5 -07.6399 26262.7
 28 09 2013  05 41  -21.0071 26029.7 -03491.6 -07.6399 26262.8
 28 09 2013  05 42  -21.0070 26029.7 -03491.6 -07.6400 26262.9
 28 09 2013  05 43  -21.0069 26029.8 -03491.6 -07.6400 26262.9
 28 09 2013  05 44  -21.0068 26029.8 -03491.7 -07.6401 26263.0
 28 09 2013  05 45  -21.0067 26029.8 -03491.7 -07.6401 26263.0
 28 09 2013  05 46  -21.0066 26029.8 -03491.7 -07.6401 26263.0
 28 09 2013  05 47  -21.0065 26029.8 -03491.7 -07.6402 26262.9
 28 09 2013  05 48  -21.0064 26029.9 -03491.7 -07.6402 26263.0
 28 09 2013  05 49  -21.0063 26029.9 -03491.7 -07.6402 26263.0
 28 09 2013  05 50  -21.0063 26029.9 -03491.8 -07.6403 26263.0
 28 09 2013  05 51  -21.0061 26029.9 -03491.8 -07.6403 26263.0
 28 09 2013  05 52  -21.0060 26029.8 -03491.8 -07.6403 26263.0
 28 09 2013  05 53  -21.0060 26029.9 -03491.7 -07.6402 26263.0
 28 09 2013  05 54  -21.0059 26029.9 -03491.8 -07.6403 26263.0
 28 09 2013  05 55  -21.0058 26029.9 -03491.8 -07.6403 26263.1
 28 09 2013  05 56  -21.0058 26029.9 -03491.9 -07.6405 26263.1
 28 09 2013  05 57  -21.0056 26029.9 -03491.8 -07.6404 26263.1
 28 09 2013  05 58  -21.0055 26030.0 -03491.8 -07.6404 26263.1
 28 09 2013  05 59  -21.0054 26030.0 -03491.9 -07.6404 26263.1
 28 09 2013  06 00  -21.0053 26030.0 -03491.9 -07.6405 26263.2
 28 09 2013  06 01  -21.0053 26030.0 -03491.9 -07.6405 26263.2
 28 09 2013  06 02  -21.0052 26030.1 -03491.9 -07.6406 26263.3
 28 09 2013  06 03  -21.0050 26030.1 -03491.9 -07.6406 26263.2
 28 09 2013  06 04  -21.0049 26030.1 -03492.0 -07.6406 26263.3
 28 09 2013  06 05  -21.0048 26030.1 -03492.0 -07.6406 26263.3
 28 09 2013  06 06  -21.0047 26030.1 -03492.0 -07.6407 26263.2
 28 09 2013  06 07  -21.0045 26030.0 -03492.0 -07.6407 26263.2
 28 09 2013  06 08  -21.0045 26030.0 -03491.9 -07.6406 26263.2
 28 09 2013  06 09  -21.0044 26030.0 -03492.0 -07.6407 26263.2
 28 09 2013  06 10  -21.0043 26030.0 -03492.0 -07.6407 26263.2
 28 09 2013  06 11  -21.0043 26029.9 -03492.0 -07.6408 26263.1
 28 09 2013  06 12  -21.0042 26029.9 -03492.0 -07.6407 26263.1
 28 09 2013  06 13  -21.0042 26029.9 -03492.0 -07.6408 26263.1
 28 09 2013  06 14  -21.0042 26029.9 -03492.0 -07.6408 26263.1
 28 09 2013  06 15  -21.0042 26029.9 -03492.0 -07.6408 26263.1
 28 09 2013  06 16  -21.0042 26030.0 -03492.1 -07.6409 26263.2
 28 09 2013  06 17  -21.0042 26030.0 -03492.1 -07.6409 26263.2
 28 09 2013  06 18  -21.0042 26030.0 -03492.1 -07.6410 26263.2
 28 09 2013  06 19  -21.0042 26030.0 -03492.1 -07.6411 26263.2
 28 09 2013  06 20  -21.0042 26030.0 -03492.2 -07.6412 26263.2
 28 09 2013  06 21  -21.0041 26030.1 -03492.2 -07.6412 26263.3
 28 09 2013  06 22  -21.0040 26030.1 -03492.2 -07.6413 26263.3
 28 09 2013  06 23  -21.0038 26030.1 -03492.2 -07.6413 26263.3
 28 09 2013  06 24  -21.0038 26030.1 -03492.3 -07.6413 26263.3
 28 09 2013  06 25  -21.0036 26030.1 -03492.3 -07.6413 26263.3
 28 09 2013  06 26  -21.0035 26030.0 -03492.3 -07.6413 26263.3
 28 09 2013  06 27  -21.0034 26030.0 -03492.2 -07.6413 26263.2
 28 09 2013  06 28  -21.0034 26029.9 -03492.2 -07.6413 26263.1
 28 09 2013  06 29  -21.0034 26029.9 -03492.2 -07.6412 26263.1
 28 09 2013  06 30  -21.0034 26029.8 -03492.2 -07.6413 26263.0
 28 09 2013  06 31  -21.0034 26029.8 -03492.2 -07.6413 26263.0
 28 09 2013  06 32  -21.0034 26029.9 -03492.3 -07.6414 26263.1
 28 09 2013  06 33  -21.0035 26029.9 -03492.3 -07.6414 26263.1
 28 09 2013  06 34  -21.0036 26029.9 -03492.3 -07.6414 26263.1
 28 09 2013  06 35  -21.0036 26029.9 -03492.3 -07.6415 26263.1
 28 09 2013  06 36  -21.0036 26030.0 -03492.4 -07.6416 26263.2
 28 09 2013  06 37  -21.0036 26030.0 -03492.4 -07.6416 26263.3
 28 09 2013  06 38  -21.0035 26030.1 -03492.4 -07.6416 26263.3
 28 09 2013  06 39  -21.0035 26030.1 -03492.4 -07.6417 26263.4
 28 09 2013  06 40  -21.0034 26030.2 -03492.5 -07.6417 26263.4
 28 09 2013  06 41  -21.0033 26030.2 -03492.5 -07.6418 26263.5
 28 09 2013  06 42  -21.0032 26030.3 -03492.5 -07.6419 26263.5
 28 09 2013  06 43  -21.0031 26030.3 -03492.6 -07.6419 26263.6
 28 09 2013  06 44  -21.0031 26030.4 -03492.6 -07.6420 26263.6
 28 09 2013  06 45  -21.0030 26030.4 -03492.7 -07.6421 26263.6
 28 09 2013  06 46  -21.0030 26030.4 -03492.7 -07.6422 26263.7
 28 09 2013  06 47  -21.0028 26030.5 -03492.7 -07.6422 26263.8
 28 09 2013  06 48  -21.0028 26030.5 -03492.8 -07.6423 26263.8
 28 09 2013  06 49  -21.0027 26030.5 -03492.8 -07.6423 26263.8
 28 09 2013  06 50  -21.0027 26030.5 -03492.8 -07.6423 26263.8
 28 09 2013  06 51  -21.0026 26030.4 -03492.8 -07.6423 26263.7
 28 09 2013  06 52  -21.0025 26030.4 -03492.8 -07.6424 26263.7
 28 09 2013  06 53  -21.0024 26030.4 -03492.8 -07.6424 26263.7
 28 09 2013  06 54  -21.0023 26030.4 -03492.8 -07.6424 26263.7
 28 09 2013  06 55  -21.0024 26030.4 -03492.8 -07.6424 26263.7
 28 09 2013  06 56  -21.0022 26030.4 -03492.8 -07.6424 26263.7
 28 09 2013  06 57  -21.0022 26030.4 -03492.8 -07.6424 26263.7
 28 09 2013  06 58  -21.0022 26030.4 -03492.8 -07.6424 26263.7
 28 09 2013  06 59  -21.0021 26030.3 -03492.8 -07.6424 26263.6
 28 09 2013  07 00  -21.0022 26030.4 -03492.8 -07.6424 26263.7
 28 09 2013  07 01  -21.0021 26030.3 -03492.8 -07.6424 26263.6
 28 09 2013  07 02  -21.0021 26030.3 -03492.8 -07.6424 26263.6
 28 09 2013  07 03  -21.0021 26030.2 -03492.8 -07.6425 26263.5
 28 09 2013  07 04  -21.0021 26030.3 -03492.9 -07.6425 26263.6
 28 09 2013  07 05  -21.0020 26030.4 -03492.9 -07.6426 26263.7
 28 09 2013  07 06  -21.0020 26030.4 -03492.9 -07.6426 26263.7
 28 09 2013  07 07  -21.0020 26030.4 -03493.0 -07.6427 26263.8
 28 09 2013  07 08  -21.0019 26030.5 -03493.0 -07.6427 26263.8
 28 09 2013  07 09  -21.0019 26030.4 -03493.0 -07.6427 26263.7
 28 09 2013  07 10  -21.0019 26030.4 -03493.0 -07.6427 26263.7
 28 09 2013  07 11  -21.0017 26030.4 -03492.9 -07.6426 26263.7
 28 09 2013  07 12  -21.0016 26030.4 -03492.9 -07.6426 26263.7
 28 09 2013  07 13  -21.0015 26030.4 -03492.9 -07.6427 26263.7
 28 09 2013  07 14  -21.0015 26030.3 -03492.9 -07.6426 26263.6
 28 09 2013  07 15  -21.0013 26030.3 -03492.9 -07.6427 26263.6
 28 09 2013  07 16  -21.0013 26030.3 -03492.9 -07.6427 26263.6
 28 09 2013  07 17  -21.0012 26030.3 -03493.0 -07.6428 26263.6
 28 09 2013  07 18  -21.0012 26030.3 -03493.0 -07.6428 26263.6
 28 09 2013  07 19  -21.0011 26030.3 -03493.0 -07.6429 26263.7
 28 09 2013  07 20  -21.0011 26030.4 -03493.1 -07.6430 26263.7
 28 09 2013  07 21  -21.0010 26030.4 -03493.1 -07.6431 26263.7
 28 09 2013  07 22  -21.0010 26030.4 -03493.1 -07.6431 26263.8
 28 09 2013  07 23  -21.0010 26030.5 -03493.1 -07.6431 26263.8
 28 09 2013  07 24  -21.0009 26030.5 -03493.2 -07.6432 26263.8
 28 09 2013  07 25  -21.0009 26030.5 -03493.2 -07.6432 26263.8
 28 09 2013  07 26  -21.0008 26030.5 -03493.2 -07.6432 26263.8
 28 09 2013  07 27  -21.0007 26030.5 -03493.2 -07.6433 26263.9
 28 09 2013  07 28  -21.0006 26030.5 -03493.2 -07.6433 26263.8
 28 09 2013  07 29  -21.0005 26030.5 -03493.2 -07.6433 26263.8
 28 09 2013  07 30  -21.0004 26030.5 -03493.3 -07.6433 26263.8
 28 09 2013  07 31  -21.0003 26030.5 -03493.2 -07.6433 26263.8
 28 09 2013  07 32  -21.0002 26030.4 -03493.3 -07.6434 26263.8
 28 09 2013  07 33  -21.0001 26030.4 -03493.3 -07.6434 26263.8
 28 09 2013  07 34  -21.0001 26030.4 -03493.3 -07.6434 26263.8
 28 09 2013  07 35  -20.9999 26030.4 -03493.3 -07.6434 26263.8
 28 09 2013  07 36  -20.9999 26030.5 -03493.3 -07.6434 26263.8
 28 09 2013  07 37  -20.9998 26030.5 -03493.3 -07.6434 26263.8
 28 09 2013  07 38  -20.9998 26030.5 -03493.3 -07.6435 26263.9
 28 09 2013  07 39  -20.9997 26030.5 -03493.4 -07.6435 26263.9
 28 09 2013  07 40  -20.9996 26030.6 -03493.4 -07.6436 26263.9
 28 09 2013  07 41  -20.9996 26030.5 -03493.4 -07.6436 26263.9
 28 09 2013  07 42  -20.9995 26030.5 -03493.4 -07.6436 26263.9
 28 09 2013  07 43  -20.9995 26030.5 -03493.4 -07.6436 26263.9
 28 09 2013  07 44  -20.9994 26030.5 -03493.4 -07.6437 26263.9
 28 09 2013  07 45  -20.9993 26030.5 -03493.4 -07.6437 26263.9
 28 09 2013  07 46  -20.9992 26030.5 -03493.4 -07.6437 26263.8
 28 09 2013  07 47  -20.9991 26030.4 -03493.4 -07.6438 26263.8
 28 09 2013  07 48  -20.9991 26030.4 -03493.4 -07.6437 26263.8
 28 09 2013  07 49  -20.9991 26030.4 -03493.5 -07.6438 26263.8
 28 09 2013  07 50  -20.9991 26030.4 -03493.5 -07.6439 26263.8
 28 09 2013  07 51  -20.9991 26030.4 -03493.5 -07.6439 26263.8
 28 09 2013  07 52  -20.9991 26030.4 -03493.5 -07.6440 26263.8
 28 09 2013  07 53  -20.9990 26030.4 -03493.5 -07.6439 26263.8
 28 09 2013  07 54  -20.9990 26030.4 -03493.5 -07.6440 26263.8
 28 09 2013  07 55  -20.9990 26030.3 -03493.5 -07.6440 26263.7
 28 09 2013  07 56  -20.9990 26030.3 -03493.6 -07.6440 26263.7
 28 09 2013  07 57  -20.9989 26030.3 -03493.6 -07.6441 26263.7
 28 09 2013  07 58  -20.9989 26030.3 -03493.6 -07.6441 26263.7
 28 09 2013  07 59  -20.9988 26030.4 -03493.6 -07.6442 26263.8
 28 09 2013  08 00  -20.9988 26030.3 -03493.6 -07.6442 26263.7
 28 09 2013  08 01  -20.9987 26030.3 -03493.6 -07.6442 26263.7
 28 09 2013  08 02  -20.9987 26030.4 -03493.7 -07.6442 26263.8
 28 09 2013  08 03  -20.9985 26030.3 -03493.6 -07.6442 26263.7
 28 09 2013  08 04  -20.9984 26030.3 -03493.6 -07.6442 26263.7
 28 09 2013  08 05  -20.9983 26030.3 -03493.6 -07.6442 26263.7
 28 09 2013  08 06  -20.9982 26030.3 -03493.6 -07.6442 26263.7
 28 09 2013  08 07  -20.9980 26030.3 -03493.6 -07.6442 26263.7
 28 09 2013  08 08  -20.9978 26030.3 -03493.6 -07.6442 26263.7
 28 09 2013  08 09  -20.9976 26030.3 -03493.7 -07.6443 26263.7
 28 09 2013  08 10  -20.9976 26030.3 -03493.7 -07.6443 26263.7
 28 09 2013  08 11  -20.9975 26030.3 -03493.7 -07.6444 26263.7
 28 09 2013  08 12  -20.9974 26030.3 -03493.7 -07.6443 26263.7
 28 09 2013  08 13  -20.9972 26030.3 -03493.7 -07.6443 26263.7
 28 09 2013  08 14  -20.9971 26030.2 -03493.7 -07.6444 26263.6
 28 09 2013  08 15  -20.9968 26030.2 -03493.7 -07.6443 26263.6
 28 09 2013  08 16  -20.9966 26030.1 -03493.6 -07.6443 26263.5
 28 09 2013  08 17  -20.9965 26030.1 -03493.6 -07.6443 26263.5
 28 09 2013  08 18  -20.9963 26030.0 -03493.6 -07.6443 26263.4
 28 09 2013  08 19  -20.9961 26030.0 -03493.6 -07.6443 26263.4
 28 09 2013  08 20  -20.9959 26030.0 -03493.6 -07.6443 26263.4
 28 09 2013  08 21  -20.9958 26029.9 -03493.6 -07.6442 26263.3
 28 09 2013  08 22  -20.9956 26029.9 -03493.6 -07.6442 26263.3
 28 09 2013  08 23  -20.9955 26029.9 -03493.6 -07.6442 26263.3
 28 09 2013  08 24  -20.9952 26029.9 -03493.6 -07.6442 26263.3
 28 09 2013  08 25  -20.9950 26029.8 -03493.5 -07.6441 26263.2
 28 09 2013  08 26  -20.9949 26029.8 -03493.5 -07.6440 26263.2
 28 09 2013  08 27  -20.9945 26029.7 -03493.5 -07.6440 26263.1
 28 09 2013  08 28  -20.9943 26029.6 -03493.4 -07.6439 26263.0
 28 09 2013  08 29  -20.9941 26029.5 -03493.4 -07.6438 26262.9
 28 09 2013  08 30  -20.9937 26029.5 -03493.3 -07.6438 26262.8
 28 09 2013  08 31  -20.9933 26029.4 -03493.3 -07.6438 26262.8
 28 09 2013  08 32  -20.9928 26029.3 -03493.3 -07.6438 26262.7
 28 09 2013  08 33  -20.9923 26029.3 -03493.3 -07.6438 26262.6
 28 09 2013  08 34  -20.9918 26029.2 -03493.3 -07.6439 26262.6
 28 09 2013  08 35  -20.9912 26029.1 -03493.3 -07.6439 26262.5
 28 09 2013  08 36  -20.9907 26029.1 -03493.4 -07.6440 26262.5
 28 09 2013  08 37  -20.9902 26029.0 -03493.4 -07.6442 26262.4
 28 09 2013  08 38  -20.9898 26028.9 -03493.5 -07.6444 26262.3
 28 09 2013  08 39  -20.9893 26028.9 -03493.6 -07.6446 26262.3
 28 09 2013  08 40  -20.9889 26028.8 -03493.7 -07.6449 26262.3
 28 09 2013  08 41  -20.9884 26028.8 -03493.9 -07.6451 26262.3
 28 09 2013  08 42  -20.9881 26028.7 -03494.0 -07.6454 26262.2
 28 09 2013  08 43  -20.9877 26028.7 -03494.1 -07.6458 26262.2
 28 09 2013  08 44  -20.9875 26028.6 -03494.3 -07.6462 26262.2
 28 09 2013  08 45  -20.9872 26028.6 -03494.5 -07.6466 26262.2
 28 09 2013  08 46  -20.9871 26028.6 -03494.7 -07.6470 26262.2
 28 09 2013  08 47  -20.9870 26028.6 -03494.9 -07.6474 26262.2
 28 09 2013  08 48  -20.9867 26028.5 -03495.1 -07.6479 26262.1
 28 09 2013  08 49  -20.9867 26028.5 -03495.3 -07.6483 26262.2
 28 09 2013  08 50  -20.9866 26028.5 -03495.5 -07.6487 26262.2
 28 09 2013  08 51  -20.9868 26028.5 -03495.7 -07.6492 26262.2
 28 09 2013  08 52  -20.9870 26028.5 -03495.9 -07.6496 26262.2
 28 09 2013  08 53  -20.9870 26028.5 -03496.1 -07.6500 26262.3
 28 09 2013  08 54  -20.9871 26028.5 -03496.3 -07.6504 26262.3
 28 09 2013  08 55  -20.9873 26028.5 -03496.4 -07.6508 26262.3
 28 09 2013  08 56  -20.9874 26028.5 -03496.6 -07.6511 26262.3
 28 09 2013  08 57  -20.9876 26028.5 -03496.8 -07.6515 26262.3
 28 09 2013  08 58  -20.9878 26028.5 -03496.9 -07.6518 26262.3
 28 09 2013  08 59  -20.9881 26028.5 -03497.1 -07.6522 26262.3
 28 09 2013  09 00  -20.9882 26028.5 -03497.2 -07.6525 26262.4
 28 09 2013  09 01  -20.9883 26028.5 -03497.4 -07.6528 26262.4
 28 09 2013  09 02  -20.9886 26028.5 -03497.5 -07.6531 26262.4
 28 09 2013  09 03  -20.9888 26028.5 -03497.7 -07.6534 26262.5
 28 09 2013  09 04  -20.9889 26028.5 -03497.8 -07.6537 26262.5
 28 09 2013  09 05  -20.9892 26028.5 -03497.9 -07.6540 26262.5
 28 09 2013  09 06  -20.9894 26028.5 -03498.1 -07.6543 26262.5
 28 09 2013  09 07  -20.9897 26028.5 -03498.2 -07.6546 26262.5
 28 09 2013  09 08  -20.9899 26028.5 -03498.3 -07.6548 26262.5
 28 09 2013  09 09  -20.9902 26028.5 -03498.4 -07.6551 26262.5
 28 09 2013  09 10  -20.9904 26028.5 -03498.6 -07.6554 26262.5
 28 09 2013  09 11  -20.9907 26028.5 -03498.7 -07.6556 26262.5
 28 09 2013  09 12  -20.9909 26028.5 -03498.8 -07.6559 26262.6
 28 09 2013  09 13  -20.9911 26028.5 -03498.9 -07.6561 26262.6
 28 09 2013  09 14  -20.9913 26028.5 -03499.0 -07.6563 26262.6
 28 09 2013  09 15  -20.9915 26028.5 -03499.1 -07.6565 26262.6
 28 09 2013  09 16  -20.9916 26028.5 -03499.2 -07.6568 26262.7
 28 09 2013  09 17  -20.9918 26028.5 -03499.3 -07.6570 26262.7
 28 09 2013  09 18  -20.9921 26028.6 -03499.4 -07.6572 26262.8
 28 09 2013  09 19  -20.9923 26028.6 -03499.5 -07.6574 26262.8
 28 09 2013  09 20  -20.9925 26028.6 -03499.6 -07.6576 26262.8
 28 09 2013  09 21  -20.9927 26028.6 -03499.7 -07.6578 26262.8
 28 09 2013  09 22  -20.9928 26028.6 -03499.8 -07.6580 26262.8
 28 09 2013  09 23  -20.9929 26028.6 -03499.9 -07.6582 26262.8
 28 09 2013  09 24  -20.9932 26028.6 -03500.0 -07.6584 26262.9
 28 09 2013  09 25  -20.9935 26028.7 -03500.1 -07.6586 26263.0
 28 09 2013  09 26  -20.9938 26028.8 -03500.2 -07.6589 26263.1
 28 09 2013  09 27  -20.9941 26028.9 -03500.3 -07.6591 26263.2
 28 09 2013  09 28  -20.9944 26028.9 -03500.4 -07.6592 26263.2
 28 09 2013  09 29  -20.9946 26028.9 -03500.5 -07.6594 26263.3
 28 09 2013  09 30  -20.9947 26029.0 -03500.6 -07.6596 26263.3
 28 09 2013  09 31  -20.9950 26029.1 -03500.6 -07.6597 26263.4
 28 09 2013  09 32  -20.9952 26029.1 -03500.7 -07.6598 26263.5
 28 09 2013  09 33  -20.9953 26029.2 -03500.8 -07.6600 26263.5
 28 09 2013  09 34  -20.9955 26029.2 -03500.9 -07.6602 26263.6
 28 09 2013  09 35  -20.9957 26029.3 -03501.0 -07.6604 26263.7
 28 09 2013  09 36  -20.9959 26029.3 -03501.1 -07.6606 26263.7
 28 09 2013  09 37  -20.9962 26029.4 -03501.1 -07.6607 26263.8
 28 09 2013  09 38  -20.9963 26029.5 -03501.2 -07.6609 26263.9
 28 09 2013  09 39  -20.9967 26029.6 -03501.3 -07.6611 26264.0
 28 09 2013  09 40  -20.9970 26029.8 -03501.4 -07.6613 26264.2
 28 09 2013  09 41  -20.9973 26029.9 -03501.5 -07.6614 26264.3
 28 09 2013  09 42  -20.9976 26030.0 -03501.6 -07.6614 26264.5
 28 09 2013  09 43  -20.9978 26030.1 -03501.6 -07.6615 26264.6
 28 09 2013  09 44  -20.9980 26030.2 -03501.7 -07.6617 26264.7
 28 09 2013  09 45  -20.9983 26030.3 -03501.8 -07.6619 26264.8
 28 09 2013  09 46  -20.9986 26030.4 -03501.9 -07.6621 26264.9
 28 09 2013  09 47  -20.9991 26030.7 -03502.1 -07.6623 26265.2
 28 09 2013  09 48  -20.9992 26031.0 -03502.2 -07.6626 26265.6
 28 09 2013  09 49  -20.9994 26031.3 -03502.4 -07.6629 26265.9
 28 09 2013  09 50  -20.9998 26031.6 -03502.6 -07.6632 26266.2
 28 09 2013  09 51  -21.0003 26032.0 -03502.8 -07.6635 26266.6
 28 09 2013  09 52  -21.0008 26032.3 -03502.9 -07.6636 26266.9
 28 09 2013  09 53  -21.0012 26032.6 -03502.9 -07.6637 26267.2
 28 09 2013  09 54  -21.0016 26032.8 -03503.0 -07.6637 26267.4
 28 09 2013  09 55  -21.0019 26033.0 -03503.0 -07.6638 26267.6
 28 09 2013  09 56  -21.0023 26033.2 -03503.1 -07.6638 26267.8
 28 09 2013  09 57  -21.0028 26033.4 -03503.2 -07.6640 26268.0
 28 09 2013  09 58  -21.0033 26033.6 -03503.3 -07.6641 26268.2
 28 09 2013  09 59  -21.0037 26033.7 -03503.3 -07.6641 26268.4
 28 09 2013  10 00  -21.0042 26033.8 -03503.4 -07.6643 26268.5
 28 09 2013  10 01  -21.0046 26034.0 -03503.5 -07.6646 26268.7
 28 09 2013  10 02  -21.0051 26034.1 -03503.6 -07.6647 26268.8
 28 09 2013  10 03  -21.0057 26034.3 -03503.7 -07.6648 26269.0
 28 09 2013  10 04  -21.0062 26034.4 -03503.8 -07.6650 26269.1
 28 09 2013  10 05  -21.0067 26034.6 -03503.9 -07.6651 26269.3
 28 09 2013  10 06  -21.0070 26034.8 -03504.0 -07.6653 26269.5
 28 09 2013  10 07  -21.0073 26035.0 -03504.1 -07.6656 26269.8
 28 09 2013  10 08  -21.0077 26035.2 -03504.3 -07.6658 26270.0
 28 09 2013  10 09  -21.0080 26035.5 -03504.4 -07.6660 26270.3
 28 09 2013  10 10  -21.0084 26035.8 -03504.5 -07.6661 26270.6
 28 09 2013  10 11  -21.0088 26036.1 -03504.6 -07.6662 26270.9
 28 09 2013  10 12  -21.0092 26036.4 -03504.7 -07.6663 26271.2
 28 09 2013  10 13  -21.0095 26036.6 -03504.7 -07.6663 26271.4
 28 09 2013  10 14  -21.0100 26036.8 -03504.8 -07.6664 26271.6
 28 09 2013  10 15  -21.0103 26037.0 -03504.8 -07.6664 26271.8
 28 09 2013  10 16  -21.0107 26037.2 -03504.9 -07.6665 26272.0
 28 09 2013  10 17  -21.0110 26037.4 -03504.9 -07.6666 26272.2
 28 09 2013  10 18  -21.0112 26037.6 -03505.0 -07.6666 26272.5
 28 09 2013  10 19  -21.0115 26037.9 -03505.1 -07.6667 26272.7
 28 09 2013  10 20  -21.0119 26038.1 -03505.2 -07.6668 26273.0
 28 09 2013  10 21  -21.0123 26038.4 -03505.2 -07.6669 26273.3
 28 09 2013  10 22  -21.0125 26038.7 -03505.3 -07.6669 26273.5
 28 09 2013  10 23  -21.0129 26039.0 -03505.3 -07.6670 26273.9
 28 09 2013  10 24  -21.0132 26039.3 -03505.4 -07.6670 26274.2
 28 09 2013  10 25  -21.0135 26039.6 -03505.4 -07.6670 26274.5
 28 09 2013  10 26  -21.0139 26039.9 -03505.5 -07.6670 26274.8
 28 09 2013  10 27  -21.0144 26040.2 -03505.5 -07.6670 26275.1
 28 09 2013  10 28  -21.0148 26040.6 -03505.5 -07.6669 26275.4
 28 09 2013  10 29  -21.0154 26040.9 -03505.5 -07.6669 26275.8
 28 09 2013  10 30  -21.0160 26041.2 -03505.5 -07.6667 26276.1
 28 09 2013  10 31  -21.0166 26041.6 -03505.5 -07.6666 26276.4
 28 09 2013  10 32  -21.0172 26041.9 -03505.5 -07.6666 26276.8
 28 09 2013  10 33  -21.0178 26042.1 -03505.5 -07.6664 26277.0
 28 09 2013  10 34  -21.0183 26042.4 -03505.5 -07.6663 26277.3
 28 09 2013  10 35  -21.0189 26042.6 -03505.4 -07.6661 26277.5
 28 09 2013  10 36  -21.0195 26042.8 -03505.4 -07.6660 26277.7
 28 09 2013  10 37  -21.0200 26043.1 -03505.4 -07.6658 26277.9
 28 09 2013  10 38  -21.0205 26043.3 -03505.3 -07.6657 26278.1
 28 09 2013  10 39  -21.0211 26043.5 -03505.3 -07.6656 26278.3
 28 09 2013  10 40  -21.0216 26043.8 -03505.3 -07.6655 26278.6
 28 09 2013  10 41  -21.0221 26044.1 -03505.3 -07.6654 26278.9
 28 09 2013  10 42  -21.0226 26044.4 -03505.3 -07.6653 26279.2
 28 09 2013  10 43  -21.0231 26044.7 -03505.3 -07.6651 26279.6
 28 09 2013  10 44  -21.0236 26045.1 -03505.3 -07.6651 26279.9
 28 09 2013  10 45  -21.0241 26045.5 -03505.2 -07.6649 26280.3
 28 09 2013  10 46  -21.0247 26045.8 -03505.2 -07.6648 26280.6
 28 09 2013  10 47  -21.0252 26046.2 -03505.2 -07.6646 26281.0
 28 09 2013  10 48  -21.0257 26046.5 -03505.2 -07.6645 26281.3
 28 09 2013  10 49  -21.0263 26046.8 -03505.1 -07.6642 26281.6
 28 09 2013  10 50  -21.0269 26047.1 -03505.1 -07.6641 26281.9
 28 09 2013  10 51  -21.0275 26047.5 -03505.0 -07.6638 26282.2
 28 09 2013  10 52  -21.0281 26047.7 -03504.9 -07.6636 26282.5
 28 09 2013  10 53  -21.0286 26048.1 -03504.9 -07.6634 26282.8
 28 09 2013  10 54  -21.0292 26048.4 -03504.8 -07.6631 26283.1
 28 09 2013  10 55  -21.0298 26048.8 -03504.8 -07.6629 26283.5
 28 09 2013  10 56  -21.0304 26049.1 -03504.7 -07.6627 26283.8
 28 09 2013  10 57  -21.0310 26049.4 -03504.6 -07.6624 26284.1
 28 09 2013  10 58  -21.0317 26049.7 -03504.5 -07.6621 26284.4
 28 09 2013  10 59  -21.0323 26050.1 -03504.4 -07.6618 26284.8
 28 09 2013  11 00  -21.0329 26050.4 -03504.4 -07.6616 26285.1
 28 09 2013  11 01  -21.0335 26050.7 -03504.3 -07.6613 26285.4
 28 09 2013  11 02  -21.0342 26051.0 -03504.2 -07.6610 26285.7
 28 09 2013  11 03  -21.0348 26051.3 -03504.1 -07.6607 26285.9
 28 09 2013  11 04  -21.0353 26051.7 -03504.0 -07.6604 26286.3
 28 09 2013  11 05  -21.0359 26052.1 -03503.9 -07.6601 26286.7
 28 09 2013  11 06  -21.0363 26052.4 -03503.8 -07.6598 26286.9
 28 09 2013  11 07  -21.0369 26052.7 -03503.7 -07.6595 26287.2
 28 09 2013  11 08  -21.0374 26053.0 -03503.6 -07.6591 26287.5
 28 09 2013  11 09  -21.0379 26053.4 -03503.5 -07.6588 26287.9
 28 09 2013  11 10  -21.0384 26053.7 -03503.4 -07.6586 26288.2
 28 09 2013  11 11  -21.0389 26054.1 -03503.3 -07.6583 26288.5
 28 09 2013  11 12  -21.0395 26054.4 -03503.2 -07.6579 26288.9
 28 09 2013  11 13  -21.0401 26054.7 -03503.1 -07.6576 26289.1
 28 09 2013  11 14  -21.0407 26055.1 -03503.0 -07.6572 26289.5
 28 09 2013  11 15  -21.0413 26055.5 -03502.9 -07.6569 26289.9
 28 09 2013  11 16  -21.0420 26055.9 -03502.8 -07.6565 26290.3
 28 09 2013  11 17  -21.0425 26056.2 -03502.6 -07.6561 26290.6
 28 09 2013  11 18  -21.0432 26056.6 -03502.5 -07.6557 26290.9
 28 09 2013  11 19  -21.0439 26057.0 -03502.3 -07.6553 26291.3
 28 09 2013  11 20  -21.0445 26057.3 -03502.2 -07.6549 26291.6
 28 09 2013  11 21  -21.0451 26057.7 -03502.0 -07.6544 26292.0
 28 09 2013  11 22  -21.0456 26058.0 -03501.9 -07.6540 26292.3
 28 09 2013  11 23  -21.0462 26058.4 -03501.8 -07.6536 26292.6
 28 09 2013  11 24  -21.0468 26058.8 -03501.6 -07.6532 26293.0
 28 09 2013  11 25  -21.0474 26059.2 -03501.5 -07.6527 26293.4
 28 09 2013  11 26  -21.0479 26059.6 -03501.3 -07.6522 26293.7
 28 09 2013  11 27  -21.0485 26060.0 -03501.1 -07.6518 26294.1
 28 09 2013  11 28  -21.0491 26060.4 -03501.0 -07.6513 26294.5
 28 09 2013  11 29  -21.0498 26060.8 -03500.8 -07.6509 26294.9
 28 09 2013  11 30  -21.0504 26061.2 -03500.6 -07.6504 26295.2
 28 09 2013  11 31  -21.0510 26061.6 -03500.5 -07.6499 26295.7
 28 09 2013  11 32  -21.0516 26062.0 -03500.3 -07.6495 26296.0
 28 09 2013  11 33  -21.0523 26062.3 -03500.1 -07.6489 26296.3
 28 09 2013  11 34  -21.0529 26062.7 -03499.9 -07.6484 26296.6
 28 09 2013  11 35  -21.0536 26063.0 -03499.7 -07.6479 26296.9
 28 09 2013  11 36  -21.0542 26063.3 -03499.5 -07.6474 26297.2
 28 09 2013  11 37  -21.0551 26063.7 -03499.4 -07.6470 26297.6
 28 09 2013  11 38  -21.0559 26064.1 -03499.2 -07.6465 26297.9
 28 09 2013  11 39  -21.0566 26064.5 -03499.1 -07.6460 26298.3
 28 09 2013  11 40  -21.0573 26064.9 -03498.9 -07.6455 26298.7
 28 09 2013  11 41  -21.0580 26065.3 -03498.7 -07.6449 26299.1
 28 09 2013  11 42  -21.0588 26065.7 -03498.5 -07.6444 26299.4
 28 09 2013  11 43  -21.0595 26066.0 -03498.2 -07.6438 26299.7
 28 09 2013  11 44  -21.0603 26066.4 -03498.0 -07.6432 26300.0
 28 09 2013  11 45  -21.0609 26066.7 -03497.8 -07.6426 26300.4
 28 09 2013  11 46  -21.0616 26067.1 -03497.6 -07.6420 26300.7
 28 09 2013  11 47  -21.0622 26067.5 -03497.3 -07.6414 26301.1
 28 09 2013  11 48  -21.0628 26067.9 -03497.1 -07.6408 26301.4
 28 09 2013  11 49  -21.0635 26068.2 -03496.8 -07.6401 26301.7
 28 09 2013  11 50  -21.0641 26068.6 -03496.6 -07.6395 26302.1
 28 09 2013  11 51  -21.0647 26069.0 -03496.4 -07.6389 26302.5
 28 09 2013  11 52  -21.0653 26069.5 -03496.1 -07.6383 26302.8
 28 09 2013  11 53  -21.0659 26069.9 -03495.9 -07.6376 26303.3
 28 09 2013  11 54  -21.0665 26070.4 -03495.7 -07.6370 26303.7
 28 09 2013  11 55  -21.0670 26070.8 -03495.4 -07.6363 26304.1
 28 09 2013  11 56  -21.0675 26071.2 -03495.1 -07.6356 26304.4
 28 09 2013  11 57  -21.0679 26071.6 -03494.9 -07.6350 26304.8
 28 09 2013  11 58  -21.0682 26072.0 -03494.6 -07.6342 26305.2
 28 09 2013  11 59  -21.0687 26072.5 -03494.4 -07.6336 26305.6
 28 09 2013  12 00  -21.0690 26072.8 -03494.0 -07.6328 26305.9
 28 09 2013  12 01  -21.0694 26073.1 -03493.7 -07.6320 26306.1
 28 09 2013  12 02  -21.0699 26073.4 -03493.4 -07.6313 26306.4
 28 09 2013  12 03  -21.0702 26073.8 -03493.1 -07.6305 26306.7
 28 09 2013  12 04  -21.0705 26074.1 -03492.8 -07.6297 26307.0
 28 09 2013  12 05  -21.0708 26074.5 -03492.5 -07.6289 26307.4
 28 09 2013  12 06  -21.0711 26074.8 -03492.1 -07.6280 26307.6
 28 09 2013  12 07  -21.0714 26075.2 -03491.8 -07.6273 26307.9
 28 09 2013  12 08  -21.0716 26075.5 -03491.5 -07.6264 26308.2
 28 09 2013  12 09  -21.0717 26075.8 -03491.1 -07.6255 26308.4
 28 09 2013  12 10  -21.0718 26076.1 -03490.7 -07.6247 26308.7
 28 09 2013  12 11  -21.0718 26076.4 -03490.4 -07.6239 26309.0
 28 09 2013  12 12  -21.0719 26076.9 -03490.1 -07.6232 26309.4
 28 09 2013  12 13  -21.0718 26077.2 -03489.8 -07.6224 26309.7
 28 09 2013  12 14  -21.0718 26077.5 -03489.5 -07.6215 26309.9
 28 09 2013  12 15  -21.0718 26077.8 -03489.1 -07.6207 26310.2
 28 09 2013  12 16  -21.0717 26078.1 -03488.8 -07.6200 26310.5
 28 09 2013  12 17  -21.0716 26078.6 -03488.6 -07.6194 26310.9
 28 09 2013  12 18  -21.0716 26079.0 -03488.4 -07.6187 26311.3
 28 09 2013  12 19  -21.0715 26079.3 -03488.1 -07.6180 26311.5
 28 09 2013  12 20  -21.0714 26079.6 -03487.8 -07.6173 26311.8
 28 09 2013  12 21  -21.0714 26080.1 -03487.6 -07.6168 26312.2
 28 09 2013  12 22  -21.0714 26080.5 -03487.4 -07.6162 26312.6
 28 09 2013  12 23  -21.0714 26080.8 -03487.1 -07.6155 26312.9
 28 09 2013  12 24  -21.0714 26081.2 -03486.9 -07.6149 26313.3
 28 09 2013  12 25  -21.0715 26081.7 -03486.7 -07.6143 26313.7
 28 09 2013  12 26  -21.0716 26082.0 -03486.4 -07.6137 26314.0
 28 09 2013  12 27  -21.0717 26082.4 -03486.2 -07.6131 26314.4
 28 09 2013  12 28  -21.0718 26082.9 -03486.0 -07.6125 26314.8
 28 09 2013  12 29  -21.0718 26083.3 -03485.7 -07.6118 26315.2
 28 09 2013  12 30  -21.0719 26083.7 -03485.5 -07.6111 26315.6
 28 09 2013  12 31  -21.0719 26084.1 -03485.2 -07.6104 26315.9
 28 09 2013  12 32  -21.0718 26084.3 -03484.9 -07.6097 26316.1
 28 09 2013  12 33  -21.0718 26084.6 -03484.6 -07.6090 26316.3
 28 09 2013  12 34  -21.0718 26084.8 -03484.3 -07.6083 26316.5
 28 09 2013  12 35  -21.0719 26085.0 -03484.0 -07.6076 26316.6
 28 09 2013  12 36  -21.0719 26085.2 -03483.7 -07.6070 26316.8
 28 09 2013  12 37  -21.0719 26085.5 -03483.5 -07.6064 26317.0
 28 09 2013  12 38  -21.0719 26085.7 -03483.3 -07.6059 26317.2
 28 09 2013  12 39  -21.0719 26085.9 -03483.0 -07.6052 26317.4
 28 09 2013  12 40  -21.0718 26086.2 -03482.8 -07.6046 26317.7
 28 09 2013  12 41  -21.0718 26086.3 -03482.5 -07.6040 26317.7
 28 09 2013  12 42  -21.0718 26086.4 -03482.3 -07.6034 26317.8
 28 09 2013  12 43  -21.0718 26086.7 -03482.1 -07.6029 26318.1
 28 09 2013  12 44  -21.0719 26087.0 -03481.9 -07.6024 26318.3
 28 09 2013  12 45  -21.0720 26087.3 -03481.7 -07.6019 26318.7
 28 09 2013  12 46  -21.0720 26087.6 -03481.4 -07.6013 26318.9
 28 09 2013  12 47  -21.0721 26088.0 -03481.2 -07.6008 26319.2
 28 09 2013  12 48  -21.0720 26088.3 -03481.0 -07.6002 26319.5
 28 09 2013  12 49  -21.0720 26088.6 -03480.8 -07.5996 26319.8
 28 09 2013  12 50  -21.0720 26089.0 -03480.6 -07.5990 26320.1
 28 09 2013  12 51  -21.0721 26089.4 -03480.4 -07.5985 26320.5
 28 09 2013  12 52  -21.0720 26089.7 -03480.1 -07.5979 26320.8
 28 09 2013  12 53  -21.0720 26090.0 -03479.9 -07.5972 26321.0
 28 09 2013  12 54  -21.0718 26090.3 -03479.6 -07.5966 26321.3
 28 09 2013  12 55  -21.0717 26090.8 -03479.4 -07.5961 26321.8
 28 09 2013  12 56  -21.0717 26091.1 -03479.2 -07.5955 26322.0
 28 09 2013  12 57  -21.0716 26091.4 -03478.9 -07.5948 26322.4
 28 09 2013  12 58  -21.0714 26091.8 -03478.7 -07.5942 26322.7
 28 09 2013  12 59  -21.0713 26092.1 -03478.5 -07.5936 26323.0
 28 09 2013  13 00  -21.0711 26092.4 -03478.2 -07.5929 26323.2
 28 09 2013  13 01  -21.0710 26092.6 -03477.9 -07.5923 26323.4
 28 09 2013  13 02  -21.0708 26092.9 -03477.7 -07.5917 26323.7
 28 09 2013  13 03  -21.0707 26093.3 -03477.5 -07.5911 26324.0
 28 09 2013  13 04  -21.0705 26093.4 -03477.2 -07.5904 26324.1
 28 09 2013  13 05  -21.0701 26093.6 -03476.9 -07.5898 26324.2
 28 09 2013  13 06  -21.0699 26093.7 -03476.7 -07.5893 26324.3
 28 09 2013  13 07  -21.0696 26093.9 -03476.5 -07.5888 26324.5
 28 09 2013  13 08  -21.0693 26094.1 -03476.3 -07.5883 26324.6
 28 09 2013  13 09  -21.0690 26094.3 -03476.1 -07.5879 26324.8
 28 09 2013  13 10  -21.0688 26094.7 -03476.1 -07.5876 26325.2
 28 09 2013  13 11  -21.0686 26095.0 -03475.9 -07.5872 26325.4
 28 09 2013  13 12  -21.0683 26095.1 -03475.7 -07.5868 26325.6
 28 09 2013  13 13  -21.0680 26095.4 -03475.6 -07.5864 26325.8
 28 09 2013  13 14  -21.0678 26095.6 -03475.5 -07.5861 26326.0
 28 09 2013  13 15  -21.0676 26095.8 -03475.4 -07.5858 26326.2
 28 09 2013  13 16  -21.0675 26096.2 -03475.3 -07.5856 26326.5
 28 09 2013  13 17  -21.0674 26096.4 -03475.2 -07.5852 26326.7
 28 09 2013  13 18  -21.0673 26096.6 -03475.0 -07.5849 26326.9
 28 09 2013  13 19  -21.0672 26096.8 -03474.9 -07.5846 26327.1
 28 09 2013  13 20  -21.0672 26097.0 -03474.8 -07.5843 26327.3
 28 09 2013  13 21  -21.0674 26097.2 -03474.8 -07.5841 26327.6
 28 09 2013  13 22  -21.0674 26097.5 -03474.6 -07.5838 26327.8
 28 09 2013  13 23  -21.0674 26097.6 -03474.5 -07.5834 26327.9
 28 09 2013  13 24  -21.0674 26097.7 -03474.4 -07.5831 26328.0
 28 09 2013  13 25  -21.0675 26098.0 -03474.3 -07.5829 26328.3
 28 09 2013  13 26  -21.0674 26098.2 -03474.2 -07.5826 26328.4
 28 09 2013  13 27  -21.0675 26098.4 -03474.1 -07.5823 26328.6
 28 09 2013  13 28  -21.0676 26098.6 -03473.9 -07.5820 26328.8
 28 09 2013  13 29  -21.0678 26098.9 -03473.9 -07.5817 26329.1
 28 09 2013  13 30  -21.0678 26099.2 -03473.7 -07.5813 26329.3
 28 09 2013  13 31  -21.0679 26099.3 -03473.5 -07.5809 26329.5
 28 09 2013  13 32  -21.0681 26099.6 -03473.4 -07.5806 26329.7
 28 09 2013  13 33  -21.0681 26099.8 -03473.3 -07.5802 26329.8
 28 09 2013  13 34  -21.0682 26099.9 -03473.1 -07.5798 26330.0
 28 09 2013  13 35  -21.0682 26100.1 -03472.9 -07.5793 26330.1
 28 09 2013  13 36  -21.0682 26100.2 -03472.8 -07.5790 26330.2
 28 09 2013  13 37  -21.0677 26100.5 -03472.6 -07.5785 26330.5
 28 09 2013  13 38  -21.0678 26100.7 -03472.5 -07.5781 26330.7
 28 09 2013  13 39  -21.0677 26100.8 -03472.3 -07.5778 26330.7
 28 09 2013  13 40  -21.0674 26100.9 -03472.2 -07.5775 26330.9
 28 09 2013  13 41  -21.0671 26101.1 -03472.0 -07.5771 26331.0
 28 09 2013  13 42  -21.0667 26101.2 -03471.9 -07.5768 26331.1
 28 09 2013  13 43  -21.0663 26101.3 -03471.8 -07.5766 26331.2
 28 09 2013  13 44  -21.0659 26101.5 -03471.7 -07.5764 26331.3
 28 09 2013  13 45  -21.0655 26101.7 -03471.7 -07.5762 26331.5
 28 09 2013  13 46  -21.0651 26101.8 -03471.7 -07.5761 26331.7
 28 09 2013  13 47  -21.0646 26102.0 -03471.6 -07.5760 26331.9
 28 09 2013  13 48  -21.0642 26102.2 -03471.6 -07.5759 26332.0
 28 09 2013  13 49  -21.0638 26102.3 -03471.6 -07.5759 26332.1
 28 09 2013  13 50  -21.0634 26102.4 -03471.6 -07.5758 26332.3
 28 09 2013  13 51  -21.0632 26102.7 -03471.7 -07.5759 26332.6
 28 09 2013  13 52  -21.0632 26103.0 -03471.8 -07.5760 26332.9
 28 09 2013  13 53  -21.0629 26103.1 -03471.7 -07.5759 26333.0
 28 09 2013  13 54  -21.0629 26103.2 -03471.7 -07.5759 26333.1
 28 09 2013  13 55  -21.0628 26103.4 -03471.7 -07.5758 26333.2
 28 09 2013  13 56  -21.0626 26103.5 -03471.8 -07.5759 26333.3
 28 09 2013  13 57  -21.0627 26103.7 -03471.8 -07.5759 26333.5
 28 09 2013  13 58  -21.0628 26103.8 -03471.8 -07.5759 26333.6
 28 09 2013  13 59  -21.0629 26103.8 -03471.8 -07.5758 26333.7
 28 09 2013  14 00  -21.0630 26104.0 -03471.8 -07.5759 26333.8
 28 09 2013  14 01  -21.0631 26104.1 -03471.8 -07.5758 26333.9
 28 09 2013  14 02  -21.0634 26104.2 -03471.8 -07.5757 26334.1
 28 09 2013  14 03  -21.0635 26104.4 -03471.8 -07.5756 26334.2
 28 09 2013  14 04  -21.0636 26104.5 -03471.7 -07.5755 26334.3
 28 09 2013  14 05  -21.0637 26104.6 -03471.7 -07.5753 26334.5
 28 09 2013  14 06  -21.0637 26104.6 -03471.5 -07.5750 26334.4
 28 09 2013  14 07  -21.0637 26104.6 -03471.4 -07.5749 26334.4
 28 09 2013  14 08  -21.0637 26104.7 -03471.4 -07.5747 26334.5
 28 09 2013  14 09  -21.0639 26104.8 -03471.3 -07.5745 26334.6
 28 09 2013  14 10  -21.0640 26104.9 -03471.2 -07.5743 26334.7
 28 09 2013  14 11  -21.0639 26105.0 -03471.1 -07.5741 26334.7
 28 09 2013  14 12  -21.0638 26104.9 -03471.0 -07.5737 26334.7
 28 09 2013  14 13  -21.0637 26104.9 -03470.8 -07.5734 26334.6
 28 09 2013  14 14  -21.0636 26104.9 -03470.7 -07.5732 26334.6
 28 09 2013  14 15  -21.0634 26105.0 -03470.6 -07.5730 26334.7
 28 09 2013  14 16  -21.0633 26105.1 -03470.5 -07.5728 26334.8
 28 09 2013  14 17  -21.0630 26105.2 -03470.4 -07.5725 26334.9
 28 09 2013  14 18  -21.0627 26105.2 -03470.3 -07.5722 26334.9
 28 09 2013  14 19  -21.0623 26105.2 -03470.1 -07.5718 26334.8
 28 09 2013  14 20  -21.0619 26105.2 -03470.0 -07.5716 26334.8
 28 09 2013  14 21  -21.0616 26105.2 -03469.9 -07.5713 26334.8
 28 09 2013  14 22  -21.0612 26105.3 -03469.8 -07.5711 26334.9
 28 09 2013  14 23  -21.0607 26105.3 -03469.6 -07.5707 26334.9
 28 09 2013  14 24  -21.0602 26105.3 -03469.5 -07.5704 26334.9
 28 09 2013  14 25  -21.0597 26105.3 -03469.3 -07.5701 26334.9
 28 09 2013  14 26  -21.0592 26105.3 -03469.2 -07.5698 26334.8
 28 09 2013  14 27  -21.0586 26105.2 -03469.1 -07.5696 26334.7
 28 09 2013  14 28  -21.0580 26105.2 -03469.0 -07.5694 26334.7
 28 09 2013  14 29  -21.0575 26105.2 -03468.9 -07.5692 26334.7
 28 09 2013  14 30  -21.0568 26105.2 -03468.8 -07.5690 26334.7
 28 09 2013  14 31  -21.0563 26105.2 -03468.8 -07.5690 26334.6
 28 09 2013  14 32  -21.0557 26105.2 -03468.7 -07.5688 26334.6
 28 09 2013  14 33  -21.0551 26105.2 -03468.7 -07.5688 26334.7
 28 09 2013  14 34  -21.0547 26105.2 -03468.7 -07.5687 26334.7
 28 09 2013  14 35  -21.0541 26105.3 -03468.7 -07.5687 26334.7
 28 09 2013  14 36  -21.0536 26105.3 -03468.7 -07.5687 26334.8
 28 09 2013  14 37  -21.0531 26105.3 -03468.7 -07.5687 26334.7
 28 09 2013  14 38  -21.0527 26105.4 -03468.7 -07.5687 26334.8
 28 09 2013  14 39  -21.0523 26105.3 -03468.7 -07.5687 26334.8
 28 09 2013  14 40  -21.0518 26105.3 -03468.6 -07.5686 26334.7
 28 09 2013  14 41  -21.0512 26105.2 -03468.7 -07.5686 26334.7
 28 09 2013  14 42  -21.0507 26105.1 -03468.6 -07.5686 26334.5
 28 09 2013  14 43  -21.0502 26105.0 -03468.6 -07.5686 26334.5
 28 09 2013  14 44  -21.0497 26105.0 -03468.6 -07.5687 26334.4
 28 09 2013  14 45  -21.0492 26104.9 -03468.6 -07.5687 26334.3
 28 09 2013  14 46  -21.0488 26104.8 -03468.7 -07.5689 26334.3
 28 09 2013  14 47  -21.0483 26104.8 -03468.8 -07.5691 26334.2
 28 09 2013  14 48  -21.0479 26104.7 -03468.8 -07.5692 26334.1
 28 09 2013  14 49  -21.0474 26104.5 -03468.9 -07.5694 26334.0
 28 09 2013  14 50  -21.0470 26104.5 -03469.0 -07.5696 26334.0
 28 09 2013  14 51  -21.0466 26104.5 -03469.1 -07.5698 26334.0
 28 09 2013  14 52  -21.0463 26104.5 -03469.2 -07.5701 26334.0
 28 09 2013  14 53  -21.0459 26104.5 -03469.4 -07.5704 26334.1
 28 09 2013  14 54  -21.0455 26104.3 -03469.3 -07.5704 26333.8
 28 09 2013  14 55  -21.0450 26104.1 -03469.4 -07.5706 26333.6
 28 09 2013  14 56  -21.0447 26104.0 -03469.5 -07.5709 26333.6
 28 09 2013  14 57  -21.0444 26104.0 -03469.6 -07.5711 26333.6
 28 09 2013  14 58  -21.0438 26103.9 -03469.7 -07.5714 26333.5
 28 09 2013  14 59  -21.0435 26103.9 -03469.8 -07.5716 26333.5
 28 09 2013  15 00  -21.0431 26104.0 -03470.0 -07.5720 26333.6
 28 09 2013  15 01  -21.0429 26103.9 -03470.1 -07.5722 26333.5
 28 09 2013  15 02  -21.0426 26103.7 -03470.2 -07.5724 26333.3
 28 09 2013  15 03  -21.0423 26103.5 -03470.2 -07.5726 26333.2
 28 09 2013  15 04  -21.0421 26103.3 -03470.3 -07.5728 26333.0
 28 09 2013  15 05  -21.0418 26103.0 -03470.4 -07.5730 26332.7
 28 09 2013  15 06  -21.0416 26102.8 -03470.5 -07.5733 26332.5
 28 09 2013  15 07  -21.0414 26102.8 -03470.7 -07.5737 26332.5
 28 09 2013  15 08  -21.0413 26102.7 -03470.8 -07.5740 26332.4
 28 09 2013  15 09  -21.0412 26102.5 -03470.9 -07.5743 26332.3
 28 09 2013  15 10  -21.0410 26102.4 -03471.0 -07.5745 26332.2
 28 09 2013  15 11  -21.0410 26102.4 -03471.1 -07.5747 26332.1
 28 09 2013  15 12  -21.0411 26102.3 -03471.1 -07.5749 26332.1
 28 09 2013  15 13  -21.0410 26102.1 -03471.2 -07.5750 26331.9
 28 09 2013  15 14  -21.0409 26102.0 -03471.2 -07.5751 26331.8
 28 09 2013  15 15  -21.0409 26102.0 -03471.3 -07.5753 26331.8
 28 09 2013  15 16  -21.0409 26101.9 -03471.3 -07.5754 26331.8
 28 09 2013  15 17  -21.0406 26101.8 -03471.3 -07.5753 26331.6
 28 09 2013  15 18  -21.0403 26101.8 -03471.3 -07.5753 26331.6
 28 09 2013  15 19  -21.0402 26101.8 -03471.3 -07.5753 26331.6
 28 09 2013  15 20  -21.0399 26101.7 -03471.2 -07.5752 26331.5
 28 09 2013  15 21  -21.0396 26101.6 -03471.2 -07.5751 26331.4
 28 09 2013  15 22  -21.0394 26101.5 -03471.2 -07.5751 26331.3
 28 09 2013  15 23  -21.0389 26101.5 -03471.1 -07.5751 26331.3
 28 09 2013  15 24  -21.0384 26101.4 -03471.1 -07.5750 26331.1
 28 09 2013  15 25  -21.0381 26101.3 -03471.1 -07.5750 26331.1
 28 09 2013  15 26  -21.0376 26101.2 -03471.0 -07.5749 26331.0
 28 09 2013  15 27  -21.0369 26101.0 -03471.0 -07.5748 26330.8
 28 09 2013  15 28  -21.0362 26100.8 -03470.9 -07.5748 26330.6
 28 09 2013  15 29  -21.0357 26100.7 -03470.9 -07.5749 26330.5
 28 09 2013  15 30  -21.0352 26100.7 -03471.0 -07.5750 26330.5
 28 09 2013  15 31  -21.0346 26100.5 -03471.0 -07.5750 26330.3
 28 09 2013  15 32  -21.0340 26100.3 -03471.0 -07.5751 26330.1
 28 09 2013  15 33  -21.0334 26100.1 -03471.0 -07.5752 26329.9
 28 09 2013  15 34  -21.0327 26099.9 -03471.0 -07.5753 26329.7
 28 09 2013  15 35  -21.0321 26099.7 -03471.1 -07.5755 26329.5
 28 09 2013  15 36  -21.0316 26099.7 -03471.2 -07.5758 26329.5
 28 09 2013  15 37  -21.0312 26099.6 -03471.3 -07.5760 26329.4
 28 09 2013  15 38  -21.0307 26099.5 -03471.4 -07.5762 26329.4
 28 09 2013  15 39  -21.0302 26099.4 -03471.5 -07.5765 26329.2
 28 09 2013  15 40  -21.0297 26099.2 -03471.5 -07.5766 26329.0
 28 09 2013  15 41  -21.0292 26099.0 -03471.6 -07.5769 26328.9
 28 09 2013  15 42  -21.0287 26098.8 -03471.8 -07.5772 26328.7
 28 09 2013  15 43  -21.0283 26098.7 -03471.9 -07.5776 26328.7
 28 09 2013  15 44  -21.0281 26098.7 -03472.1 -07.5780 26328.6
 28 09 2013  15 45  -21.0279 26098.7 -03472.3 -07.5783 26328.7
 28 09 2013  15 46  -21.0278 26098.7 -03472.4 -07.5787 26328.7
 28 09 2013  15 47  -21.0278 26098.6 -03472.6 -07.5790 26328.6
 28 09 2013  15 48  -21.0278 26098.6 -03472.8 -07.5794 26328.7
 28 09 2013  15 49  -21.0278 26098.6 -03472.9 -07.5797 26328.7
 28 09 2013  15 50  -21.0280 26098.6 -03473.0 -07.5800 26328.7
 28 09 2013  15 51  -21.0281 26098.5 -03473.1 -07.5801 26328.6
 28 09 2013  15 52  -21.0283 26098.4 -03473.2 -07.5804 26328.4
 28 09 2013  15 53  -21.0284 26098.1 -03473.2 -07.5806 26328.2
 28 09 2013  15 54  -21.0285 26097.9 -03473.3 -07.5808 26328.0
 28 09 2013  15 55  -21.0287 26097.8 -03473.4 -07.5811 26327.9
 28 09 2013  15 56  -21.0288 26097.5 -03473.5 -07.5812 26327.6
 28 09 2013  15 57  -21.0290 26097.2 -03473.5 -07.5815 26327.4
 28 09 2013  15 58  -21.0291 26097.0 -03473.6 -07.5817 26327.1
 28 09 2013  15 59  -21.0292 26096.7 -03473.7 -07.5820 26326.9
 28 09 2013  16 00  -21.0294 26096.5 -03473.8 -07.5824 26326.7
 28 09 2013  16 01  -21.0295 26096.1 -03473.9 -07.5826 26326.3
 28 09 2013  16 02  -21.0296 26095.8 -03474.0 -07.5829 26326.1
 28 09 2013  16 03  -21.0298 26095.6 -03474.1 -07.5832 26325.9
 28 09 2013  16 04  -21.0301 26095.4 -03474.3 -07.5836 26325.7
 28 09 2013  16 05  -21.0304 26095.2 -03474.4 -07.5838 26325.5
 28 09 2013  16 06  -21.0306 26095.0 -03474.4 -07.5840 26325.3
 28 09 2013  16 07  -21.0307 26094.7 -03474.4 -07.5841 26325.0
 28 09 2013  16 08  -21.0308 26094.5 -03474.5 -07.5843 26324.8
 28 09 2013  16 09  -21.0310 26094.2 -03474.5 -07.5843 26324.5
 28 09 2013  16 10  -21.0314 26093.9 -03474.4 -07.5844 26324.2
 28 09 2013  16 11  -21.0313 26093.7 -03474.5 -07.5846 26324.0
 28 09 2013  16 12  -21.0317 26093.4 -03474.5 -07.5846 26323.7
 28 09 2013  16 13  -21.0318 26093.3 -03474.5 -07.5847 26323.6
 28 09 2013  16 14  -21.0319 26092.8 -03474.4 -07.5846 26323.1
 28 09 2013  16 15  -21.0320 26092.7 -03474.4 -07.5847 26323.0
 28 09 2013  16 16  -21.0322 26092.3 -03474.4 -07.5847 26322.6
 28 09 2013  16 17  -21.0326 26092.2 -03474.4 -07.5847 26322.5
 28 09 2013  16 18  -21.0328 26091.8 -03474.2 -07.5845 26322.1
 28 09 2013  16 19  -21.0328 26091.5 -03474.1 -07.5844 26321.8
 28 09 2013  16 20  -21.0329 26091.2 -03474.0 -07.5843 26321.5
 28 09 2013  16 21  -21.0331 26090.9 -03474.0 -07.5842 26321.2
 28 09 2013  16 22  -21.0332 26090.7 -03473.9 -07.5841 26320.9
 28 09 2013  16 23  -21.0334 26090.4 -03473.7 -07.5838 26320.6
 28 09 2013  16 24  -21.0334 26090.0 -03473.6 -07.5837 26320.2
 28 09 2013  16 25  -21.0336 26089.7 -03473.5 -07.5836 26320.0
 28 09 2013  16 26  -21.0338 26089.7 -03473.5 -07.5836 26319.9
 28 09 2013  16 27  -21.0342 26089.3 -03473.3 -07.5833 26319.5
 28 09 2013  16 28  -21.0340 26088.9 -03473.1 -07.5830 26319.0
 28 09 2013  16 29  -21.0342 26088.5 -03473.0 -07.5828 26318.7
 28 09 2013  16 30  -21.0346 26088.4 -03473.0 -07.5828 26318.6
 28 09 2013  16 31  -21.0346 26087.9 -03472.7 -07.5824 26318.0
 28 09 2013  16 32  -21.0347 26087.5 -03472.6 -07.5822 26317.6
 28 09 2013  16 33  -21.0343 26087.1 -03472.4 -07.5819 26317.2
 28 09 2013  16 34  -21.0345 26087.1 -03472.4 -07.5820 26317.2
 28 09 2013  16 35  -21.0344 26086.8 -03472.2 -07.5817 26316.9
 28 09 2013  16 36  -21.0344 26086.7 -03472.2 -07.5816 26316.8
 28 09 2013  16 37  -21.0343 26086.5 -03472.1 -07.5815 26316.6
 28 09 2013  16 38  -21.0345 26086.6 -03472.1 -07.5815 26316.7
 28 09 2013  16 39  -21.0346 26086.4 -03472.0 -07.5812 26316.4
 28 09 2013  16 40  -21.0345 26086.4 -03471.9 -07.5810 26316.4
 28 09 2013  16 41  -21.0344 26086.1 -03471.8 -07.5808 26316.1
 28 09 2013  16 42  -21.0344 26085.9 -03471.6 -07.5806 26315.9
 28 09 2013  16 43  -21.0343 26085.5 -03471.5 -07.5805 26315.5
 28 09 2013  16 44  -21.0342 26085.0 -03471.3 -07.5802 26315.0
 28 09 2013  16 45  -21.0341 26084.6 -03471.2 -07.5801 26314.6
 28 09 2013  16 46  -21.0341 26084.1 -03471.1 -07.5800 26314.1
 28 09 2013  16 47  -21.0341 26083.7 -03471.0 -07.5799 26313.7
 28 09 2013  16 48  -21.0341 26083.3 -03470.9 -07.5799 26313.2
 28 09 2013  16 49  -21.0340 26082.8 -03470.8 -07.5798 26312.7
 28 09 2013  16 50  -21.0339 26082.4 -03470.8 -07.5797 26312.3
 28 09 2013  16 51  -21.0338 26082.1 -03470.7 -07.5797 26312.1
 28 09 2013  16 52  -21.0339 26081.8 -03470.7 -07.5797 26311.7
 28 09 2013  16 53  -21.0340 26081.7 -03470.6 -07.5797 26311.6
 28 09 2013  16 54  -21.0341 26081.3 -03470.5 -07.5796 26311.2
 28 09 2013  16 55  -21.0339 26081.0 -03470.5 -07.5795 26310.9
 28 09 2013  16 56  -21.0340 26080.7 -03470.4 -07.5794 26310.5
 28 09 2013  16 57  -21.0340 26080.4 -03470.3 -07.5793 26310.3
 28 09 2013  16 58  -21.0341 26080.2 -03470.2 -07.5793 26310.0
 28 09 2013  16 59  -21.0343 26079.9 -03470.2 -07.5791 26309.8
 28 09 2013  17 00  -21.0343 26079.8 -03470.1 -07.5791 26309.7
 28 09 2013  17 01  -21.0343 26079.3 -03469.9 -07.5788 26309.2
 28 09 2013  17 02  -21.0343 26079.1 -03469.9 -07.5787 26308.9
 28 09 2013  17 03  -21.0343 26078.6 -03469.7 -07.5785 26308.4
 28 09 2013  17 04  -21.0343 26078.3 -03469.6 -07.5784 26308.1
 28 09 2013  17 05  -21.0344 26078.0 -03469.5 -07.5783 26307.8
 28 09 2013  17 06  -21.0345 26077.8 -03469.4 -07.5782 26307.6
 28 09 2013  17 07  -21.0346 26077.6 -03469.3 -07.5781 26307.3
 28 09 2013  17 08  -21.0346 26077.4 -03469.2 -07.5779 26307.1
 28 09 2013  17 09  -21.0345 26077.1 -03469.2 -07.5778 26306.8
 28 09 2013  17 10  -21.0344 26076.4 -03468.9 -07.5775 26306.1
 28 09 2013  17 11  -21.0342 26076.0 -03468.7 -07.5772 26305.7
 28 09 2013  17 12  -21.0342 26075.8 -03468.7 -07.5773 26305.5
 28 09 2013  17 13  -21.0340 26075.3 -03468.6 -07.5771 26305.0
 28 09 2013  17 14  -21.0339 26075.2 -03468.6 -07.5772 26304.9
 28 09 2013  17 15  -21.0336 26074.8 -03468.5 -07.5770 26304.5
 28 09 2013  17 16  -21.0336 26074.0 -03468.3 -07.5768 26303.7
 28 09 2013  17 17  -21.0331 26074.1 -03468.4 -07.5769 26303.7
 28 09 2013  17 18  -21.0332 26073.8 -03468.4 -07.5771 26303.5
 28 09 2013  17 19  -21.0330 26073.3 -03468.2 -07.5769 26303.0
 28 09 2013  17 20  -21.0328 26073.2 -03468.3 -07.5771 26302.9
 28 09 2013  17 21  -21.0326 26072.8 -03468.2 -07.5770 26302.5
 28 09 2013  17 22  -21.0323 26072.4 -03468.1 -07.5770 26302.1
 28 09 2013  17 23  -21.0320 26072.1 -03468.1 -07.5770 26301.8
 28 09 2013  17 24  -21.0318 26071.8 -03468.1 -07.5771 26301.4
 28 09 2013  17 25  -21.0314 26071.4 -03468.1 -07.5771 26301.0
 28 09 2013  17 26  -21.0310 26071.0 -03468.0 -07.5772 26300.7
 28 09 2013  17 27  -21.0308 26070.7 -03468.1 -07.5773 26300.4
 28 09 2013  17 28  -21.0305 26070.5 -03468.1 -07.5775 26300.1
 28 09 2013  17 29  -21.0301 26070.1 -03468.1 -07.5775 26299.8
 28 09 2013  17 30  -21.0298 26069.8 -03468.1 -07.5777 26299.5
 28 09 2013  17 31  -21.0293 26069.5 -03468.2 -07.5778 26299.1
 28 09 2013  17 32  -21.0288 26069.2 -03468.2 -07.5780 26298.9
 28 09 2013  17 33  -21.0283 26068.9 -03468.3 -07.5782 26298.6
 28 09 2013  17 34  -21.0279 26068.6 -03468.3 -07.5785 26298.3
 28 09 2013  17 35  -21.0275 26068.2 -03468.4 -07.5786 26298.0
 28 09 2013  17 36  -21.0272 26068.0 -03468.5 -07.5789 26297.8
 28 09 2013  17 37  -21.0268 26067.6 -03468.5 -07.5791 26297.4
 28 09 2013  17 38  -21.0264 26067.2 -03468.5 -07.5793 26297.0
 28 09 2013  17 39  -21.0260 26066.9 -03468.6 -07.5796 26296.6
 28 09 2013  17 40  -21.0255 26066.5 -03468.7 -07.5799 26296.3
 28 09 2013  17 41  -21.0252 26066.2 -03468.8 -07.5802 26296.0
 28 09 2013  17 42  -21.0249 26066.0 -03468.9 -07.5805 26295.8
 28 09 2013  17 43  -21.0246 26065.6 -03469.0 -07.5807 26295.5
 28 09 2013  17 44  -21.0242 26065.3 -03469.1 -07.5810 26295.2
 28 09 2013  17 45  -21.0241 26065.1 -03469.1 -07.5812 26294.9
 28 09 2013  17 46  -21.0237 26064.7 -03469.2 -07.5814 26294.6
 28 09 2013  17 47  -21.0235 26064.4 -03469.3 -07.5817 26294.3
 28 09 2013  17 48  -21.0231 26064.1 -03469.3 -07.5820 26294.0
 28 09 2013  17 49  -21.0229 26063.7 -03469.4 -07.5821 26293.6
 28 09 2013  17 50  -21.0224 26063.5 -03469.5 -07.5824 26293.4
 28 09 2013  17 51  -21.0220 26063.1 -03469.5 -07.5826 26293.0
 28 09 2013  17 52  -21.0216 26062.8 -03469.6 -07.5829 26292.8
 28 09 2013  17 53  -21.0213 26062.5 -03469.7 -07.5832 26292.5
 28 09 2013  17 54  -21.0208 26062.2 -03469.7 -07.5834 26292.2
 28 09 2013  17 55  -21.0205 26062.0 -03469.8 -07.5836 26291.9
 28 09 2013  17 56  -21.0201 26061.7 -03469.9 -07.5839 26291.7
 28 09 2013  17 57  -21.0197 26061.4 -03469.9 -07.5840 26291.4
 28 09 2013  17 58  -21.0193 26061.1 -03470.0 -07.5843 26291.1
 28 09 2013  17 59  -21.0188 26060.8 -03470.1 -07.5845 26290.8
 28 09 2013  18 00  -21.0185 26060.5 -03470.2 -07.5848 26290.5
 28 09 2013  18 01  -21.0181 26060.2 -03470.2 -07.5850 26290.3
 28 09 2013  18 02  -21.0178 26060.0 -03470.3 -07.5852 26290.0
 28 09 2013  18 03  -21.0174 26059.6 -03470.3 -07.5853 26289.7
 28 09 2013  18 04  -21.0171 26059.4 -03470.4 -07.5855 26289.5
 28 09 2013  18 05  -21.0167 26059.1 -03470.4 -07.5856 26289.1
 28 09 2013  18 06  -21.0163 26058.8 -03470.4 -07.5858 26288.9
 28 09 2013  18 07  -21.0159 26058.5 -03470.4 -07.5859 26288.6
 28 09 2013  18 08  -21.0155 26058.3 -03470.5 -07.5861 26288.4
 28 09 2013  18 09  -21.0152 26058.1 -03470.5 -07.5863 26288.2
 28 09 2013  18 10  -21.0147 26057.7 -03470.5 -07.5864 26287.7
 28 09 2013  18 11  -21.0142 26057.4 -03470.6 -07.5865 26287.5
 28 09 2013  18 12  -21.0139 26057.0 -03470.6 -07.5867 26287.1
 28 09 2013  18 13  -21.0133 26056.7 -03470.6 -07.5869 26286.8
 28 09 2013  18 14  -21.0128 26056.4 -03470.6 -07.5870 26286.5
 28 09 2013  18 15  -21.0121 26056.0 -03470.7 -07.5872 26286.1
 28 09 2013  18 16  -21.0117 26055.8 -03470.8 -07.5874 26285.9
 28 09 2013  18 17  -21.0112 26055.5 -03470.8 -07.5876 26285.7
 28 09 2013  18 18  -21.0106 26055.3 -03470.9 -07.5878 26285.5
 28 09 2013  18 19  -21.0100 26055.1 -03471.0 -07.5881 26285.3
 28 09 2013  18 20  -21.0095 26054.6 -03471.0 -07.5882 26284.8
 28 09 2013  18 21  -21.0089 26054.6 -03471.2 -07.5886 26284.8
 28 09 2013  18 22  -21.0085 26054.4 -03471.3 -07.5890 26284.6
 28 09 2013  18 23  -21.0079 26054.0 -03471.3 -07.5892 26284.3
 28 09 2013  18 24  -21.0073 26053.7 -03471.4 -07.5894 26284.0
 28 09 2013  18 25  -21.0069 26053.5 -03471.5 -07.5896 26283.8
 28 09 2013  18 26  -21.0066 26053.3 -03471.6 -07.5899 26283.6
 28 09 2013  18 27  -21.0061 26053.1 -03471.7 -07.5902 26283.4
 28 09 2013  18 28  -21.0056 26052.9 -03471.8 -07.5904 26283.2
 28 09 2013  18 29  -21.0051 26052.7 -03471.9 -07.5907 26283.0
 28 09 2013  18 30  -21.0047 26052.4 -03471.9 -07.5909 26282.7
 28 09 2013  18 31  -21.0043 26051.9 -03471.9 -07.5910 26282.3
 28 09 2013  18 32  -21.0038 26051.8 -03472.0 -07.5913 26282.1
 28 09 2013  18 33  -21.0034 26051.5 -03472.1 -07.5916 26281.9
 28 09 2013  18 34  -21.0030 26051.2 -03472.2 -07.5918 26281.6
 28 09 2013  18 35  -21.0026 26050.9 -03472.3 -07.5921 26281.3
 28 09 2013  18 36  -21.0023 26050.5 -03472.3 -07.5923 26280.9
 28 09 2013  18 37  -21.0019 26050.2 -03472.4 -07.5925 26280.6
 28 09 2013  18 38  -21.0016 26049.9 -03472.5 -07.5928 26280.3
 28 09 2013  18 39  -21.0011 26049.6 -03472.6 -07.5931 26280.1
 28 09 2013  18 40  -21.0008 26049.4 -03472.7 -07.5935 26279.8
 28 09 2013  18 41  -21.0004 26049.0 -03472.8 -07.5938 26279.5
 28 09 2013  18 42  -21.0001 26048.8 -03472.9 -07.5941 26279.3
 28 09 2013  18 43  -20.9997 26048.6 -03473.0 -07.5944 26279.1
 28 09 2013  18 44  -20.9992 26048.3 -03473.2 -07.5947 26278.8
 28 09 2013  18 45  -20.9988 26048.1 -03473.3 -07.5950 26278.6
 28 09 2013  18 46  -20.9984 26047.8 -03473.4 -07.5953 26278.3
 28 09 2013  18 47  -20.9981 26047.5 -03473.5 -07.5956 26278.1
 28 09 2013  18 48  -20.9977 26047.2 -03473.6 -07.5959 26277.8
 28 09 2013  18 49  -20.9974 26047.0 -03473.7 -07.5962 26277.6
 28 09 2013  18 50  -20.9972 26046.8 -03473.8 -07.5966 26277.4
 28 09 2013  18 51  -20.9969 26046.4 -03473.9 -07.5969 26277.1
 28 09 2013  18 52  -20.9967 26046.2 -03474.0 -07.5972 26276.9
 28 09 2013  18 53  -20.9963 26046.0 -03474.1 -07.5975 26276.6
 28 09 2013  18 54  -20.9960 26045.6 -03474.2 -07.5978 26276.3
 28 09 2013  18 55  -20.9958 26045.1 -03474.3 -07.5981 26275.8
 28 09 2013  18 56  -20.9955 26045.0 -03474.5 -07.5986 26275.8
 28 09 2013  18 57  -20.9954 26044.7 -03474.7 -07.5990 26275.5
 28 09 2013  18 58  -20.9952 26044.5 -03474.8 -07.5994 26275.3
 28 09 2013  18 59  -20.9950 26044.4 -03475.0 -07.5999 26275.2
 28 09 2013  19 00  -20.9948 26044.2 -03475.2 -07.6003 26275.0
 28 09 2013  19 01  -20.9945 26044.0 -03475.3 -07.6007 26274.9
 28 09 2013  19 02  -20.9944 26044.1 -03475.6 -07.6012 26275.0
 28 09 2013  19 03  -20.9942 26043.9 -03475.7 -07.6015 26274.8
 28 09 2013  19 04  -20.9942 26043.3 -03475.7 -07.6016 26274.2
 28 09 2013  19 05  -20.9938 26042.9 -03475.7 -07.6017 26273.8
 28 09 2013  19 06  -20.9938 26043.3 -03476.1 -07.6025 26274.3
 28 09 2013  19 07  -20.9936 26043.0 -03476.1 -07.6027 26274.0
 28 09 2013  19 08  -20.9935 26042.6 -03476.2 -07.6029 26273.6
 28 09 2013  19 09  -20.9934 26042.2 -03476.2 -07.6031 26273.2
 28 09 2013  19 10  -20.9932 26042.2 -03476.4 -07.6034 26273.2
 28 09 2013  19 11  -20.9930 26041.8 -03476.4 -07.6036 26272.8
 28 09 2013  19 12  -20.9928 26041.8 -03476.5 -07.6039 26272.8
 28 09 2013  19 13  -20.9926 26041.9 -03476.8 -07.6044 26273.0
 28 09 2013  19 14  -20.9924 26041.9 -03477.0 -07.6048 26273.0
 28 09 2013  19 15  -20.9920 26041.5 -03477.0 -07.6050 26272.6
 28 09 2013  19 16  -20.9919 26041.1 -03477.0 -07.6051 26272.2
 28 09 2013  19 17  -20.9917 26041.1 -03477.2 -07.6055 26272.2
 28 09 2013  19 18  -20.9915 26041.0 -03477.3 -07.6058 26272.2
 28 09 2013  19 19  -20.9913 26040.8 -03477.4 -07.6060 26271.9
 28 09 2013  19 20  -20.9911 26040.8 -03477.6 -07.6064 26271.9
 28 09 2013  19 21  -20.9908 26040.5 -03477.6 -07.6067 26271.7
 28 09 2013  19 22  -20.9907 26040.4 -03477.8 -07.6070 26271.6
 28 09 2013  19 23  -20.9905 26040.5 -03478.0 -07.6075 26271.7
 28 09 2013  19 24  -20.9905 26039.9 -03478.0 -07.6076 26271.2
 28 09 2013  19 25  -20.9903 26039.8 -03478.2 -07.6081 26271.0
 28 09 2013  19 26  -20.9902 26040.0 -03478.5 -07.6086 26271.3
 28 09 2013  19 27  -20.9900 26039.8 -03478.6 -07.6090 26271.2
 28 09 2013  19 28  -20.9899 26039.5 -03478.7 -07.6093 26270.8
 28 09 2013  19 29  -20.9898 26039.5 -03478.9 -07.6097 26270.8
 28 09 2013  19 30  -20.9897 26039.3 -03479.1 -07.6102 26270.7
 28 09 2013  19 31  -20.9895 26039.2 -03479.3 -07.6105 26270.6
 28 09 2013  19 32  -20.9896 26039.0 -03479.4 -07.6110 26270.4
 28 09 2013  19 33  -20.9895 26039.0 -03479.7 -07.6115 26270.5
 28 09 2013  19 34  -20.9894 26038.9 -03479.8 -07.6119 26270.4
 28 09 2013  19 35  -20.9895 26038.6 -03479.9 -07.6122 26270.2
 28 09 2013  19 36  -20.9895 26038.7 -03480.2 -07.6126 26270.2
 28 09 2013  19 37  -20.9896 26038.6 -03480.4 -07.6131 26270.2
 28 09 2013  19 38  -20.9896 26038.3 -03480.4 -07.6133 26269.9
 28 09 2013  19 39  -20.9899 26038.3 -03480.6 -07.6137 26269.9
 28 09 2013  19 40  -20.9900 26038.4 -03480.8 -07.6142 26270.0
 28 09 2013  19 41  -20.9901 26038.2 -03481.0 -07.6145 26269.8
 28 09 2013  19 42  -20.9902 26038.1 -03481.1 -07.6149 26269.8
 28 09 2013  19 43  -20.9904 26038.0 -03481.3 -07.6153 26269.7
 28 09 2013  19 44  -20.9906 26037.8 -03481.4 -07.6157 26269.5
 28 09 2013  19 45  -20.9907 26037.9 -03481.6 -07.6161 26269.6
 28 09 2013  19 46  -20.9908 26037.8 -03481.8 -07.6165 26269.6
 28 09 2013  19 47  -20.9910 26037.7 -03482.0 -07.6168 26269.5
 28 09 2013  19 48  -20.9912 26037.7 -03482.1 -07.6171 26269.5
 28 09 2013  19 49  -20.9913 26037.6 -03482.2 -07.6175 26269.4
 28 09 2013  19 50  -20.9915 26037.5 -03482.4 -07.6178 26269.4
 28 09 2013  19 51  -20.9916 26037.5 -03482.5 -07.6181 26269.4
 28 09 2013  19 52  -20.9918 26037.4 -03482.6 -07.6184 26269.3
 28 09 2013  19 53  -20.9920 26037.4 -03482.8 -07.6187 26269.3
 28 09 2013  19 54  -20.9921 26037.4 -03483.0 -07.6191 26269.3
 28 09 2013  19 55  -20.9922 26037.3 -03483.1 -07.6194 26269.2
 28 09 2013  19 56  -20.9923 26037.2 -03483.2 -07.6197 26269.2
 28 09 2013  19 57  -20.9925 26037.1 -03483.3 -07.6200 26269.1
 28 09 2013  19 58  -20.9926 26037.1 -03483.5 -07.6203 26269.1
 28 09 2013  19 59  -20.9927 26037.0 -03483.6 -07.6206 26269.0
 28 09 2013  20 00  -20.9929 26037.0 -03483.8 -07.6209 26269.1
 28 09 2013  20 01  -20.9931 26037.1 -03483.9 -07.6213 26269.1
 28 09 2013  20 02  -20.9933 26037.0 -03484.1 -07.6216 26269.1
 28 09 2013  20 03  -20.9935 26037.1 -03484.2 -07.6219 26269.2
 28 09 2013  20 04  -20.9937 26037.1 -03484.3 -07.6222 26269.2
 28 09 2013  20 05  -20.9939 26036.9 -03484.4 -07.6223 26269.0
 28 09 2013  20 06  -20.9940 26036.9 -03484.5 -07.6225 26269.0
 28 09 2013  20 07  -20.9942 26036.7 -03484.5 -07.6226 26268.9
 28 09 2013  20 08  -20.9941 26037.2 -03484.8 -07.6232 26269.4
 28 09 2013  20 09  -20.9944 26036.6 -03484.8 -07.6232 26268.8
 28 09 2013  20 10  -20.9945 26036.7 -03484.8 -07.6233 26268.9
 28 09 2013  20 11  -20.9946 26036.8 -03485.0 -07.6236 26269.0
 28 09 2013  20 12  -20.9948 26036.6 -03485.0 -07.6237 26268.8
 28 09 2013  20 13  -20.9947 26036.7 -03485.1 -07.6239 26268.9
 28 09 2013  20 14  -20.9948 26036.7 -03485.2 -07.6241 26268.9
 28 09 2013  20 15  -20.9949 26036.7 -03485.3 -07.6243 26269.0
 28 09 2013  20 16  -20.9948 26036.8 -03485.4 -07.6245 26269.0
 28 09 2013  20 17  -20.9949 26036.8 -03485.4 -07.6246 26269.1
 28 09 2013  20 18  -20.9951 26036.7 -03485.4 -07.6246 26268.9
 28 09 2013  20 19  -20.9953 26036.4 -03485.4 -07.6247 26268.7
 28 09 2013  20 20  -20.9954 26036.4 -03485.5 -07.6248 26268.7
 28 09 2013  20 21  -20.9953 26036.7 -03485.7 -07.6251 26269.0
 28 09 2013  20 22  -20.9956 26036.6 -03485.7 -07.6253 26268.9
 28 09 2013  20 23  -20.9958 26036.5 -03485.8 -07.6254 26268.8
 28 09 2013  20 24  -20.9958 26036.5 -03485.8 -07.6255 26268.8
 28 09 2013  20 25  -20.9958 26036.6 -03485.9 -07.6257 26268.9
 28 09 2013  20 26  -20.9959 26036.4 -03485.9 -07.6258 26268.7
 28 09 2013  20 27  -20.9960 26036.3 -03485.9 -07.6258 26268.7
 28 09 2013  20 28  -20.9961 26036.5 -03486.1 -07.6260 26268.9
 28 09 2013  20 29  -20.9962 26036.5 -03486.1 -07.6262 26268.8
 28 09 2013  20 30  -20.9963 26036.5 -03486.2 -07.6263 26268.9
 28 09 2013  20 31  -20.9963 26036.5 -03486.2 -07.6264 26268.9
 28 09 2013  20 32  -20.9964 26036.6 -03486.3 -07.6265 26268.9
 28 09 2013  20 33  -20.9966 26036.5 -03486.4 -07.6267 26268.9
 28 09 2013  20 34  -20.9968 26036.5 -03486.4 -07.6268 26268.9
 28 09 2013  20 35  -20.9969 26036.5 -03486.5 -07.6269 26268.9
 28 09 2013  20 36  -20.9970 26036.4 -03486.5 -07.6269 26268.8
 28 09 2013  20 37  -20.9973 26036.1 -03486.4 -07.6268 26268.5
 28 09 2013  20 38  -20.9974 26036.3 -03486.5 -07.6270 26268.6
 28 09 2013  20 39  -20.9972 26036.5 -03486.6 -07.6272 26268.9
 28 09 2013  20 40  -20.9974 26036.3 -03486.6 -07.6272 26268.7
 28 09 2013  20 41  -20.9976 26036.1 -03486.5 -07.6272 26268.5
 28 09 2013  20 42  -20.9975 26036.4 -03486.7 -07.6274 26268.8
 28 09 2013  20 43  -20.9976 26036.4 -03486.7 -07.6275 26268.8
 28 09 2013  20 44  -20.9978 26036.4 -03486.7 -07.6275 26268.8
 28 09 2013  20 45  -20.9979 26036.4 -03486.7 -07.6275 26268.8
 28 09 2013  20 46  -20.9979 26036.5 -03486.8 -07.6277 26268.9
 28 09 2013  20 47  -20.9980 26036.5 -03486.8 -07.6277 26268.9
 28 09 2013  20 48  -20.9981 26036.5 -03486.8 -07.6277 26268.9
 28 09 2013  20 49  -20.9982 26036.5 -03486.9 -07.6277 26268.9
 28 09 2013  20 50  -20.9981 26036.6 -03486.9 -07.6279 26269.0
 28 09 2013  20 51  -20.9982 26036.6 -03487.0 -07.6280 26269.1
 28 09 2013  20 52  -20.9982 26036.7 -03487.1 -07.6281 26269.2
 28 09 2013  20 53  -20.9981 26036.7 -03487.1 -07.6282 26269.2
 28 09 2013  20 54  -20.9980 26036.8 -03487.1 -07.6282 26269.2
 28 09 2013  20 55  -20.9980 26036.8 -03487.1 -07.6282 26269.2
 28 09 2013  20 56  -20.9979 26036.7 -03487.1 -07.6282 26269.2
 28 09 2013  20 57  -20.9979 26036.7 -03487.2 -07.6284 26269.2
 28 09 2013  20 58  -20.9979 26036.8 -03487.2 -07.6285 26269.3
 28 09 2013  20 59  -20.9978 26036.8 -03487.3 -07.6286 26269.3
 28 09 2013  21 00  -20.9980 26036.6 -03487.2 -07.6286 26269.1
 28 09 2013  21 01  -20.9981 26036.6 -03487.3 -07.6286 26269.1
 28 09 2013  21 02  -20.9981 26036.7 -03487.3 -07.6287 26269.2
 28 09 2013  21 03  -20.9980 26036.6 -03487.4 -07.6288 26269.2
 28 09 2013  21 04  -20.9981 26036.7 -03487.4 -07.6289 26269.2
 28 09 2013  21 05  -20.9980 26036.8 -03487.5 -07.6290 26269.3
 28 09 2013  21 06  -20.9981 26036.6 -03487.5 -07.6291 26269.1
 28 09 2013  21 07  -20.9980 26036.6 -03487.5 -07.6291 26269.2
 28 09 2013  21 08  -20.9981 26036.6 -03487.5 -07.6292 26269.1
 28 09 2013  21 09  -20.9982 26036.6 -03487.6 -07.6293 26269.1
 28 09 2013  21 10  -20.9982 26036.5 -03487.6 -07.6293 26269.1
 28 09 2013  21 11  -20.9982 26036.6 -03487.7 -07.6295 26269.2
 28 09 2013  21 12  -20.9984 26036.6 -03487.7 -07.6296 26269.2
 28 09 2013  21 13  -20.9984 26036.6 -03487.8 -07.6298 26269.2
 28 09 2013  21 14  -20.9983 26036.7 -03487.9 -07.6298 26269.3
 28 09 2013  21 15  -20.9983 26036.8 -03487.9 -07.6300 26269.4
 28 09 2013  21 16  -20.9985 26036.8 -03488.0 -07.6302 26269.4
 28 09 2013  21 17  -20.9987 26036.9 -03488.1 -07.6304 26269.5
 28 09 2013  21 18  -20.9988 26036.9 -03488.1 -07.6304 26269.5
 28 09 2013  21 19  -20.9990 26036.9 -03488.2 -07.6305 26269.5
 28 09 2013  21 20  -20.9992 26036.8 -03488.2 -07.6305 26269.4
 28 09 2013  21 21  -20.9993 26036.8 -03488.2 -07.6306 26269.5
 28 09 2013  21 22  -20.9995 26036.9 -03488.2 -07.6306 26269.5
 28 09 2013  21 23  -20.9997 26036.9 -03488.3 -07.6307 26269.5
 28 09 2013  21 24  -20.9998 26037.0 -03488.4 -07.6309 26269.6
 28 09 2013  21 25  -21.0001 26036.9 -03488.4 -07.6309 26269.6
 28 09 2013  21 26  -21.0004 26036.9 -03488.4 -07.6309 26269.5
 28 09 2013  21 27  -21.0006 26036.8 -03488.4 -07.6310 26269.5
 28 09 2013  21 28  -21.0009 26036.9 -03488.4 -07.6310 26269.5
 28 09 2013  21 29  -21.0012 26036.9 -03488.5 -07.6311 26269.6
 28 09 2013  21 30  -21.0014 26036.9 -03488.5 -07.6312 26269.6
 28 09 2013  21 31  -21.0015 26037.2 -03488.6 -07.6313 26269.8
 28 09 2013  21 32  -21.0021 26037.0 -03488.6 -07.6314 26269.6
 28 09 2013  21 33  -21.0021 26037.0 -03488.6 -07.6313 26269.7
 28 09 2013  21 34  -21.0020 26037.0 -03488.6 -07.6313 26269.6
 28 09 2013  21 35  -21.0026 26036.8 -03488.5 -07.6312 26269.4
 28 09 2013  21 36  -21.0029 26036.7 -03488.5 -07.6312 26269.4
 28 09 2013  21 37  -21.0028 26036.9 -03488.5 -07.6313 26269.5
 28 09 2013  21 38  -21.0031 26036.9 -03488.6 -07.6315 26269.6
 28 09 2013  21 39  -21.0036 26036.8 -03488.6 -07.6315 26269.4
 28 09 2013  21 40  -21.0038 26036.8 -03488.7 -07.6315 26269.5
 28 09 2013  21 41  -21.0037 26036.8 -03488.6 -07.6315 26269.5
 28 09 2013  21 42  -21.0039 26036.7 -03488.6 -07.6315 26269.4
 28 09 2013  21 43  -21.0042 26036.7 -03488.7 -07.6316 26269.4
 28 09 2013  21 44  -21.0042 26036.7 -03488.7 -07.6317 26269.4
 28 09 2013  21 45  -21.0043 26036.8 -03488.7 -07.6317 26269.5
 28 09 2013  21 46  -21.0046 26036.5 -03488.7 -07.6317 26269.2
 28 09 2013  21 47  -21.0047 26036.5 -03488.7 -07.6317 26269.2
 28 09 2013  21 48  -21.0048 26036.5 -03488.7 -07.6317 26269.2
 28 09 2013  21 49  -21.0052 26036.5 -03488.8 -07.6319 26269.2
 28 09 2013  21 50  -21.0052 26036.5 -03488.8 -07.6319 26269.2
 28 09 2013  21 51  -21.0053 26036.5 -03488.8 -07.6320 26269.2
 28 09 2013  21 52  -21.0055 26036.4 -03488.8 -07.6319 26269.1
 28 09 2013  21 53  -21.0058 26036.3 -03488.8 -07.6319 26269.0
 28 09 2013  21 54  -21.0059 26036.3 -03488.8 -07.6320 26269.0
 28 09 2013  21 55  -21.0060 26036.2 -03488.8 -07.6320 26268.9
 28 09 2013  21 56  -21.0061 26036.1 -03488.8 -07.6320 26268.8
 28 09 2013  21 57  -21.0061 26036.1 -03488.8 -07.6320 26268.8
 28 09 2013  21 58  -21.0062 26036.0 -03488.8 -07.6321 26268.7
 28 09 2013  21 59  -21.0063 26035.9 -03488.8 -07.6321 26268.6
 28 09 2013  22 00  -21.0064 26035.8 -03488.8 -07.6321 26268.5
 28 09 2013  22 01  -21.0065 26035.8 -03488.8 -07.6322 26268.5
 28 09 2013  22 02  -21.0066 26035.8 -03488.9 -07.6323 26268.6
 28 09 2013  22 03  -21.0066 26035.8 -03488.9 -07.6324 26268.6
 28 09 2013  22 04  -21.0066 26035.9 -03488.9 -07.6324 26268.6
 28 09 2013  22 05  -21.0067 26035.8 -03488.9 -07.6324 26268.5
 28 09 2013  22 06  -21.0068 26035.7 -03488.9 -07.6325 26268.4
 28 09 2013  22 07  -21.0068 26035.7 -03489.0 -07.6326 26268.5
 28 09 2013  22 08  -21.0067 26035.9 -03489.1 -07.6327 26268.6
 28 09 2013  22 09  -21.0068 26035.8 -03489.1 -07.6328 26268.6
 28 09 2013  22 10  -21.0068 26035.8 -03489.1 -07.6329 26268.5
 28 09 2013  22 11  -21.0068 26035.8 -03489.1 -07.6329 26268.5
 28 09 2013  22 12  -21.0067 26035.8 -03489.1 -07.6329 26268.5
 28 09 2013  22 13  -21.0068 26035.8 -03489.2 -07.6330 26268.6
 28 09 2013  22 14  -21.0069 26035.8 -03489.2 -07.6331 26268.5
 28 09 2013  22 15  -21.0069 26035.8 -03489.2 -07.6331 26268.5
 28 09 2013  22 16  -21.0071 26035.7 -03489.2 -07.6331 26268.4
 28 09 2013  22 17  -21.0071 26035.6 -03489.2 -07.6331 26268.3
 28 09 2013  22 18  -21.0071 26035.6 -03489.2 -07.6331 26268.4
 28 09 2013  22 19  -21.0071 26035.6 -03489.2 -07.6332 26268.3
 28 09 2013  22 20  -21.0072 26035.5 -03489.3 -07.6333 26268.3
 28 09 2013  22 21  -21.0073 26035.5 -03489.3 -07.6333 26268.3
 28 09 2013  22 22  -21.0074 26035.4 -03489.3 -07.6333 26268.2
 28 09 2013  22 23  -21.0074 26035.3 -03489.2 -07.6333 26268.1
 28 09 2013  22 24  -21.0074 26035.4 -03489.3 -07.6334 26268.2
 28 09 2013  22 25  -21.0075 26035.3 -03489.3 -07.6334 26268.1
 28 09 2013  22 26  -21.0076 26035.2 -03489.3 -07.6335 26268.0
 28 09 2013  22 27  -21.0076 26035.2 -03489.3 -07.6335 26267.9
 28 09 2013  22 28  -21.0077 26035.1 -03489.3 -07.6335 26267.9
 28 09 2013  22 29  -21.0078 26035.0 -03489.3 -07.6335 26267.8
 28 09 2013  22 30  -21.0079 26034.9 -03489.3 -07.6335 26267.7
 28 09 2013  22 31  -21.0078 26034.9 -03489.3 -07.6335 26267.7
 28 09 2013  22 32  -21.0079 26034.9 -03489.3 -07.6336 26267.7
 28 09 2013  22 33  -21.0080 26034.8 -03489.3 -07.6336 26267.6
 28 09 2013  22 34  -21.0079 26034.8 -03489.3 -07.6336 26267.6
 28 09 2013  22 35  -21.0080 26034.8 -03489.4 -07.6337 26267.5
 28 09 2013  22 36  -21.0081 26034.7 -03489.4 -07.6337 26267.5
 28 09 2013  22 37  -21.0081 26034.6 -03489.4 -07.6337 26267.4
 28 09 2013  22 38  -21.0081 26034.6 -03489.4 -07.6338 26267.4
 28 09 2013  22 39  -21.0082 26034.5 -03489.4 -07.6338 26267.3
 28 09 2013  22 40  -21.0082 26034.4 -03489.4 -07.6338 26267.2
 28 09 2013  22 41  -21.0082 26034.3 -03489.4 -07.6338 26267.1
 28 09 2013  22 42  -21.0082 26034.3 -03489.4 -07.6339 26267.1
 28 09 2013  22 43  -21.0082 26034.2 -03489.4 -07.6339 26267.0
 28 09 2013  22 44  -21.0082 26034.2 -03489.4 -07.6340 26267.0
 28 09 2013  22 45  -21.0083 26034.2 -03489.5 -07.6341 26267.0
 28 09 2013  22 46  -21.0083 26034.1 -03489.5 -07.6341 26267.0
 28 09 2013  22 47  -21.0083 26034.1 -03489.4 -07.6340 26266.9
 28 09 2013  22 48  -21.0083 26034.2 -03489.5 -07.6342 26267.0
 28 09 2013  22 49  -21.0083 26034.2 -03489.5 -07.6342 26267.0
 28 09 2013  22 50  -21.0083 26034.2 -03489.5 -07.6342 26267.0
 28 09 2013  22 51  -21.0083 26034.2 -03489.6 -07.6343 26267.0
 28 09 2013  22 52  -21.0083 26034.1 -03489.6 -07.6343 26267.0
 28 09 2013  22 53  -21.0083 26034.2 -03489.6 -07.6343 26267.0
 28 09 2013  22 54  -21.0083 26034.2 -03489.6 -07.6344 26267.0
 28 09 2013  22 55  -21.0083 26034.1 -03489.6 -07.6344 26267.0
 28 09 2013  22 56  -21.0082 26034.1 -03489.6 -07.6344 26266.9
 28 09 2013  22 57  -21.0082 26034.1 -03489.7 -07.6345 26267.0
 28 09 2013  22 58  -21.0082 26034.1 -03489.7 -07.6345 26267.0
 28 09 2013  22 59  -21.0082 26034.1 -03489.7 -07.6346 26267.0
 28 09 2013  23 00  -21.0081 26034.2 -03489.7 -07.6347 26267.0
 28 09 2013  23 01  -21.0081 26034.1 -03489.7 -07.6346 26267.0
 28 09 2013  23 02  -21.0082 26034.1 -03489.7 -07.6347 26267.0
 28 09 2013  23 03  -21.0083 26034.1 -03489.7 -07.6346 26266.9
 28 09 2013  23 04  -21.0082 26034.0 -03489.7 -07.6346 26266.9
 28 09 2013  23 05  -21.0083 26034.1 -03489.7 -07.6347 26266.9
 28 09 2013  23 06  -21.0082 26034.1 -03489.8 -07.6347 26267.0
 28 09 2013  23 07  -21.0082 26034.1 -03489.8 -07.6347 26267.0
 28 09 2013  23 08  -21.0082 26034.2 -03489.8 -07.6348 26267.0
 28 09 2013  23 09  -21.0081 26034.2 -03489.8 -07.6348 26267.0
 28 09 2013  23 10  -21.0082 26034.2 -03489.8 -07.6348 26267.0
 28 09 2013  23 11  -21.0082 26034.1 -03489.8 -07.6348 26267.0
 28 09 2013  23 12  -21.0082 26034.1 -03489.8 -07.6348 26267.0
 28 09 2013  23 13  -21.0082 26034.1 -03489.8 -07.6348 26266.9
 28 09 2013  23 14  -21.0082 26034.0 -03489.7 -07.6347 26266.9
 28 09 2013  23 15  -21.0082 26033.9 -03489.7 -07.6347 26266.7
 28 09 2013  23 16  -21.0083 26033.7 -03489.6 -07.6345 26266.5
 28 09 2013  23 17  -21.0082 26033.6 -03489.5 -07.6344 26266.4
 28 09 2013  23 18  -21.0082 26033.5 -03489.5 -07.6343 26266.3
 28 09 2013  23 19  -21.0082 26033.4 -03489.4 -07.6342 26266.2
 28 09 2013  23 20  -21.0082 26033.3 -03489.4 -07.6342 26266.1
 28 09 2013  23 21  -21.0081 26033.2 -03489.4 -07.6342 26266.0
 28 09 2013  23 22  -21.0082 26033.2 -03489.4 -07.6342 26266.0
 28 09 2013  23 23  -21.0081 26033.1 -03489.4 -07.6342 26265.9
 28 09 2013  23 24  -21.0081 26033.1 -03489.4 -07.6342 26265.9
 28 09 2013  23 25  -21.0082 26033.1 -03489.4 -07.6342 26265.9
 28 09 2013  23 26  -21.0081 26033.1 -03489.4 -07.6343 26265.9
 28 09 2013  23 27  -21.0081 26033.2 -03489.5 -07.6344 26266.0
 28 09 2013  23 28  -21.0081 26033.2 -03489.6 -07.6345 26266.1
 28 09 2013  23 29  -21.0080 26033.3 -03489.6 -07.6346 26266.1
 28 09 2013  23 30  -21.0080 26033.4 -03489.6 -07.6346 26266.2
 28 09 2013  23 31  -21.0079 26033.5 -03489.7 -07.6347 26266.3
 28 09 2013  23 32  -21.0079 26033.5 -03489.7 -07.6348 26266.4
 28 09 2013  23 33  -21.0079 26033.6 -03489.8 -07.6349 26266.5
 28 09 2013  23 34  -21.0078 26033.6 -03489.8 -07.6349 26266.5
 28 09 2013  23 35  -21.0079 26033.7 -03489.8 -07.6350 26266.5
 28 09 2013  23 36  -21.0078 26033.7 -03489.8 -07.6350 26266.5
 28 09 2013  23 37  -21.0078 26033.7 -03489.9 -07.6351 26266.6
 28 09 2013  23 38  -21.0077 26033.8 -03489.9 -07.6352 26266.7
 28 09 2013  23 39  -21.0077 26033.8 -03489.9 -07.6351 26266.6
 28 09 2013  23 40  -21.0076 26033.7 -03489.9 -07.6351 26266.6
 28 09 2013  23 41  -21.0076 26033.7 -03489.9 -07.6352 26266.6
 28 09 2013  23 42  -21.0075 26033.8 -03489.9 -07.6351 26266.7
 28 09 2013  23 43  -21.0075 26033.8 -03490.0 -07.6353 26266.7
 28 09 2013  23 44  -21.0074 26033.9 -03490.0 -07.6353 26266.8
 28 09 2013  23 45  -21.0074 26033.8 -03490.0 -07.6353 26266.7
 28 09 2013  23 46  -21.0073 26033.8 -03490.0 -07.6353 26266.7
 28 09 2013  23 47  -21.0072 26033.7 -03489.9 -07.6352 26266.6
 28 09 2013  23 48  -21.0072 26033.7 -03489.9 -07.6352 26266.6
 28 09 2013  23 49  -21.0072 26033.8 -03490.0 -07.6353 26266.7
 28 09 2013  23 50  -21.0071 26033.8 -03490.0 -07.6354 26266.7
 28 09 2013  23 51  -21.0070 26033.7 -03490.0 -07.6354 26266.6
 28 09 2013  23 52  -21.0070 26033.7 -03490.1 -07.6355 26266.6
 28 09 2013  23 53  -21.0070 26033.7 -03490.1 -07.6355 26266.6
 28 09 2013  23 54  -21.0069 26033.6 -03490.0 -07.6355 26266.5
 28 09 2013  23 55  -21.0069 26033.7 -03490.1 -07.6355 26266.6
 28 09 2013  23 56  -21.0069 26033.7 -03490.1 -07.6356 26266.6
 28 09 2013  23 57  -21.0069 26033.6 -03490.1 -07.6356 26266.5
