SAO LUIS EMBRACE-03 <272> 1 Min. Reported data

 DD MM YYYY  HH MM   D(Deg)  H(nT)   Z(nT)   I(Deg)   F(nT)

 29 09 2013  00 00  -21.0069 26033.5 -03490.1 -07.6357 26266.4
 29 09 2013  00 01  -21.0068 26033.5 -03490.1 -07.6357 26266.4
 29 09 2013  00 02  -21.0068 26033.4 -03490.1 -07.6358 26266.3
 29 09 2013  00 03  -21.0068 26033.4 -03490.1 -07.6358 26266.3
 29 09 2013  00 04  -21.0068 26033.4 -03490.2 -07.6358 26266.3
 29 09 2013  00 05  -21.0067 26033.3 -03490.2 -07.6359 26266.2
 29 09 2013  00 06  -21.0067 26033.2 -03490.1 -07.6358 26266.1
 29 09 2013  00 07  -21.0068 26033.2 -03490.2 -07.6358 26266.2
 29 09 2013  00 08  -21.0068 26033.4 -03490.3 -07.6360 26266.3
 29 09 2013  00 09  -21.0068 26033.4 -03490.3 -07.6361 26266.3
 29 09 2013  00 10  -21.0068 26033.3 -03490.3 -07.6361 26266.3
 29 09 2013  00 11  -21.0068 26033.3 -03490.3 -07.6361 26266.2
 29 09 2013  00 12  -21.0067 26033.2 -03490.3 -07.6361 26266.2
 29 09 2013  00 13  -21.0068 26033.3 -03490.3 -07.6362 26266.3
 29 09 2013  00 14  -21.0067 26033.3 -03490.3 -07.6362 26266.2
 29 09 2013  00 15  -21.0066 26033.3 -03490.4 -07.6363 26266.2
 29 09 2013  00 16  -21.0065 26033.3 -03490.4 -07.6363 26266.2
 29 09 2013  00 17  -21.0065 26033.3 -03490.4 -07.6363 26266.3
 29 09 2013  00 18  -21.0064 26033.3 -03490.4 -07.6364 26266.3
 29 09 2013  00 19  -21.0063 26033.3 -03490.4 -07.6364 26266.2
 29 09 2013  00 20  -21.0063 26033.3 -03490.4 -07.6364 26266.2
 29 09 2013  00 21  -21.0063 26033.3 -03490.4 -07.6364 26266.2
 29 09 2013  00 22  -21.0062 26033.2 -03490.5 -07.6365 26266.2
 29 09 2013  00 23  -21.0062 26033.2 -03490.5 -07.6365 26266.2
 29 09 2013  00 24  -21.0062 26033.3 -03490.5 -07.6367 26266.3
 29 09 2013  00 25  -21.0062 26033.3 -03490.6 -07.6367 26266.3
 29 09 2013  00 26  -21.0062 26033.4 -03490.6 -07.6368 26266.4
 29 09 2013  00 27  -21.0061 26033.4 -03490.6 -07.6368 26266.3
 29 09 2013  00 28  -21.0062 26033.4 -03490.6 -07.6368 26266.3
 29 09 2013  00 29  -21.0062 26033.4 -03490.6 -07.6368 26266.4
 29 09 2013  00 30  -21.0061 26033.6 -03490.7 -07.6370 26266.6
 29 09 2013  00 31  -21.0060 26033.7 -03490.8 -07.6370 26266.6
 29 09 2013  00 32  -21.0059 26033.6 -03490.8 -07.6370 26266.6
 29 09 2013  00 33  -21.0058 26033.4 -03490.7 -07.6369 26266.4
 29 09 2013  00 34  -21.0056 26033.2 -03490.5 -07.6367 26266.2
 29 09 2013  00 35  -21.0055 26033.2 -03490.5 -07.6366 26266.1
 29 09 2013  00 36  -21.0054 26033.4 -03490.6 -07.6369 26266.3
 29 09 2013  00 37  -21.0053 26033.3 -03490.7 -07.6369 26266.3
 29 09 2013  00 38  -21.0052 26033.2 -03490.6 -07.6368 26266.2
 29 09 2013  00 39  -21.0053 26033.2 -03490.6 -07.6368 26266.1
 29 09 2013  00 40  -21.0053 26033.0 -03490.6 -07.6368 26266.0
 29 09 2013  00 41  -21.0052 26033.0 -03490.5 -07.6367 26265.9
 29 09 2013  00 42  -21.0051 26033.0 -03490.5 -07.6367 26265.9
 29 09 2013  00 43  -21.0052 26032.9 -03490.6 -07.6368 26265.9
 29 09 2013  00 44  -21.0052 26032.9 -03490.5 -07.6368 26265.8
 29 09 2013  00 45  -21.0053 26032.9 -03490.6 -07.6369 26265.8
 29 09 2013  00 46  -21.0053 26032.9 -03490.6 -07.6369 26265.9
 29 09 2013  00 47  -21.0053 26032.9 -03490.6 -07.6369 26265.9
 29 09 2013  00 48  -21.0052 26032.9 -03490.6 -07.6369 26265.8
 29 09 2013  00 49  -21.0051 26032.8 -03490.6 -07.6369 26265.8
 29 09 2013  00 50  -21.0051 26032.8 -03490.6 -07.6369 26265.8
 29 09 2013  00 51  -21.0052 26032.8 -03490.7 -07.6370 26265.8
 29 09 2013  00 52  -21.0051 26032.8 -03490.7 -07.6371 26265.8
 29 09 2013  00 53  -21.0051 26032.9 -03490.7 -07.6372 26265.9
 29 09 2013  00 54  -21.0049 26032.9 -03490.7 -07.6371 26265.9
 29 09 2013  00 55  -21.0048 26032.9 -03490.8 -07.6372 26265.9
 29 09 2013  00 56  -21.0047 26032.9 -03490.7 -07.6372 26265.9
 29 09 2013  00 57  -21.0046 26032.9 -03490.8 -07.6373 26265.9
 29 09 2013  00 58  -21.0046 26032.9 -03490.8 -07.6373 26265.9
 29 09 2013  00 59  -21.0046 26032.9 -03490.8 -07.6373 26265.9
 29 09 2013  01 00  -21.0046 26032.9 -03490.8 -07.6373 26265.9
 29 09 2013  01 01  -21.0046 26033.0 -03490.9 -07.6375 26266.0
 29 09 2013  01 02  -21.0046 26032.9 -03490.9 -07.6376 26265.9
 29 09 2013  01 03  -21.0047 26032.9 -03490.9 -07.6376 26265.9
 29 09 2013  01 04  -21.0047 26032.9 -03490.9 -07.6376 26265.9
 29 09 2013  01 05  -21.0046 26032.8 -03490.9 -07.6376 26265.8
 29 09 2013  01 06  -21.0046 26032.8 -03490.9 -07.6376 26265.8
 29 09 2013  01 07  -21.0046 26032.8 -03490.9 -07.6376 26265.8
 29 09 2013  01 08  -21.0046 26032.6 -03490.9 -07.6376 26265.7
 29 09 2013  01 09  -21.0046 26032.5 -03490.8 -07.6375 26265.5
 29 09 2013  01 10  -21.0046 26032.5 -03490.8 -07.6375 26265.5
 29 09 2013  01 11  -21.0047 26032.5 -03490.8 -07.6375 26265.5
 29 09 2013  01 12  -21.0047 26032.4 -03490.9 -07.6376 26265.4
 29 09 2013  01 13  -21.0049 26032.4 -03490.9 -07.6376 26265.4
 29 09 2013  01 14  -21.0050 26032.3 -03490.8 -07.6375 26265.3
 29 09 2013  01 15  -21.0051 26032.3 -03490.8 -07.6376 26265.3
 29 09 2013  01 16  -21.0053 26032.2 -03490.8 -07.6375 26265.2
 29 09 2013  01 17  -21.0053 26032.1 -03490.8 -07.6375 26265.1
 29 09 2013  01 18  -21.0053 26032.2 -03490.8 -07.6375 26265.2
 29 09 2013  01 19  -21.0052 26032.1 -03490.8 -07.6376 26265.2
 29 09 2013  01 20  -21.0052 26032.1 -03490.8 -07.6376 26265.2
 29 09 2013  01 21  -21.0053 26032.1 -03490.8 -07.6375 26265.1
 29 09 2013  01 22  -21.0054 26032.2 -03490.8 -07.6376 26265.2
 29 09 2013  01 23  -21.0056 26032.3 -03490.9 -07.6377 26265.3
 29 09 2013  01 24  -21.0058 26032.4 -03491.0 -07.6378 26265.4
 29 09 2013  01 25  -21.0060 26032.4 -03491.0 -07.6378 26265.4
 29 09 2013  01 26  -21.0063 26032.3 -03491.0 -07.6378 26265.4
 29 09 2013  01 27  -21.0065 26032.4 -03491.0 -07.6378 26265.4
 29 09 2013  01 28  -21.0068 26032.5 -03491.0 -07.6379 26265.5
 29 09 2013  01 29  -21.0068 26032.5 -03491.0 -07.6378 26265.6
 29 09 2013  01 30  -21.0067 26032.7 -03491.1 -07.6379 26265.7
 29 09 2013  01 31  -21.0067 26032.8 -03491.1 -07.6379 26265.8
 29 09 2013  01 32  -21.0066 26032.9 -03491.1 -07.6379 26265.9
 29 09 2013  01 33  -21.0068 26032.9 -03491.1 -07.6380 26265.9
 29 09 2013  01 34  -21.0067 26032.9 -03491.1 -07.6380 26265.9
 29 09 2013  01 35  -21.0068 26032.9 -03491.1 -07.6379 26265.9
 29 09 2013  01 36  -21.0068 26032.8 -03491.0 -07.6378 26265.8
 29 09 2013  01 37  -21.0067 26032.8 -03491.0 -07.6378 26265.9
 29 09 2013  01 38  -21.0064 26032.7 -03490.9 -07.6377 26265.8
 29 09 2013  01 39  -21.0060 26032.6 -03490.9 -07.6376 26265.6
 29 09 2013  01 40  -21.0058 26032.7 -03490.9 -07.6377 26265.7
 29 09 2013  01 41  -21.0055 26032.7 -03490.9 -07.6377 26265.7
 29 09 2013  01 42  -21.0053 26032.6 -03490.9 -07.6377 26265.6
 29 09 2013  01 43  -21.0053 26032.5 -03490.9 -07.6378 26265.6
 29 09 2013  01 44  -21.0055 26032.6 -03491.0 -07.6378 26265.6
 29 09 2013  01 45  -21.0057 26032.7 -03491.0 -07.6379 26265.7
 29 09 2013  01 46  -21.0058 26032.7 -03491.1 -07.6380 26265.7
 29 09 2013  01 47  -21.0060 26032.7 -03491.1 -07.6380 26265.7
 29 09 2013  01 48  -21.0061 26032.7 -03491.1 -07.6381 26265.8
 29 09 2013  01 49  -21.0060 26032.7 -03491.1 -07.6381 26265.8
 29 09 2013  01 50  -21.0059 26032.6 -03491.1 -07.6380 26265.7
 29 09 2013  01 51  -21.0058 26032.5 -03491.0 -07.6379 26265.6
 29 09 2013  01 52  -21.0057 26032.5 -03491.0 -07.6379 26265.6
 29 09 2013  01 53  -21.0056 26032.3 -03491.0 -07.6378 26265.4
 29 09 2013  01 54  -21.0056 26032.3 -03490.9 -07.6377 26265.3
 29 09 2013  01 55  -21.0054 26032.4 -03491.0 -07.6379 26265.5
 29 09 2013  01 56  -21.0051 26032.4 -03491.0 -07.6380 26265.5
 29 09 2013  01 57  -21.0051 26032.1 -03490.9 -07.6378 26265.2
 29 09 2013  01 58  -21.0050 26031.8 -03490.8 -07.6377 26264.9
 29 09 2013  01 59  -21.0050 26031.8 -03490.8 -07.6376 26264.8
 29 09 2013  02 00  -21.0050 26032.0 -03490.9 -07.6378 26265.0
 29 09 2013  02 01  -21.0049 26032.1 -03491.0 -07.6379 26265.1
 29 09 2013  02 02  -21.0050 26032.0 -03491.0 -07.6380 26265.0
 29 09 2013  02 03  -21.0051 26031.9 -03491.0 -07.6380 26264.9
 29 09 2013  02 04  -21.0051 26032.0 -03491.0 -07.6381 26265.1
 29 09 2013  02 05  -21.0051 26032.3 -03491.2 -07.6383 26265.4
 29 09 2013  02 06  -21.0050 26032.4 -03491.2 -07.6384 26265.5
 29 09 2013  02 07  -21.0050 26032.5 -03491.3 -07.6384 26265.5
 29 09 2013  02 08  -21.0051 26032.5 -03491.3 -07.6385 26265.6
 29 09 2013  02 09  -21.0052 26032.5 -03491.3 -07.6386 26265.6
 29 09 2013  02 10  -21.0052 26032.5 -03491.3 -07.6385 26265.6
 29 09 2013  02 11  -21.0051 26032.4 -03491.3 -07.6385 26265.5
 29 09 2013  02 12  -21.0049 26032.4 -03491.2 -07.6384 26265.5
 29 09 2013  02 13  -21.0048 26032.3 -03491.2 -07.6384 26265.4
 29 09 2013  02 14  -21.0046 26032.2 -03491.2 -07.6383 26265.2
 29 09 2013  02 15  -21.0045 26032.1 -03491.1 -07.6382 26265.1
 29 09 2013  02 16  -21.0046 26032.0 -03491.1 -07.6383 26265.1
 29 09 2013  02 17  -21.0046 26031.9 -03491.1 -07.6383 26264.9
 29 09 2013  02 18  -21.0046 26031.8 -03491.1 -07.6382 26264.8
 29 09 2013  02 19  -21.0048 26031.8 -03491.1 -07.6384 26264.8
 29 09 2013  02 20  -21.0049 26031.8 -03491.2 -07.6385 26264.9
 29 09 2013  02 21  -21.0049 26031.9 -03491.3 -07.6386 26265.0
 29 09 2013  02 22  -21.0050 26032.0 -03491.3 -07.6387 26265.1
 29 09 2013  02 23  -21.0052 26032.0 -03491.3 -07.6388 26265.1
 29 09 2013  02 24  -21.0052 26032.0 -03491.3 -07.6388 26265.1
 29 09 2013  02 25  -21.0053 26032.0 -03491.4 -07.6389 26265.1
 29 09 2013  02 26  -21.0053 26032.0 -03491.4 -07.6388 26265.1
 29 09 2013  02 27  -21.0052 26032.0 -03491.4 -07.6388 26265.0
 29 09 2013  02 28  -21.0051 26031.9 -03491.4 -07.6388 26265.0
 29 09 2013  02 29  -21.0052 26031.9 -03491.3 -07.6388 26265.0
 29 09 2013  02 30  -21.0051 26031.8 -03491.3 -07.6387 26264.8
 29 09 2013  02 31  -21.0052 26031.7 -03491.3 -07.6387 26264.8
 29 09 2013  02 32  -21.0052 26031.7 -03491.3 -07.6388 26264.8
 29 09 2013  02 33  -21.0052 26031.8 -03491.3 -07.6388 26264.8
 29 09 2013  02 34  -21.0053 26031.7 -03491.4 -07.6389 26264.8
 29 09 2013  02 35  -21.0053 26031.6 -03491.4 -07.6389 26264.7
 29 09 2013  02 36  -21.0053 26031.6 -03491.3 -07.6388 26264.7
 29 09 2013  02 37  -21.0054 26031.6 -03491.4 -07.6389 26264.7
 29 09 2013  02 38  -21.0056 26031.6 -03491.4 -07.6390 26264.6
 29 09 2013  02 39  -21.0057 26031.5 -03491.4 -07.6390 26264.6
 29 09 2013  02 40  -21.0058 26031.5 -03491.4 -07.6390 26264.6
 29 09 2013  02 41  -21.0059 26031.5 -03491.4 -07.6390 26264.6
 29 09 2013  02 42  -21.0058 26031.4 -03491.4 -07.6390 26264.5
 29 09 2013  02 43  -21.0059 26031.4 -03491.4 -07.6390 26264.5
 29 09 2013  02 44  -21.0058 26031.4 -03491.4 -07.6390 26264.5
 29 09 2013  02 45  -21.0059 26031.4 -03491.4 -07.6391 26264.5
 29 09 2013  02 46  -21.0059 26031.4 -03491.5 -07.6392 26264.5
 29 09 2013  02 47  -21.0060 26031.4 -03491.5 -07.6393 26264.5
 29 09 2013  02 48  -21.0061 26031.4 -03491.5 -07.6394 26264.5
 29 09 2013  02 49  -21.0062 26031.5 -03491.6 -07.6395 26264.6
 29 09 2013  02 50  -21.0063 26031.5 -03491.6 -07.6396 26264.6
 29 09 2013  02 51  -21.0064 26031.4 -03491.7 -07.6396 26264.6
 29 09 2013  02 52  -21.0065 26031.5 -03491.7 -07.6397 26264.6
 29 09 2013  02 53  -21.0065 26031.5 -03491.7 -07.6397 26264.6
 29 09 2013  02 54  -21.0065 26031.6 -03491.8 -07.6398 26264.7
 29 09 2013  02 55  -21.0066 26031.6 -03491.8 -07.6399 26264.7
 29 09 2013  02 56  -21.0067 26031.6 -03491.9 -07.6400 26264.7
 29 09 2013  02 57  -21.0067 26031.6 -03491.9 -07.6401 26264.7
 29 09 2013  02 58  -21.0067 26031.6 -03491.9 -07.6402 26264.8
 29 09 2013  02 59  -21.0067 26031.6 -03491.9 -07.6402 26264.8
 29 09 2013  03 00  -21.0068 26031.6 -03492.0 -07.6402 26264.7
 29 09 2013  03 01  -21.0069 26031.6 -03492.0 -07.6403 26264.8
 29 09 2013  03 02  -21.0070 26031.6 -03492.0 -07.6404 26264.8
 29 09 2013  03 03  -21.0070 26031.6 -03492.1 -07.6405 26264.8
 29 09 2013  03 04  -21.0072 26031.6 -03492.2 -07.6406 26264.8
 29 09 2013  03 05  -21.0073 26031.7 -03492.2 -07.6407 26264.9
 29 09 2013  03 06  -21.0074 26031.8 -03492.3 -07.6408 26265.0
 29 09 2013  03 07  -21.0076 26031.8 -03492.3 -07.6410 26265.0
 29 09 2013  03 08  -21.0077 26031.8 -03492.4 -07.6411 26265.0
 29 09 2013  03 09  -21.0077 26031.8 -03492.5 -07.6412 26265.1
 29 09 2013  03 10  -21.0078 26031.9 -03492.5 -07.6414 26265.1
 29 09 2013  03 11  -21.0079 26031.9 -03492.6 -07.6415 26265.1
 29 09 2013  03 12  -21.0081 26031.9 -03492.6 -07.6415 26265.1
 29 09 2013  03 13  -21.0082 26031.9 -03492.6 -07.6416 26265.1
 29 09 2013  03 14  -21.0082 26031.9 -03492.7 -07.6416 26265.1
 29 09 2013  03 15  -21.0084 26031.9 -03492.7 -07.6417 26265.1
 29 09 2013  03 16  -21.0085 26031.9 -03492.7 -07.6418 26265.2
 29 09 2013  03 17  -21.0087 26031.9 -03492.8 -07.6419 26265.2
 29 09 2013  03 18  -21.0088 26032.0 -03492.9 -07.6420 26265.3
 29 09 2013  03 19  -21.0090 26032.0 -03492.9 -07.6421 26265.3
 29 09 2013  03 20  -21.0092 26032.0 -03493.0 -07.6422 26265.3
 29 09 2013  03 21  -21.0094 26032.1 -03493.0 -07.6424 26265.4
 29 09 2013  03 22  -21.0096 26032.1 -03493.1 -07.6425 26265.4
 29 09 2013  03 23  -21.0098 26032.1 -03493.1 -07.6425 26265.4
 29 09 2013  03 24  -21.0099 26032.1 -03493.1 -07.6426 26265.5
 29 09 2013  03 25  -21.0100 26032.2 -03493.1 -07.6426 26265.5
 29 09 2013  03 26  -21.0102 26032.2 -03493.2 -07.6426 26265.5
 29 09 2013  03 27  -21.0103 26032.2 -03493.2 -07.6427 26265.6
 29 09 2013  03 28  -21.0103 26032.3 -03493.2 -07.6427 26265.6
 29 09 2013  03 29  -21.0105 26032.2 -03493.2 -07.6427 26265.6
 29 09 2013  03 30  -21.0106 26032.2 -03493.2 -07.6427 26265.6
 29 09 2013  03 31  -21.0108 26032.2 -03493.2 -07.6428 26265.6
 29 09 2013  03 32  -21.0110 26032.3 -03493.2 -07.6428 26265.6
 29 09 2013  03 33  -21.0111 26032.3 -03493.2 -07.6426 26265.6
 29 09 2013  03 34  -21.0113 26032.3 -03493.3 -07.6429 26265.7
 29 09 2013  03 35  -21.0114 26032.3 -03493.2 -07.6428 26265.6
 29 09 2013  03 36  -21.0115 26032.3 -03493.2 -07.6428 26265.6
 29 09 2013  03 37  -21.0117 26032.3 -03493.3 -07.6428 26265.7
 29 09 2013  03 38  -21.0118 26032.3 -03493.2 -07.6428 26265.7
 29 09 2013  03 39  -21.0120 26032.3 -03493.2 -07.6427 26265.7
 29 09 2013  03 40  -21.0121 26032.3 -03493.2 -07.6427 26265.6
 29 09 2013  03 41  -21.0123 26032.3 -03493.2 -07.6426 26265.6
 29 09 2013  03 42  -21.0124 26032.2 -03493.1 -07.6426 26265.5
 29 09 2013  03 43  -21.0126 26032.2 -03493.1 -07.6425 26265.5
 29 09 2013  03 44  -21.0128 26032.1 -03493.1 -07.6425 26265.4
 29 09 2013  03 45  -21.0129 26032.1 -03493.1 -07.6425 26265.4
 29 09 2013  03 46  -21.0130 26032.1 -03493.1 -07.6424 26265.4
 29 09 2013  03 47  -21.0132 26032.2 -03493.0 -07.6424 26265.5
 29 09 2013  03 48  -21.0133 26032.1 -03493.0 -07.6424 26265.4
 29 09 2013  03 49  -21.0135 26032.1 -03493.0 -07.6423 26265.4
 29 09 2013  03 50  -21.0136 26032.2 -03493.0 -07.6423 26265.5
 29 09 2013  03 51  -21.0138 26032.2 -03493.0 -07.6422 26265.5
 29 09 2013  03 52  -21.0139 26032.2 -03492.9 -07.6421 26265.5
 29 09 2013  03 53  -21.0141 26032.1 -03492.8 -07.6420 26265.4
 29 09 2013  03 54  -21.0142 26032.1 -03492.8 -07.6418 26265.4
 29 09 2013  03 55  -21.0144 26032.1 -03492.8 -07.6418 26265.4
 29 09 2013  03 56  -21.0143 26032.1 -03492.7 -07.6417 26265.4
 29 09 2013  03 57  -21.0144 26032.1 -03492.7 -07.6416 26265.4
 29 09 2013  03 58  -21.0143 26032.1 -03492.6 -07.6415 26265.4
 29 09 2013  03 59  -21.0143 26032.1 -03492.6 -07.6414 26265.4
 29 09 2013  04 00  -21.0144 26032.0 -03492.5 -07.6413 26265.3
 29 09 2013  04 01  -21.0144 26032.0 -03492.5 -07.6412 26265.3
 29 09 2013  04 02  -21.0144 26032.0 -03492.5 -07.6412 26265.2
 29 09 2013  04 03  -21.0145 26032.0 -03492.4 -07.6411 26265.2
 29 09 2013  04 04  -21.0147 26032.0 -03492.4 -07.6411 26265.2
 29 09 2013  04 05  -21.0146 26032.0 -03492.4 -07.6410 26265.2
 29 09 2013  04 06  -21.0147 26032.1 -03492.4 -07.6409 26265.3
 29 09 2013  04 07  -21.0147 26032.1 -03492.4 -07.6409 26265.3
 29 09 2013  04 08  -21.0148 26032.2 -03492.4 -07.6409 26265.4
 29 09 2013  04 09  -21.0148 26032.2 -03492.3 -07.6408 26265.5
 29 09 2013  04 10  -21.0147 26032.3 -03492.4 -07.6409 26265.5
 29 09 2013  04 11  -21.0146 26032.4 -03492.3 -07.6408 26265.6
 29 09 2013  04 12  -21.0144 26032.5 -03492.3 -07.6407 26265.7
 29 09 2013  04 13  -21.0141 26032.6 -03492.3 -07.6407 26265.8
 29 09 2013  04 14  -21.0139 26032.7 -03492.3 -07.6407 26265.9
 29 09 2013  04 15  -21.0136 26032.8 -03492.3 -07.6407 26266.0
 29 09 2013  04 16  -21.0134 26032.9 -03492.4 -07.6407 26266.1
 29 09 2013  04 17  -21.0132 26033.0 -03492.4 -07.6407 26266.2
 29 09 2013  04 18  -21.0131 26033.1 -03492.4 -07.6407 26266.3
 29 09 2013  04 19  -21.0130 26033.2 -03492.4 -07.6408 26266.4
 29 09 2013  04 20  -21.0130 26033.3 -03492.5 -07.6408 26266.5
 29 09 2013  04 21  -21.0130 26033.4 -03492.5 -07.6408 26266.6
 29 09 2013  04 22  -21.0129 26033.4 -03492.4 -07.6407 26266.6
 29 09 2013  04 23  -21.0130 26033.4 -03492.4 -07.6407 26266.6
 29 09 2013  04 24  -21.0129 26033.5 -03492.4 -07.6406 26266.7
 29 09 2013  04 25  -21.0129 26033.5 -03492.3 -07.6405 26266.7
 29 09 2013  04 26  -21.0130 26033.4 -03492.3 -07.6404 26266.6
 29 09 2013  04 27  -21.0130 26033.4 -03492.2 -07.6403 26266.5
 29 09 2013  04 28  -21.0129 26033.3 -03492.2 -07.6402 26266.5
 29 09 2013  04 29  -21.0128 26033.3 -03492.1 -07.6401 26266.5
 29 09 2013  04 30  -21.0127 26033.3 -03492.1 -07.6400 26266.5
 29 09 2013  04 31  -21.0126 26033.4 -03492.1 -07.6400 26266.5
 29 09 2013  04 32  -21.0124 26033.4 -03492.1 -07.6400 26266.5
 29 09 2013  04 33  -21.0121 26033.4 -03492.0 -07.6399 26266.5
 29 09 2013  04 34  -21.0119 26033.4 -03492.0 -07.6399 26266.6
 29 09 2013  04 35  -21.0116 26033.4 -03492.0 -07.6398 26266.6
 29 09 2013  04 36  -21.0115 26033.5 -03492.0 -07.6399 26266.6
 29 09 2013  04 37  -21.0113 26033.5 -03492.1 -07.6399 26266.7
 29 09 2013  04 38  -21.0112 26033.6 -03492.1 -07.6400 26266.8
 29 09 2013  04 39  -21.0110 26033.6 -03492.1 -07.6399 26266.8
 29 09 2013  04 40  -21.0109 26033.6 -03492.1 -07.6399 26266.8
 29 09 2013  04 41  -21.0108 26033.6 -03492.1 -07.6399 26266.8
 29 09 2013  04 42  -21.0106 26033.7 -03492.1 -07.6399 26266.9
 29 09 2013  04 43  -21.0105 26033.6 -03492.1 -07.6399 26266.8
 29 09 2013  04 44  -21.0103 26033.6 -03492.0 -07.6398 26266.7
 29 09 2013  04 45  -21.0102 26033.5 -03492.0 -07.6398 26266.7
 29 09 2013  04 46  -21.0100 26033.5 -03492.0 -07.6397 26266.7
 29 09 2013  04 47  -21.0097 26033.6 -03492.0 -07.6398 26266.7
 29 09 2013  04 48  -21.0095 26033.6 -03492.0 -07.6398 26266.8
 29 09 2013  04 49  -21.0094 26033.6 -03492.1 -07.6398 26266.8
 29 09 2013  04 50  -21.0092 26033.7 -03492.1 -07.6398 26266.8
 29 09 2013  04 51  -21.0092 26033.5 -03492.0 -07.6398 26266.7
 29 09 2013  04 52  -21.0091 26033.5 -03492.0 -07.6398 26266.7
 29 09 2013  04 53  -21.0089 26033.6 -03492.1 -07.6398 26266.8
 29 09 2013  04 54  -21.0088 26033.6 -03492.1 -07.6398 26266.8
 29 09 2013  04 55  -21.0087 26033.6 -03492.1 -07.6398 26266.7
 29 09 2013  04 56  -21.0086 26033.6 -03492.1 -07.6399 26266.8
 29 09 2013  04 57  -21.0085 26033.7 -03492.1 -07.6399 26266.9
 29 09 2013  04 58  -21.0085 26033.7 -03492.1 -07.6399 26266.9
 29 09 2013  04 59  -21.0082 26033.7 -03492.1 -07.6399 26266.9
 29 09 2013  05 00  -21.0083 26033.6 -03492.1 -07.6398 26266.8
 29 09 2013  05 01  -21.0080 26033.8 -03492.1 -07.6399 26266.9
 29 09 2013  05 02  -21.0078 26033.8 -03492.1 -07.6399 26267.0
 29 09 2013  05 03  -21.0076 26033.8 -03492.1 -07.6399 26267.0
 29 09 2013  05 04  -21.0077 26033.7 -03492.0 -07.6398 26266.8
 29 09 2013  05 05  -21.0076 26033.7 -03492.0 -07.6398 26266.8
 29 09 2013  05 06  -21.0072 26033.8 -03492.1 -07.6398 26266.9
 29 09 2013  05 07  -21.0072 26033.7 -03492.1 -07.6398 26266.9
 29 09 2013  05 08  -21.0071 26033.7 -03492.0 -07.6398 26266.8
 29 09 2013  05 09  -21.0070 26033.6 -03492.0 -07.6397 26266.8
 29 09 2013  05 10  -21.0070 26033.7 -03492.0 -07.6398 26266.9
 29 09 2013  05 11  -21.0067 26033.8 -03492.1 -07.6398 26266.9
 29 09 2013  05 12  -21.0065 26033.8 -03492.1 -07.6398 26266.9
 29 09 2013  05 13  -21.0064 26033.7 -03492.1 -07.6398 26266.9
 29 09 2013  05 14  -21.0063 26033.7 -03492.0 -07.6398 26266.9
 29 09 2013  05 15  -21.0061 26033.8 -03492.1 -07.6398 26266.9
 29 09 2013  05 16  -21.0060 26033.7 -03492.1 -07.6398 26266.9
 29 09 2013  05 17  -21.0061 26033.6 -03492.1 -07.6398 26266.8
 29 09 2013  05 18  -21.0059 26033.7 -03492.0 -07.6398 26266.8
 29 09 2013  05 19  -21.0060 26033.6 -03492.0 -07.6398 26266.8
 29 09 2013  05 20  -21.0059 26033.6 -03492.0 -07.6397 26266.8
 29 09 2013  05 21  -21.0059 26033.5 -03492.0 -07.6397 26266.7
 29 09 2013  05 22  -21.0060 26033.5 -03492.0 -07.6396 26266.7
 29 09 2013  05 23  -21.0058 26033.6 -03492.0 -07.6396 26266.7
 29 09 2013  05 24  -21.0056 26033.5 -03492.0 -07.6396 26266.7
 29 09 2013  05 25  -21.0054 26033.6 -03492.0 -07.6396 26266.8
 29 09 2013  05 26  -21.0052 26033.5 -03491.9 -07.6396 26266.7
 29 09 2013  05 27  -21.0053 26033.4 -03491.9 -07.6395 26266.5
 29 09 2013  05 28  -21.0050 26033.5 -03492.0 -07.6397 26266.7
 29 09 2013  05 29  -21.0047 26033.5 -03492.0 -07.6397 26266.7
 29 09 2013  05 30  -21.0046 26033.6 -03492.0 -07.6397 26266.7
 29 09 2013  05 31  -21.0045 26033.5 -03492.0 -07.6397 26266.6
 29 09 2013  05 32  -21.0045 26033.4 -03492.0 -07.6397 26266.6
 29 09 2013  05 33  -21.0043 26033.6 -03492.1 -07.6399 26266.8
 29 09 2013  05 34  -21.0041 26033.8 -03492.1 -07.6400 26267.0
 29 09 2013  05 35  -21.0039 26033.8 -03492.2 -07.6401 26267.0
 29 09 2013  05 36  -21.0039 26033.8 -03492.2 -07.6400 26266.9
 29 09 2013  05 37  -21.0038 26033.8 -03492.1 -07.6400 26267.0
 29 09 2013  05 38  -21.0039 26033.8 -03492.2 -07.6401 26267.0
 29 09 2013  05 39  -21.0038 26034.1 -03492.4 -07.6403 26267.3
 29 09 2013  05 40  -21.0029 26034.6 -03492.6 -07.6407 26267.8
 29 09 2013  05 41  -21.0042 26033.9 -03492.3 -07.6403 26267.0
 29 09 2013  05 42  -21.0039 26034.1 -03492.4 -07.6404 26267.3
 29 09 2013  05 43  -21.0037 26034.2 -03492.4 -07.6405 26267.4
 29 09 2013  05 44  -21.0033 26034.7 -03492.6 -07.6408 26267.9
 29 09 2013  05 45  -21.0035 26034.5 -03492.6 -07.6407 26267.7
 29 09 2013  05 46  -21.0037 26034.2 -03492.4 -07.6404 26267.4
 29 09 2013  05 47  -21.0038 26034.2 -03492.4 -07.6404 26267.4
 29 09 2013  05 48  -21.0034 26034.5 -03492.5 -07.6406 26267.7
 29 09 2013  05 49  -21.0032 26034.6 -03492.6 -07.6407 26267.9
 29 09 2013  05 50  -21.0032 26034.5 -03492.6 -07.6407 26267.7
 29 09 2013  05 51  -21.0033 26034.3 -03492.4 -07.6404 26267.5
 29 09 2013  05 52  -21.0032 26034.2 -03492.4 -07.6404 26267.4
 29 09 2013  05 53  -21.0031 26034.3 -03492.4 -07.6404 26267.5
 29 09 2013  05 54  -21.0030 26034.3 -03492.5 -07.6405 26267.5
 29 09 2013  05 55  -21.0032 26034.2 -03492.4 -07.6404 26267.4
 29 09 2013  05 56  -21.0031 26034.1 -03492.4 -07.6404 26267.3
 29 09 2013  05 57  -21.0031 26034.2 -03492.4 -07.6404 26267.4
 29 09 2013  05 58  -21.0030 26034.2 -03492.4 -07.6405 26267.4
 29 09 2013  05 59  -21.0031 26034.2 -03492.5 -07.6405 26267.4
 29 09 2013  06 00  -21.0031 26034.2 -03492.5 -07.6406 26267.4
 29 09 2013  06 01  -21.0030 26034.2 -03492.5 -07.6406 26267.4
 29 09 2013  06 02  -21.0030 26034.3 -03492.6 -07.6407 26267.5
 29 09 2013  06 03  -21.0030 26034.5 -03492.7 -07.6409 26267.7
 29 09 2013  06 04  -21.0029 26034.6 -03492.8 -07.6411 26267.9
 29 09 2013  06 05  -21.0034 26034.4 -03492.7 -07.6410 26267.7
 29 09 2013  06 06  -21.0034 26034.6 -03492.7 -07.6409 26267.8
 29 09 2013  06 07  -21.0033 26034.6 -03492.7 -07.6410 26267.8
 29 09 2013  06 08  -21.0034 26034.6 -03492.8 -07.6411 26267.9
 29 09 2013  06 09  -21.0036 26034.7 -03492.8 -07.6411 26268.0
 29 09 2013  06 10  -21.0035 26034.9 -03492.8 -07.6411 26268.2
 29 09 2013  06 11  -21.0035 26035.0 -03492.9 -07.6412 26268.3
 29 09 2013  06 12  -21.0033 26035.1 -03492.9 -07.6412 26268.3
 29 09 2013  06 13  -21.0032 26034.9 -03492.8 -07.6410 26268.1
 29 09 2013  06 14  -21.0030 26035.0 -03492.8 -07.6410 26268.3
 29 09 2013  06 15  -21.0024 26035.2 -03492.8 -07.6410 26268.4
 29 09 2013  06 16  -21.0024 26035.0 -03492.8 -07.6411 26268.3
 29 09 2013  06 17  -21.0024 26035.0 -03492.8 -07.6410 26268.3
 29 09 2013  06 18  -21.0021 26035.0 -03492.8 -07.6410 26268.3
 29 09 2013  06 19  -21.0019 26035.0 -03492.8 -07.6410 26268.3
 29 09 2013  06 20  -21.0019 26034.9 -03492.8 -07.6410 26268.1
 29 09 2013  06 21  -21.0018 26035.0 -03492.8 -07.6411 26268.2
 29 09 2013  06 22  -21.0017 26035.1 -03492.9 -07.6412 26268.4
 29 09 2013  06 23  -21.0017 26035.1 -03492.9 -07.6413 26268.3
 29 09 2013  06 24  -21.0017 26035.0 -03492.9 -07.6413 26268.3
 29 09 2013  06 25  -21.0016 26035.1 -03492.9 -07.6413 26268.3
 29 09 2013  06 26  -21.0015 26035.2 -03493.0 -07.6415 26268.5
 29 09 2013  06 27  -21.0016 26035.2 -03493.0 -07.6415 26268.5
 29 09 2013  06 28  -21.0015 26035.1 -03493.0 -07.6414 26268.4
 29 09 2013  06 29  -21.0014 26035.2 -03493.0 -07.6414 26268.4
 29 09 2013  06 30  -21.0013 26035.2 -03493.0 -07.6414 26268.5
 29 09 2013  06 31  -21.0012 26035.2 -03493.0 -07.6414 26268.4
 29 09 2013  06 32  -21.0012 26035.2 -03493.0 -07.6414 26268.4
 29 09 2013  06 33  -21.0011 26035.1 -03493.0 -07.6414 26268.4
 29 09 2013  06 34  -21.0011 26035.0 -03493.0 -07.6414 26268.3
 29 09 2013  06 35  -21.0012 26034.9 -03492.9 -07.6413 26268.2
 29 09 2013  06 36  -21.0013 26035.0 -03492.9 -07.6414 26268.2
 29 09 2013  06 37  -21.0012 26034.9 -03492.9 -07.6414 26268.1
 29 09 2013  06 38  -21.0013 26034.9 -03492.9 -07.6414 26268.1
 29 09 2013  06 39  -21.0014 26034.9 -03492.9 -07.6414 26268.1
 29 09 2013  06 40  -21.0015 26034.9 -03492.9 -07.6414 26268.1
 29 09 2013  06 41  -21.0015 26034.9 -03492.9 -07.6414 26268.1
 29 09 2013  06 42  -21.0015 26034.9 -03493.0 -07.6415 26268.2
 29 09 2013  06 43  -21.0015 26035.0 -03493.1 -07.6417 26268.3
 29 09 2013  06 44  -21.0014 26035.1 -03493.1 -07.6418 26268.4
 29 09 2013  06 45  -21.0014 26035.1 -03493.2 -07.6418 26268.4
 29 09 2013  06 46  -21.0013 26035.1 -03493.2 -07.6418 26268.4
 29 09 2013  06 47  -21.0012 26035.2 -03493.2 -07.6418 26268.5
 29 09 2013  06 48  -21.0013 26035.2 -03493.2 -07.6419 26268.5
 29 09 2013  06 49  -21.0014 26035.2 -03493.3 -07.6420 26268.6
 29 09 2013  06 50  -21.0013 26035.4 -03493.4 -07.6422 26268.7
 29 09 2013  06 51  -21.0012 26035.4 -03493.4 -07.6422 26268.7
 29 09 2013  06 52  -21.0011 26035.3 -03493.3 -07.6420 26268.6
 29 09 2013  06 53  -21.0008 26035.3 -03493.3 -07.6420 26268.6
 29 09 2013  06 54  -21.0006 26035.3 -03493.3 -07.6419 26268.6
 29 09 2013  06 55  -21.0005 26035.2 -03493.2 -07.6419 26268.5
 29 09 2013  06 56  -21.0005 26035.2 -03493.2 -07.6419 26268.5
 29 09 2013  06 57  -21.0003 26035.2 -03493.2 -07.6419 26268.5
 29 09 2013  06 58  -21.0002 26035.3 -03493.2 -07.6419 26268.6
 29 09 2013  06 59  -21.0001 26035.3 -03493.3 -07.6420 26268.7
 29 09 2013  07 00  -20.9999 26035.3 -03493.3 -07.6420 26268.6
 29 09 2013  07 01  -20.9998 26035.3 -03493.3 -07.6420 26268.6
 29 09 2013  07 02  -20.9996 26035.3 -03493.3 -07.6420 26268.6
 29 09 2013  07 03  -20.9995 26035.3 -03493.3 -07.6421 26268.6
 29 09 2013  07 04  -20.9993 26035.2 -03493.3 -07.6421 26268.5
 29 09 2013  07 05  -20.9992 26035.2 -03493.4 -07.6422 26268.5
 29 09 2013  07 06  -20.9990 26035.4 -03493.5 -07.6424 26268.8
 29 09 2013  07 07  -20.9986 26035.7 -03493.6 -07.6425 26269.0
 29 09 2013  07 08  -20.9989 26035.2 -03493.4 -07.6424 26268.6
 29 09 2013  07 09  -20.9990 26035.4 -03493.5 -07.6424 26268.7
 29 09 2013  07 10  -20.9985 26035.5 -03493.5 -07.6425 26268.9
 29 09 2013  07 11  -20.9985 26035.3 -03493.5 -07.6425 26268.7
 29 09 2013  07 12  -20.9985 26035.4 -03493.6 -07.6426 26268.8
 29 09 2013  07 13  -20.9984 26035.5 -03493.6 -07.6426 26268.9
 29 09 2013  07 14  -20.9983 26035.5 -03493.6 -07.6426 26268.9
 29 09 2013  07 15  -20.9981 26035.8 -03493.7 -07.6428 26269.2
 29 09 2013  07 16  -20.9981 26035.5 -03493.6 -07.6426 26268.8
 29 09 2013  07 17  -20.9982 26035.4 -03493.6 -07.6426 26268.7
 29 09 2013  07 18  -20.9977 26035.3 -03493.5 -07.6425 26268.6
 29 09 2013  07 19  -20.9976 26035.1 -03493.6 -07.6427 26268.4
 29 09 2013  07 20  -20.9974 26035.2 -03493.6 -07.6428 26268.6
 29 09 2013  07 21  -20.9971 26035.3 -03493.7 -07.6429 26268.7
 29 09 2013  07 22  -20.9971 26035.3 -03493.7 -07.6429 26268.6
 29 09 2013  07 23  -20.9969 26035.2 -03493.7 -07.6429 26268.5
 29 09 2013  07 24  -20.9968 26035.0 -03493.6 -07.6428 26268.4
 29 09 2013  07 25  -20.9966 26035.1 -03493.7 -07.6429 26268.5
 29 09 2013  07 26  -20.9965 26035.0 -03493.7 -07.6430 26268.4
 29 09 2013  07 27  -20.9965 26034.9 -03493.7 -07.6430 26268.3
 29 09 2013  07 28  -20.9963 26035.0 -03493.7 -07.6431 26268.4
 29 09 2013  07 29  -20.9964 26034.9 -03493.7 -07.6431 26268.3
 29 09 2013  07 30  -20.9965 26034.8 -03493.7 -07.6431 26268.2
 29 09 2013  07 31  -20.9962 26034.8 -03493.8 -07.6432 26268.2
 29 09 2013  07 32  -20.9960 26034.8 -03493.8 -07.6432 26268.2
 29 09 2013  07 33  -20.9960 26034.9 -03493.8 -07.6433 26268.3
 29 09 2013  07 34  -20.9959 26035.0 -03493.9 -07.6434 26268.4
 29 09 2013  07 35  -20.9959 26034.8 -03493.8 -07.6433 26268.2
 29 09 2013  07 36  -20.9959 26034.7 -03493.8 -07.6433 26268.0
 29 09 2013  07 37  -20.9960 26034.6 -03493.8 -07.6433 26268.0
 29 09 2013  07 38  -20.9959 26034.5 -03493.8 -07.6433 26267.9
 29 09 2013  07 39  -20.9959 26034.6 -03493.9 -07.6435 26268.0
 29 09 2013  07 40  -20.9957 26034.6 -03494.0 -07.6437 26268.0
 29 09 2013  07 41  -20.9955 26034.6 -03493.9 -07.6436 26268.0
 29 09 2013  07 42  -20.9955 26034.5 -03493.8 -07.6434 26267.9
 29 09 2013  07 43  -20.9955 26034.6 -03493.9 -07.6435 26268.0
 29 09 2013  07 44  -20.9955 26034.7 -03494.0 -07.6438 26268.1
 29 09 2013  07 45  -20.9954 26034.8 -03494.1 -07.6438 26268.2
 29 09 2013  07 46  -20.9954 26034.7 -03494.0 -07.6438 26268.1
 29 09 2013  07 47  -20.9954 26034.6 -03494.1 -07.6439 26268.1
 29 09 2013  07 48  -20.9953 26034.5 -03494.1 -07.6439 26267.9
 29 09 2013  07 49  -20.9952 26034.5 -03494.1 -07.6439 26267.9
 29 09 2013  07 50  -20.9952 26034.6 -03494.1 -07.6440 26268.1
 29 09 2013  07 51  -20.9954 26034.7 -03494.2 -07.6441 26268.2
 29 09 2013  07 52  -20.9952 26034.8 -03494.2 -07.6442 26268.2
 29 09 2013  07 53  -20.9951 26034.7 -03494.1 -07.6439 26268.1
 29 09 2013  07 54  -20.9952 26034.6 -03494.0 -07.6438 26268.0
 29 09 2013  07 55  -20.9952 26034.6 -03494.1 -07.6439 26268.0
 29 09 2013  07 56  -20.9951 26034.8 -03494.2 -07.6442 26268.2
 29 09 2013  07 57  -20.9951 26034.7 -03494.2 -07.6441 26268.2
 29 09 2013  07 58  -20.9950 26034.7 -03494.2 -07.6441 26268.2
 29 09 2013  07 59  -20.9949 26034.6 -03494.1 -07.6440 26268.0
 29 09 2013  08 00  -20.9950 26034.6 -03494.1 -07.6440 26268.0
 29 09 2013  08 01  -20.9948 26034.8 -03494.2 -07.6441 26268.2
 29 09 2013  08 02  -20.9944 26034.7 -03494.1 -07.6440 26268.1
 29 09 2013  08 03  -20.9944 26034.6 -03494.1 -07.6439 26268.0
 29 09 2013  08 04  -20.9940 26034.5 -03494.0 -07.6439 26267.9
 29 09 2013  08 05  -20.9938 26034.4 -03494.0 -07.6438 26267.8
 29 09 2013  08 06  -20.9937 26034.3 -03494.0 -07.6438 26267.7
 29 09 2013  08 07  -20.9935 26034.2 -03493.9 -07.6437 26267.6
 29 09 2013  08 08  -20.9933 26034.1 -03493.9 -07.6437 26267.5
 29 09 2013  08 09  -20.9930 26034.2 -03493.9 -07.6437 26267.6
 29 09 2013  08 10  -20.9927 26034.0 -03493.9 -07.6437 26267.4
 29 09 2013  08 11  -20.9925 26034.0 -03493.9 -07.6437 26267.4
 29 09 2013  08 12  -20.9922 26033.9 -03493.9 -07.6437 26267.3
 29 09 2013  08 13  -20.9922 26033.8 -03493.9 -07.6437 26267.2
 29 09 2013  08 14  -20.9922 26033.8 -03493.9 -07.6438 26267.3
 29 09 2013  08 15  -20.9920 26033.8 -03494.0 -07.6440 26267.3
 29 09 2013  08 16  -20.9919 26033.7 -03494.0 -07.6440 26267.1
 29 09 2013  08 17  -20.9917 26033.5 -03494.0 -07.6440 26267.0
 29 09 2013  08 18  -20.9916 26033.5 -03494.0 -07.6440 26266.9
 29 09 2013  08 19  -20.9916 26033.4 -03494.0 -07.6441 26266.8
 29 09 2013  08 20  -20.9915 26033.4 -03494.0 -07.6442 26266.8
 29 09 2013  08 21  -20.9914 26033.3 -03494.0 -07.6441 26266.7
 29 09 2013  08 22  -20.9915 26033.3 -03494.0 -07.6441 26266.7
 29 09 2013  08 23  -20.9912 26033.4 -03494.0 -07.6442 26266.8
 29 09 2013  08 24  -20.9910 26033.2 -03493.9 -07.6440 26266.6
 29 09 2013  08 25  -20.9908 26033.2 -03493.9 -07.6440 26266.6
 29 09 2013  08 26  -20.9908 26033.2 -03493.9 -07.6440 26266.6
 29 09 2013  08 27  -20.9905 26033.1 -03493.9 -07.6441 26266.5
 29 09 2013  08 28  -20.9902 26032.9 -03493.9 -07.6439 26266.3
 29 09 2013  08 29  -20.9900 26032.8 -03493.9 -07.6441 26266.2
 29 09 2013  08 30  -20.9897 26032.8 -03493.9 -07.6441 26266.2
 29 09 2013  08 31  -20.9893 26032.7 -03494.0 -07.6442 26266.1
 29 09 2013  08 32  -20.9887 26032.6 -03494.0 -07.6443 26266.0
 29 09 2013  08 33  -20.9884 26032.6 -03494.0 -07.6442 26266.0
 29 09 2013  08 34  -20.9880 26032.6 -03494.1 -07.6445 26266.1
 29 09 2013  08 35  -20.9877 26032.6 -03494.1 -07.6446 26266.0
 29 09 2013  08 36  -20.9872 26032.6 -03494.2 -07.6447 26266.0
 29 09 2013  08 37  -20.9869 26032.5 -03494.3 -07.6449 26266.0
 29 09 2013  08 38  -20.9866 26032.5 -03494.3 -07.6451 26266.0
 29 09 2013  08 39  -20.9863 26032.5 -03494.5 -07.6454 26266.0
 29 09 2013  08 40  -20.9862 26032.6 -03494.6 -07.6457 26266.1
 29 09 2013  08 41  -20.9861 26032.5 -03494.7 -07.6459 26266.0
 29 09 2013  08 42  -20.9859 26032.6 -03494.9 -07.6462 26266.2
 29 09 2013  08 43  -20.9857 26032.7 -03495.0 -07.6465 26266.3
 29 09 2013  08 44  -20.9858 26032.8 -03495.2 -07.6469 26266.3
 29 09 2013  08 45  -20.9858 26032.8 -03495.3 -07.6470 26266.4
 29 09 2013  08 46  -20.9860 26032.7 -03495.3 -07.6472 26266.3
 29 09 2013  08 47  -20.9863 26032.9 -03495.5 -07.6475 26266.5
 29 09 2013  08 48  -20.9868 26032.9 -03495.6 -07.6477 26266.5
 29 09 2013  08 49  -20.9869 26032.9 -03495.7 -07.6478 26266.6
 29 09 2013  08 50  -20.9869 26033.0 -03495.7 -07.6480 26266.7
 29 09 2013  08 51  -20.9869 26033.2 -03495.8 -07.6480 26266.8
 29 09 2013  08 52  -20.9870 26033.1 -03495.9 -07.6482 26266.8
 29 09 2013  08 53  -20.9869 26033.0 -03495.8 -07.6482 26266.7
 29 09 2013  08 54  -20.9870 26033.0 -03495.9 -07.6484 26266.7
 29 09 2013  08 55  -20.9869 26033.0 -03496.0 -07.6485 26266.6
 29 09 2013  08 56  -20.9869 26032.9 -03496.1 -07.6487 26266.6
 29 09 2013  08 57  -20.9870 26033.0 -03496.2 -07.6489 26266.7
 29 09 2013  08 58  -20.9871 26032.9 -03496.3 -07.6491 26266.7
 29 09 2013  08 59  -20.9874 26033.0 -03496.4 -07.6493 26266.7
 29 09 2013  09 00  -20.9878 26033.2 -03496.5 -07.6496 26266.9
 29 09 2013  09 01  -20.9880 26033.2 -03496.6 -07.6498 26267.0
 29 09 2013  09 02  -20.9880 26033.2 -03496.7 -07.6500 26267.0
 29 09 2013  09 03  -20.9884 26033.3 -03496.8 -07.6502 26267.1
 29 09 2013  09 04  -20.9886 26033.3 -03497.0 -07.6505 26267.2
 29 09 2013  09 05  -20.9889 26033.4 -03497.1 -07.6508 26267.2
 29 09 2013  09 06  -20.9892 26033.5 -03497.3 -07.6511 26267.4
 29 09 2013  09 07  -20.9894 26033.5 -03497.4 -07.6514 26267.4
 29 09 2013  09 08  -20.9896 26033.6 -03497.6 -07.6517 26267.5
 29 09 2013  09 09  -20.9901 26033.8 -03497.7 -07.6519 26267.7
 29 09 2013  09 10  -20.9904 26033.8 -03497.8 -07.6523 26267.7
 29 09 2013  09 11  -20.9907 26033.8 -03497.9 -07.6524 26267.8
 29 09 2013  09 12  -20.9910 26033.9 -03498.0 -07.6527 26267.9
 29 09 2013  09 13  -20.9913 26034.0 -03498.2 -07.6530 26268.0
 29 09 2013  09 14  -20.9917 26034.1 -03498.3 -07.6532 26268.1
 29 09 2013  09 15  -20.9925 26034.2 -03498.4 -07.6534 26268.2
 29 09 2013  09 16  -20.9931 26034.3 -03498.5 -07.6536 26268.3
 29 09 2013  09 17  -20.9937 26034.4 -03498.6 -07.6538 26268.4
 29 09 2013  09 18  -20.9940 26034.4 -03498.7 -07.6539 26268.4
 29 09 2013  09 19  -20.9945 26034.4 -03498.8 -07.6541 26268.4
 29 09 2013  09 20  -20.9947 26034.4 -03498.8 -07.6542 26268.5
 29 09 2013  09 21  -20.9953 26034.5 -03498.9 -07.6544 26268.5
 29 09 2013  09 22  -20.9957 26034.5 -03499.0 -07.6545 26268.6
 29 09 2013  09 23  -20.9964 26034.6 -03499.1 -07.6548 26268.7
 29 09 2013  09 24  -20.9966 26034.6 -03499.1 -07.6547 26268.6
 29 09 2013  09 25  -20.9970 26034.6 -03499.2 -07.6550 26268.7
 29 09 2013  09 26  -20.9972 26034.6 -03499.2 -07.6551 26268.7
 29 09 2013  09 27  -20.9975 26034.6 -03499.3 -07.6552 26268.7
 29 09 2013  09 28  -20.9978 26034.7 -03499.4 -07.6554 26268.8
 29 09 2013  09 29  -20.9982 26034.7 -03499.4 -07.6555 26268.8
 29 09 2013  09 30  -20.9985 26034.7 -03499.5 -07.6557 26268.9
 29 09 2013  09 31  -20.9988 26034.6 -03499.6 -07.6558 26268.8
 29 09 2013  09 32  -20.9991 26034.7 -03499.6 -07.6559 26268.9
 29 09 2013  09 33  -20.9992 26034.7 -03499.7 -07.6560 26268.8
 29 09 2013  09 34  -20.9998 26034.8 -03499.8 -07.6562 26269.0
 29 09 2013  09 35  -21.0000 26034.8 -03499.8 -07.6563 26269.0
 29 09 2013  09 36  -21.0004 26034.9 -03499.9 -07.6564 26269.1
 29 09 2013  09 37  -21.0006 26034.9 -03499.9 -07.6565 26269.1
 29 09 2013  09 38  -21.0006 26034.9 -03500.0 -07.6566 26269.1
 29 09 2013  09 39  -21.0009 26035.0 -03500.0 -07.6566 26269.2
 29 09 2013  09 40  -21.0012 26035.1 -03500.1 -07.6568 26269.3
 29 09 2013  09 41  -21.0017 26035.2 -03500.2 -07.6569 26269.4
 29 09 2013  09 42  -21.0019 26035.2 -03500.2 -07.6570 26269.5
 29 09 2013  09 43  -21.0024 26035.3 -03500.3 -07.6571 26269.6
 29 09 2013  09 44  -21.0025 26035.4 -03500.3 -07.6570 26269.6
 29 09 2013  09 45  -21.0030 26035.5 -03500.3 -07.6572 26269.7
 29 09 2013  09 46  -21.0033 26035.5 -03500.3 -07.6571 26269.7
 29 09 2013  09 47  -21.0035 26035.6 -03500.3 -07.6572 26269.8
 29 09 2013  09 48  -21.0038 26035.6 -03500.3 -07.6572 26269.8
 29 09 2013  09 49  -21.0040 26035.6 -03500.3 -07.6571 26269.9
 29 09 2013  09 50  -21.0043 26035.7 -03500.4 -07.6572 26270.0
 29 09 2013  09 51  -21.0043 26035.7 -03500.4 -07.6572 26269.9
 29 09 2013  09 52  -21.0046 26035.7 -03500.4 -07.6572 26270.0
 29 09 2013  09 53  -21.0046 26035.7 -03500.4 -07.6572 26270.0
 29 09 2013  09 54  -21.0045 26035.8 -03500.4 -07.6572 26270.1
 29 09 2013  09 55  -21.0045 26036.0 -03500.4 -07.6572 26270.3
 29 09 2013  09 56  -21.0047 26036.2 -03500.5 -07.6573 26270.5
 29 09 2013  09 57  -21.0047 26036.4 -03500.5 -07.6573 26270.7
 29 09 2013  09 58  -21.0049 26036.6 -03500.6 -07.6574 26270.9
 29 09 2013  09 59  -21.0047 26036.8 -03500.5 -07.6572 26271.0
 29 09 2013  10 00  -21.0047 26037.0 -03500.6 -07.6572 26271.2
 29 09 2013  10 01  -21.0046 26037.1 -03500.6 -07.6572 26271.4
 29 09 2013  10 02  -21.0046 26037.4 -03500.6 -07.6571 26271.6
 29 09 2013  10 03  -21.0045 26037.6 -03500.6 -07.6571 26271.9
 29 09 2013  10 04  -21.0045 26037.9 -03500.5 -07.6569 26272.1
 29 09 2013  10 05  -21.0045 26038.2 -03500.5 -07.6568 26272.5
 29 09 2013  10 06  -21.0048 26038.5 -03500.5 -07.6567 26272.8
 29 09 2013  10 07  -21.0052 26038.8 -03500.4 -07.6564 26273.0
 29 09 2013  10 08  -21.0055 26039.1 -03500.3 -07.6562 26273.3
 29 09 2013  10 09  -21.0057 26039.2 -03500.3 -07.6559 26273.4
 29 09 2013  10 10  -21.0058 26039.2 -03500.1 -07.6556 26273.4
 29 09 2013  10 11  -21.0056 26039.3 -03500.0 -07.6554 26273.4
 29 09 2013  10 12  -21.0053 26039.3 -03500.0 -07.6552 26273.5
 29 09 2013  10 13  -21.0051 26039.4 -03499.9 -07.6551 26273.6
 29 09 2013  10 14  -21.0051 26039.6 -03499.9 -07.6550 26273.7
 29 09 2013  10 15  -21.0051 26039.7 -03499.8 -07.6549 26273.8
 29 09 2013  10 16  -21.0052 26039.8 -03499.9 -07.6549 26274.0
 29 09 2013  10 17  -21.0052 26040.1 -03499.9 -07.6549 26274.2
 29 09 2013  10 18  -21.0052 26040.2 -03499.9 -07.6548 26274.3
 29 09 2013  10 19  -21.0051 26040.3 -03499.8 -07.6546 26274.5
 29 09 2013  10 20  -21.0051 26040.5 -03499.7 -07.6544 26274.6
 29 09 2013  10 21  -21.0052 26040.5 -03499.7 -07.6543 26274.6
 29 09 2013  10 22  -21.0052 26040.6 -03499.6 -07.6541 26274.7
 29 09 2013  10 23  -21.0054 26040.7 -03499.5 -07.6540 26274.8
 29 09 2013  10 24  -21.0055 26040.7 -03499.5 -07.6538 26274.8
 29 09 2013  10 25  -21.0057 26040.8 -03499.5 -07.6538 26274.9
 29 09 2013  10 26  -21.0057 26040.8 -03499.5 -07.6537 26274.9
 29 09 2013  10 27  -21.0057 26041.0 -03499.5 -07.6537 26275.1
 29 09 2013  10 28  -21.0057 26041.2 -03499.5 -07.6537 26275.3
 29 09 2013  10 29  -21.0057 26041.4 -03499.5 -07.6537 26275.5
 29 09 2013  10 30  -21.0059 26041.6 -03499.5 -07.6537 26275.7
 29 09 2013  10 31  -21.0060 26041.8 -03499.5 -07.6536 26275.9
 29 09 2013  10 32  -21.0060 26042.2 -03499.6 -07.6536 26276.2
 29 09 2013  10 33  -21.0062 26042.5 -03499.6 -07.6535 26276.5
 29 09 2013  10 34  -21.0064 26042.8 -03499.6 -07.6534 26276.9
 29 09 2013  10 35  -21.0065 26043.2 -03499.6 -07.6533 26277.3
 29 09 2013  10 36  -21.0066 26043.6 -03499.5 -07.6531 26277.7
 29 09 2013  10 37  -21.0069 26043.9 -03499.5 -07.6528 26278.0
 29 09 2013  10 38  -21.0074 26044.1 -03499.3 -07.6524 26278.1
 29 09 2013  10 39  -21.0077 26044.3 -03499.2 -07.6522 26278.4
 29 09 2013  10 40  -21.0080 26044.6 -03499.1 -07.6519 26278.6
 29 09 2013  10 41  -21.0083 26044.8 -03499.0 -07.6517 26278.8
 29 09 2013  10 42  -21.0085 26045.1 -03498.9 -07.6514 26279.1
 29 09 2013  10 43  -21.0090 26045.3 -03498.9 -07.6511 26279.3
 29 09 2013  10 44  -21.0094 26045.6 -03498.8 -07.6509 26279.6
 29 09 2013  10 45  -21.0097 26045.9 -03498.7 -07.6507 26279.8
 29 09 2013  10 46  -21.0101 26046.1 -03498.6 -07.6504 26280.1
 29 09 2013  10 47  -21.0105 26046.4 -03498.6 -07.6502 26280.3
 29 09 2013  10 48  -21.0111 26046.7 -03498.5 -07.6499 26280.6
 29 09 2013  10 49  -21.0116 26047.0 -03498.4 -07.6497 26280.9
 29 09 2013  10 50  -21.0118 26047.2 -03498.3 -07.6494 26281.1
 29 09 2013  10 51  -21.0120 26047.4 -03498.3 -07.6492 26281.3
 29 09 2013  10 52  -21.0123 26047.7 -03498.2 -07.6489 26281.5
 29 09 2013  10 53  -21.0124 26048.0 -03498.1 -07.6487 26281.8
 29 09 2013  10 54  -21.0127 26048.1 -03498.0 -07.6485 26282.0
 29 09 2013  10 55  -21.0130 26048.3 -03497.9 -07.6483 26282.1
 29 09 2013  10 56  -21.0133 26048.5 -03497.9 -07.6481 26282.4
 29 09 2013  10 57  -21.0134 26048.9 -03497.8 -07.6479 26282.7
 29 09 2013  10 58  -21.0136 26049.3 -03497.8 -07.6477 26283.1
 29 09 2013  10 59  -21.0137 26049.7 -03497.8 -07.6475 26283.4
 29 09 2013  11 00  -21.0140 26049.9 -03497.7 -07.6472 26283.7
 29 09 2013  11 01  -21.0142 26050.1 -03497.5 -07.6468 26283.8
 29 09 2013  11 02  -21.0144 26050.3 -03497.4 -07.6466 26284.1
 29 09 2013  11 03  -21.0145 26050.7 -03497.3 -07.6462 26284.4
 29 09 2013  11 04  -21.0146 26051.0 -03497.3 -07.6461 26284.7
 29 09 2013  11 05  -21.0147 26051.3 -03497.2 -07.6459 26285.0
 29 09 2013  11 06  -21.0149 26051.6 -03497.1 -07.6456 26285.2
 29 09 2013  11 07  -21.0151 26051.8 -03497.0 -07.6453 26285.5
 29 09 2013  11 08  -21.0153 26052.1 -03496.9 -07.6449 26285.8
 29 09 2013  11 09  -21.0156 26052.4 -03496.8 -07.6446 26286.1
 29 09 2013  11 10  -21.0159 26052.7 -03496.7 -07.6443 26286.4
 29 09 2013  11 11  -21.0162 26053.0 -03496.5 -07.6439 26286.6
 29 09 2013  11 12  -21.0165 26053.2 -03496.4 -07.6435 26286.8
 29 09 2013  11 13  -21.0170 26053.5 -03496.3 -07.6431 26287.0
 29 09 2013  11 14  -21.0173 26053.8 -03496.1 -07.6428 26287.3
 29 09 2013  11 15  -21.0175 26053.9 -03495.9 -07.6423 26287.4
 29 09 2013  11 16  -21.0178 26054.2 -03495.7 -07.6418 26287.7
 29 09 2013  11 17  -21.0182 26054.5 -03495.6 -07.6414 26287.9
 29 09 2013  11 18  -21.0186 26054.7 -03495.5 -07.6411 26288.2
 29 09 2013  11 19  -21.0191 26054.9 -03495.3 -07.6406 26288.3
 29 09 2013  11 20  -21.0194 26055.0 -03495.1 -07.6401 26288.3
 29 09 2013  11 21  -21.0200 26055.2 -03495.0 -07.6398 26288.5
 29 09 2013  11 22  -21.0205 26055.5 -03494.8 -07.6395 26288.8
 29 09 2013  11 23  -21.0208 26055.8 -03494.6 -07.6390 26289.1
 29 09 2013  11 24  -21.0212 26056.1 -03494.6 -07.6387 26289.4
 29 09 2013  11 25  -21.0217 26056.3 -03494.4 -07.6383 26289.6
 29 09 2013  11 26  -21.0221 26056.5 -03494.2 -07.6378 26289.7
 29 09 2013  11 27  -21.0226 26056.8 -03494.1 -07.6375 26290.1
 29 09 2013  11 28  -21.0230 26057.1 -03493.9 -07.6370 26290.3
 29 09 2013  11 29  -21.0234 26057.2 -03493.6 -07.6364 26290.4
 29 09 2013  11 30  -21.0238 26057.5 -03493.5 -07.6361 26290.7
 29 09 2013  11 31  -21.0242 26057.9 -03493.4 -07.6357 26291.0
 29 09 2013  11 32  -21.0247 26058.1 -03493.2 -07.6353 26291.2
 29 09 2013  11 33  -21.0252 26058.4 -03493.1 -07.6349 26291.5
 29 09 2013  11 34  -21.0258 26058.4 -03492.8 -07.6343 26291.5
 29 09 2013  11 35  -21.0263 26058.6 -03492.7 -07.6339 26291.7
 29 09 2013  11 36  -21.0268 26058.6 -03492.5 -07.6335 26291.6
 29 09 2013  11 37  -21.0274 26059.6 -03492.6 -07.6335 26292.6
 29 09 2013  11 38  -21.0279 26059.7 -03492.4 -07.6329 26292.7
 29 09 2013  11 39  -21.0283 26060.2 -03492.2 -07.6325 26293.1
 29 09 2013  11 40  -21.0288 26060.1 -03491.9 -07.6318 26293.0
 29 09 2013  11 41  -21.0293 26060.4 -03491.7 -07.6314 26293.3
 29 09 2013  11 42  -21.0299 26060.7 -03491.6 -07.6309 26293.6
 29 09 2013  11 43  -21.0301 26061.2 -03491.5 -07.6306 26294.1
 29 09 2013  11 44  -21.0307 26061.4 -03491.3 -07.6302 26294.3
 29 09 2013  11 45  -21.0311 26061.5 -03491.0 -07.6294 26294.3
 29 09 2013  11 46  -21.0313 26062.2 -03491.0 -07.6292 26294.9
 29 09 2013  11 47  -21.0317 26062.5 -03490.8 -07.6288 26295.2
 29 09 2013  11 48  -21.0320 26062.6 -03490.5 -07.6281 26295.3
 29 09 2013  11 49  -21.0324 26063.1 -03490.5 -07.6279 26295.8
 29 09 2013  11 50  -21.0328 26063.0 -03490.2 -07.6273 26295.6
 29 09 2013  11 51  -21.0332 26063.6 -03490.2 -07.6271 26296.2
 29 09 2013  11 52  -21.0334 26064.2 -03490.2 -07.6269 26296.9
 29 09 2013  11 53  -21.0338 26064.6 -03490.1 -07.6266 26297.3
 29 09 2013  11 54  -21.0342 26064.4 -03489.7 -07.6258 26297.0
 29 09 2013  11 55  -21.0345 26065.3 -03489.8 -07.6257 26297.8
 29 09 2013  11 56  -21.0348 26066.3 -03489.9 -07.6256 26298.9
 29 09 2013  11 57  -21.0354 26066.4 -03489.6 -07.6250 26298.9
 29 09 2013  11 58  -21.0358 26067.1 -03489.5 -07.6246 26299.6
 29 09 2013  11 59  -21.0363 26068.1 -03489.5 -07.6244 26300.6
 29 09 2013  12 00  -21.0367 26068.4 -03489.2 -07.6237 26300.9
 29 09 2013  12 01  -21.0371 26068.4 -03488.8 -07.6228 26300.8
 29 09 2013  12 02  -21.0374 26069.0 -03488.7 -07.6223 26301.4
 29 09 2013  12 03  -21.0377 26069.1 -03488.4 -07.6216 26301.4
 29 09 2013  12 04  -21.0381 26069.2 -03488.1 -07.6210 26301.6
 29 09 2013  12 05  -21.0384 26069.8 -03488.0 -07.6207 26302.1
 29 09 2013  12 06  -21.0387 26070.5 -03488.0 -07.6204 26302.8
 29 09 2013  12 07  -21.0391 26070.6 -03487.7 -07.6197 26302.9
 29 09 2013  12 08  -21.0394 26071.1 -03487.5 -07.6192 26303.3
 29 09 2013  12 09  -21.0397 26071.3 -03487.3 -07.6186 26303.5
 29 09 2013  12 10  -21.0402 26071.5 -03487.1 -07.6181 26303.7
 29 09 2013  12 11  -21.0405 26072.0 -03487.0 -07.6178 26304.1
 29 09 2013  12 12  -21.0409 26072.7 -03487.0 -07.6175 26304.9
 29 09 2013  12 13  -21.0414 26072.9 -03486.7 -07.6169 26305.0
 29 09 2013  12 14  -21.0417 26073.6 -03486.6 -07.6164 26305.7
 29 09 2013  12 15  -21.0420 26074.1 -03486.4 -07.6159 26306.2
 29 09 2013  12 16  -21.0424 26074.2 -03486.0 -07.6151 26306.2
 29 09 2013  12 17  -21.0428 26074.4 -03485.8 -07.6145 26306.4
 29 09 2013  12 18  -21.0431 26074.8 -03485.6 -07.6140 26306.8
 29 09 2013  12 19  -21.0433 26075.3 -03485.4 -07.6135 26307.3
 29 09 2013  12 20  -21.0436 26075.1 -03485.0 -07.6126 26306.9
 29 09 2013  12 21  -21.0440 26075.1 -03484.7 -07.6119 26306.9
 29 09 2013  12 22  -21.0443 26076.0 -03484.7 -07.6118 26307.9
 29 09 2013  12 23  -21.0447 26076.1 -03484.4 -07.6110 26307.8
 29 09 2013  12 24  -21.0450 26076.1 -03484.0 -07.6102 26307.8
 29 09 2013  12 25  -21.0453 26077.0 -03484.1 -07.6100 26308.8
 29 09 2013  12 26  -21.0457 26076.9 -03483.7 -07.6093 26308.6
 29 09 2013  12 27  -21.0458 26077.0 -03483.4 -07.6085 26308.6
 29 09 2013  12 28  -21.0460 26077.5 -03483.3 -07.6081 26309.1
 29 09 2013  12 29  -21.0463 26077.8 -03483.1 -07.6077 26309.4
 29 09 2013  12 30  -21.0468 26078.5 -03483.0 -07.6074 26310.0
 29 09 2013  12 31  -21.0471 26078.6 -03482.7 -07.6067 26310.1
 29 09 2013  12 32  -21.0473 26079.0 -03482.5 -07.6062 26310.5
 29 09 2013  12 33  -21.0475 26079.3 -03482.4 -07.6057 26310.8
 29 09 2013  12 34  -21.0477 26079.7 -03482.2 -07.6052 26311.1
 29 09 2013  12 35  -21.0480 26079.9 -03482.0 -07.6047 26311.4
 29 09 2013  12 36  -21.0483 26080.2 -03481.9 -07.6043 26311.6
 29 09 2013  12 37  -21.0486 26080.9 -03481.8 -07.6039 26312.2
 29 09 2013  12 38  -21.0489 26081.2 -03481.6 -07.6034 26312.6
 29 09 2013  12 39  -21.0491 26081.3 -03481.3 -07.6028 26312.6
 29 09 2013  12 40  -21.0494 26081.5 -03481.1 -07.6022 26312.7
 29 09 2013  12 41  -21.0497 26082.1 -03481.0 -07.6019 26313.3
 29 09 2013  12 42  -21.0501 26082.4 -03480.8 -07.6014 26313.6
 29 09 2013  12 43  -21.0502 26082.5 -03480.5 -07.6007 26313.7
 29 09 2013  12 44  -21.0505 26083.0 -03480.4 -07.6003 26314.2
 29 09 2013  12 45  -21.0508 26083.3 -03480.2 -07.5999 26314.5
 29 09 2013  12 46  -21.0510 26083.5 -03480.0 -07.5994 26314.7
 29 09 2013  12 47  -21.0512 26083.8 -03479.8 -07.5989 26314.9
 29 09 2013  12 48  -21.0514 26084.1 -03479.6 -07.5984 26315.2
 29 09 2013  12 49  -21.0517 26084.3 -03479.4 -07.5979 26315.4
 29 09 2013  12 50  -21.0518 26084.8 -03479.3 -07.5975 26315.8
 29 09 2013  12 51  -21.0521 26085.1 -03479.1 -07.5970 26316.1
 29 09 2013  12 52  -21.0523 26085.3 -03478.9 -07.5964 26316.2
 29 09 2013  12 53  -21.0525 26085.4 -03478.6 -07.5957 26316.3
 29 09 2013  12 54  -21.0529 26086.0 -03478.5 -07.5955 26316.9
 29 09 2013  12 55  -21.0531 26086.3 -03478.4 -07.5950 26317.1
 29 09 2013  12 56  -21.0533 26086.4 -03478.1 -07.5944 26317.2
 29 09 2013  12 57  -21.0534 26086.7 -03477.9 -07.5939 26317.5
 29 09 2013  12 58  -21.0535 26087.0 -03477.7 -07.5934 26317.8
 29 09 2013  12 59  -21.0535 26087.1 -03477.5 -07.5929 26317.9
 29 09 2013  13 00  -21.0534 26087.2 -03477.3 -07.5924 26317.9
 29 09 2013  13 01  -21.0534 26087.4 -03477.1 -07.5921 26318.1
 29 09 2013  13 02  -21.0534 26087.7 -03477.0 -07.5918 26318.4
 29 09 2013  13 03  -21.0536 26088.0 -03476.9 -07.5914 26318.7
 29 09 2013  13 04  -21.0537 26088.4 -03476.9 -07.5913 26319.1
 29 09 2013  13 05  -21.0539 26088.7 -03476.8 -07.5909 26319.4
 29 09 2013  13 06  -21.0540 26089.1 -03476.7 -07.5906 26319.8
 29 09 2013  13 07  -21.0542 26089.6 -03476.6 -07.5902 26320.2
 29 09 2013  13 08  -21.0544 26089.8 -03476.5 -07.5899 26320.4
 29 09 2013  13 09  -21.0544 26090.3 -03476.3 -07.5895 26320.9
 29 09 2013  13 10  -21.0546 26090.6 -03476.2 -07.5891 26321.1
 29 09 2013  13 11  -21.0548 26090.8 -03475.9 -07.5885 26321.3
 29 09 2013  13 12  -21.0549 26091.1 -03475.8 -07.5881 26321.6
 29 09 2013  13 13  -21.0550 26091.4 -03475.6 -07.5876 26321.9
 29 09 2013  13 14  -21.0550 26091.9 -03475.4 -07.5871 26322.3
 29 09 2013  13 15  -21.0549 26092.1 -03475.2 -07.5866 26322.5
 29 09 2013  13 16  -21.0549 26092.4 -03475.0 -07.5860 26322.8
 29 09 2013  13 17  -21.0548 26092.7 -03474.8 -07.5856 26323.1
 29 09 2013  13 18  -21.0546 26093.0 -03474.6 -07.5850 26323.3
 29 09 2013  13 19  -21.0546 26093.3 -03474.4 -07.5845 26323.6
 29 09 2013  13 20  -21.0546 26093.8 -03474.3 -07.5840 26324.0
 29 09 2013  13 21  -21.0547 26093.9 -03474.0 -07.5835 26324.1
 29 09 2013  13 22  -21.0547 26094.0 -03473.7 -07.5829 26324.2
 29 09 2013  13 23  -21.0547 26094.1 -03473.5 -07.5824 26324.3
 29 09 2013  13 24  -21.0546 26094.3 -03473.3 -07.5818 26324.5
 29 09 2013  13 25  -21.0547 26094.6 -03473.1 -07.5814 26324.7
 29 09 2013  13 26  -21.0547 26094.7 -03472.9 -07.5809 26324.8
 29 09 2013  13 27  -21.0546 26094.9 -03472.7 -07.5803 26325.0
 29 09 2013  13 28  -21.0545 26095.2 -03472.6 -07.5800 26325.3
 29 09 2013  13 29  -21.0542 26095.5 -03472.4 -07.5795 26325.5
 29 09 2013  13 30  -21.0540 26095.7 -03472.2 -07.5791 26325.7
 29 09 2013  13 31  -21.0537 26095.9 -03472.0 -07.5786 26325.8
 29 09 2013  13 32  -21.0534 26095.9 -03471.8 -07.5781 26325.8
 29 09 2013  13 33  -21.0531 26096.0 -03471.6 -07.5777 26325.9
 29 09 2013  13 34  -21.0526 26096.1 -03471.5 -07.5773 26326.0
 29 09 2013  13 35  -21.0522 26096.2 -03471.4 -07.5771 26326.0
 29 09 2013  13 36  -21.0518 26096.1 -03471.2 -07.5767 26326.0
 29 09 2013  13 37  -21.0514 26096.2 -03471.0 -07.5764 26326.0
 29 09 2013  13 38  -21.0510 26096.4 -03471.0 -07.5763 26326.2
 29 09 2013  13 39  -21.0507 26096.6 -03471.0 -07.5761 26326.4
 29 09 2013  13 40  -21.0505 26097.1 -03471.0 -07.5761 26326.9
 29 09 2013  13 41  -21.0502 26097.3 -03470.9 -07.5758 26327.1
 29 09 2013  13 42  -21.0499 26097.3 -03470.8 -07.5755 26327.1
 29 09 2013  13 43  -21.0494 26097.5 -03470.7 -07.5752 26327.3
 29 09 2013  13 44  -21.0489 26097.5 -03470.5 -07.5748 26327.3
 29 09 2013  13 45  -21.0486 26097.5 -03470.4 -07.5746 26327.3
 29 09 2013  13 46  -21.0483 26097.4 -03470.2 -07.5743 26327.2
 29 09 2013  13 47  -21.0479 26097.6 -03470.2 -07.5741 26327.3
 29 09 2013  13 48  -21.0475 26097.6 -03470.1 -07.5739 26327.3
 29 09 2013  13 49  -21.0471 26097.6 -03469.9 -07.5736 26327.2
 29 09 2013  13 50  -21.0467 26097.9 -03470.0 -07.5736 26327.6
 29 09 2013  13 51  -21.0463 26097.7 -03469.7 -07.5731 26327.3
 29 09 2013  13 52  -21.0458 26097.7 -03469.6 -07.5728 26327.3
 29 09 2013  13 53  -21.0452 26097.6 -03469.5 -07.5727 26327.2
 29 09 2013  13 54  -21.0447 26097.3 -03469.3 -07.5723 26326.9
 29 09 2013  13 55  -21.0445 26097.5 -03469.3 -07.5723 26327.1
 29 09 2013  13 56  -21.0442 26097.6 -03469.2 -07.5721 26327.2
 29 09 2013  13 57  -21.0442 26097.8 -03469.3 -07.5721 26327.3
 29 09 2013  13 58  -21.0441 26097.8 -03469.1 -07.5718 26327.3
 29 09 2013  13 59  -21.0438 26097.8 -03469.0 -07.5715 26327.3
 29 09 2013  14 00  -21.0433 26097.5 -03468.7 -07.5710 26327.0
 29 09 2013  14 01  -21.0428 26097.8 -03468.7 -07.5709 26327.3
 29 09 2013  14 02  -21.0422 26097.6 -03468.5 -07.5705 26327.1
 29 09 2013  14 03  -21.0418 26097.9 -03468.5 -07.5704 26327.4
 29 09 2013  14 04  -21.0413 26097.9 -03468.4 -07.5701 26327.4
 29 09 2013  14 05  -21.0405 26097.5 -03468.0 -07.5695 26327.0
 29 09 2013  14 06  -21.0400 26097.8 -03468.0 -07.5695 26327.2
 29 09 2013  14 07  -21.0391 26097.6 -03467.8 -07.5690 26327.0
 29 09 2013  14 08  -21.0383 26097.8 -03467.8 -07.5689 26327.2
 29 09 2013  14 09  -21.0376 26097.8 -03467.6 -07.5686 26327.2
 29 09 2013  14 10  -21.0370 26097.9 -03467.5 -07.5683 26327.2
 29 09 2013  14 11  -21.0362 26097.8 -03467.3 -07.5679 26327.1
 29 09 2013  14 12  -21.0357 26098.0 -03467.3 -07.5678 26327.3
 29 09 2013  14 13  -21.0348 26097.9 -03467.1 -07.5673 26327.2
 29 09 2013  14 14  -21.0342 26097.9 -03467.0 -07.5671 26327.2
 29 09 2013  14 15  -21.0334 26097.9 -03466.8 -07.5668 26327.1
 29 09 2013  14 16  -21.0325 26097.9 -03466.7 -07.5665 26327.1
 29 09 2013  14 17  -21.0319 26097.9 -03466.6 -07.5662 26327.1
 29 09 2013  14 18  -21.0310 26097.8 -03466.4 -07.5659 26327.0
 29 09 2013  14 19  -21.0302 26097.8 -03466.3 -07.5657 26326.9
 29 09 2013  14 20  -21.0294 26097.7 -03466.1 -07.5653 26326.8
 29 09 2013  14 21  -21.0285 26097.6 -03466.0 -07.5651 26326.8
 29 09 2013  14 22  -21.0277 26097.6 -03465.9 -07.5650 26326.7
 29 09 2013  14 23  -21.0270 26097.6 -03465.9 -07.5648 26326.8
 29 09 2013  14 24  -21.0263 26097.5 -03465.8 -07.5647 26326.7
 29 09 2013  14 25  -21.0255 26097.5 -03465.7 -07.5645 26326.6
 29 09 2013  14 26  -21.0248 26097.4 -03465.6 -07.5643 26326.5
 29 09 2013  14 27  -21.0241 26097.4 -03465.6 -07.5643 26326.5
 29 09 2013  14 28  -21.0235 26097.3 -03465.5 -07.5642 26326.4
 29 09 2013  14 29  -21.0228 26097.2 -03465.5 -07.5641 26326.3
 29 09 2013  14 30  -21.0221 26096.9 -03465.4 -07.5640 26326.0
 29 09 2013  14 31  -21.0217 26097.0 -03465.4 -07.5640 26326.1
 29 09 2013  14 32  -21.0210 26096.8 -03465.3 -07.5638 26325.9
 29 09 2013  14 33  -21.0207 26097.0 -03465.4 -07.5639 26326.1
 29 09 2013  14 34  -21.0204 26097.2 -03465.5 -07.5642 26326.3
 29 09 2013  14 35  -21.0201 26097.3 -03465.5 -07.5641 26326.3
 29 09 2013  14 36  -21.0195 26097.2 -03465.4 -07.5640 26326.3
 29 09 2013  14 37  -21.0190 26097.1 -03465.4 -07.5639 26326.2
 29 09 2013  14 38  -21.0183 26096.9 -03465.3 -07.5639 26325.9
 29 09 2013  14 39  -21.0178 26096.6 -03465.3 -07.5640 26325.7
 29 09 2013  14 40  -21.0174 26096.5 -03465.4 -07.5641 26325.6
 29 09 2013  14 41  -21.0171 26096.7 -03465.6 -07.5644 26325.8
 29 09 2013  14 42  -21.0168 26096.7 -03465.7 -07.5646 26325.9
 29 09 2013  14 43  -21.0165 26096.6 -03465.7 -07.5647 26325.7
 29 09 2013  14 44  -21.0159 26096.6 -03465.7 -07.5648 26325.7
 29 09 2013  14 45  -21.0156 26096.5 -03465.8 -07.5651 26325.7
 29 09 2013  14 46  -21.0152 26096.4 -03465.9 -07.5652 26325.6
 29 09 2013  14 47  -21.0149 26096.4 -03466.0 -07.5654 26325.6
 29 09 2013  14 48  -21.0145 26096.1 -03466.0 -07.5655 26325.3
 29 09 2013  14 49  -21.0138 26095.9 -03466.0 -07.5656 26325.1
 29 09 2013  14 50  -21.0133 26095.6 -03466.0 -07.5657 26324.7
 29 09 2013  14 51  -21.0128 26095.3 -03466.1 -07.5659 26324.5
 29 09 2013  14 52  -21.0125 26095.1 -03466.2 -07.5663 26324.3
 29 09 2013  14 53  -21.0123 26095.1 -03466.4 -07.5666 26324.3
 29 09 2013  14 54  -21.0122 26095.2 -03466.6 -07.5670 26324.4
 29 09 2013  14 55  -21.0121 26095.1 -03466.7 -07.5673 26324.4
 29 09 2013  14 56  -21.0120 26095.2 -03466.8 -07.5675 26324.4
 29 09 2013  14 57  -21.0119 26095.0 -03466.9 -07.5677 26324.3
 29 09 2013  14 58  -21.0119 26095.1 -03467.0 -07.5680 26324.4
 29 09 2013  14 59  -21.0118 26094.9 -03467.0 -07.5681 26324.2
 29 09 2013  15 00  -21.0116 26094.6 -03467.0 -07.5682 26323.9
 29 09 2013  15 01  -21.0114 26094.4 -03467.1 -07.5684 26323.8
 29 09 2013  15 02  -21.0113 26094.4 -03467.2 -07.5687 26323.7
 29 09 2013  15 03  -21.0110 26094.1 -03467.3 -07.5688 26323.5
 29 09 2013  15 04  -21.0108 26093.8 -03467.3 -07.5690 26323.2
 29 09 2013  15 05  -21.0105 26093.5 -03467.4 -07.5693 26322.9
 29 09 2013  15 06  -21.0104 26093.4 -03467.6 -07.5697 26322.8
 29 09 2013  15 07  -21.0103 26093.3 -03467.6 -07.5699 26322.7
 29 09 2013  15 08  -21.0103 26093.1 -03467.8 -07.5702 26322.5
 29 09 2013  15 09  -21.0100 26093.0 -03467.8 -07.5704 26322.4
 29 09 2013  15 10  -21.0099 26092.9 -03467.9 -07.5706 26322.3
 29 09 2013  15 11  -21.0098 26092.7 -03468.0 -07.5708 26322.1
 29 09 2013  15 12  -21.0097 26092.6 -03468.0 -07.5710 26322.1
 29 09 2013  15 13  -21.0095 26092.5 -03468.1 -07.5711 26321.9
 29 09 2013  15 14  -21.0094 26092.3 -03468.1 -07.5711 26321.8
 29 09 2013  15 15  -21.0091 26092.1 -03468.1 -07.5713 26321.6
 29 09 2013  15 16  -21.0089 26091.9 -03468.1 -07.5713 26321.4
 29 09 2013  15 17  -21.0088 26091.6 -03468.1 -07.5714 26321.1
 29 09 2013  15 18  -21.0089 26091.5 -03468.2 -07.5716 26321.0
 29 09 2013  15 19  -21.0090 26091.3 -03468.3 -07.5718 26320.8
 29 09 2013  15 20  -21.0089 26091.3 -03468.3 -07.5719 26320.8
 29 09 2013  15 21  -21.0092 26091.1 -03468.3 -07.5719 26320.6
 29 09 2013  15 22  -21.0094 26090.9 -03468.3 -07.5719 26320.4
 29 09 2013  15 23  -21.0095 26090.8 -03468.3 -07.5720 26320.3
 29 09 2013  15 24  -21.0096 26090.5 -03468.3 -07.5720 26320.0
 29 09 2013  15 25  -21.0095 26090.1 -03468.2 -07.5720 26319.6
 29 09 2013  15 26  -21.0094 26090.0 -03468.3 -07.5722 26319.5
 29 09 2013  15 27  -21.0096 26089.9 -03468.4 -07.5725 26319.5
 29 09 2013  15 28  -21.0098 26089.8 -03468.4 -07.5726 26319.4
 29 09 2013  15 29  -21.0099 26089.8 -03468.5 -07.5728 26319.3
 29 09 2013  15 30  -21.0100 26089.7 -03468.6 -07.5729 26319.2
 29 09 2013  15 31  -21.0100 26089.5 -03468.5 -07.5729 26319.1
 29 09 2013  15 32  -21.0100 26089.3 -03468.6 -07.5730 26318.9
 29 09 2013  15 33  -21.0098 26089.0 -03468.6 -07.5731 26318.6
 29 09 2013  15 34  -21.0097 26088.7 -03468.6 -07.5732 26318.3
 29 09 2013  15 35  -21.0095 26088.5 -03468.6 -07.5733 26318.1
 29 09 2013  15 36  -21.0094 26088.3 -03468.6 -07.5735 26317.8
 29 09 2013  15 37  -21.0092 26088.0 -03468.7 -07.5736 26317.6
 29 09 2013  15 38  -21.0091 26087.8 -03468.7 -07.5738 26317.4
 29 09 2013  15 39  -21.0091 26087.7 -03468.9 -07.5741 26317.3
 29 09 2013  15 40  -21.0091 26087.5 -03468.9 -07.5743 26317.1
 29 09 2013  15 41  -21.0089 26087.2 -03469.0 -07.5745 26316.9
 29 09 2013  15 42  -21.0086 26087.0 -03469.1 -07.5748 26316.6
 29 09 2013  15 43  -21.0084 26086.7 -03469.2 -07.5751 26316.4
 29 09 2013  15 44  -21.0085 26086.6 -03469.3 -07.5754 26316.3
 29 09 2013  15 45  -21.0084 26086.2 -03469.4 -07.5758 26315.9
 29 09 2013  15 46  -21.0082 26085.9 -03469.5 -07.5761 26315.6
 29 09 2013  15 47  -21.0082 26085.6 -03469.6 -07.5764 26315.3
 29 09 2013  15 48  -21.0081 26085.3 -03469.8 -07.5769 26315.1
 29 09 2013  15 49  -21.0083 26085.1 -03470.0 -07.5773 26314.9
 29 09 2013  15 50  -21.0084 26085.0 -03470.2 -07.5778 26314.9
 29 09 2013  15 51  -21.0086 26084.9 -03470.4 -07.5782 26314.7
 29 09 2013  15 52  -21.0090 26084.7 -03470.5 -07.5786 26314.6
 29 09 2013  15 53  -21.0095 26084.5 -03470.7 -07.5790 26314.4
 29 09 2013  15 54  -21.0099 26084.4 -03470.8 -07.5793 26314.3
 29 09 2013  15 55  -21.0100 26084.1 -03470.9 -07.5796 26314.0
 29 09 2013  15 56  -21.0103 26083.8 -03470.9 -07.5797 26313.7
 29 09 2013  15 57  -21.0106 26083.6 -03471.0 -07.5800 26313.5
 29 09 2013  15 58  -21.0111 26083.3 -03471.0 -07.5801 26313.2
 29 09 2013  15 59  -21.0116 26083.2 -03471.2 -07.5804 26313.2
 29 09 2013  16 00  -21.0120 26082.9 -03471.2 -07.5805 26312.9
 29 09 2013  16 01  -21.0121 26082.7 -03471.2 -07.5805 26312.7
 29 09 2013  16 02  -21.0125 26082.5 -03471.2 -07.5807 26312.5
 29 09 2013  16 03  -21.0128 26082.3 -03471.2 -07.5807 26312.3
 29 09 2013  16 04  -21.0131 26082.0 -03471.2 -07.5808 26312.0
 29 09 2013  16 05  -21.0134 26081.9 -03471.3 -07.5810 26311.9
 29 09 2013  16 06  -21.0136 26081.7 -03471.3 -07.5810 26311.7
 29 09 2013  16 07  -21.0139 26081.6 -03471.3 -07.5811 26311.6
 29 09 2013  16 08  -21.0141 26081.4 -03471.3 -07.5811 26311.4
 29 09 2013  16 09  -21.0145 26081.3 -03471.3 -07.5812 26311.3
 29 09 2013  16 10  -21.0147 26081.2 -03471.3 -07.5812 26311.2
 29 09 2013  16 11  -21.0150 26081.1 -03471.3 -07.5812 26311.1
 29 09 2013  16 12  -21.0153 26081.0 -03471.2 -07.5811 26311.0
 29 09 2013  16 13  -21.0156 26081.0 -03471.2 -07.5811 26310.9
 29 09 2013  16 14  -21.0159 26080.9 -03471.2 -07.5811 26310.8
 29 09 2013  16 15  -21.0162 26080.7 -03471.2 -07.5811 26310.7
 29 09 2013  16 16  -21.0164 26080.5 -03471.1 -07.5810 26310.5
 29 09 2013  16 17  -21.0165 26080.3 -03470.9 -07.5807 26310.2
 29 09 2013  16 18  -21.0167 26080.0 -03470.8 -07.5806 26310.0
 29 09 2013  16 19  -21.0168 26079.8 -03470.8 -07.5805 26309.7
 29 09 2013  16 20  -21.0170 26079.6 -03470.7 -07.5804 26309.5
 29 09 2013  16 21  -21.0172 26079.4 -03470.6 -07.5803 26309.3
 29 09 2013  16 22  -21.0174 26079.2 -03470.6 -07.5803 26309.1
 29 09 2013  16 23  -21.0175 26078.9 -03470.5 -07.5802 26308.8
 29 09 2013  16 24  -21.0178 26078.8 -03470.5 -07.5803 26308.7
 29 09 2013  16 25  -21.0179 26078.6 -03470.5 -07.5802 26308.5
 29 09 2013  16 26  -21.0182 26078.5 -03470.5 -07.5802 26308.4
 29 09 2013  16 27  -21.0182 26078.2 -03470.3 -07.5800 26308.1
 29 09 2013  16 28  -21.0181 26077.9 -03470.2 -07.5799 26307.8
 29 09 2013  16 29  -21.0181 26077.7 -03470.1 -07.5798 26307.6
 29 09 2013  16 30  -21.0180 26077.5 -03470.1 -07.5797 26307.4
 29 09 2013  16 31  -21.0180 26077.3 -03470.0 -07.5796 26307.2
 29 09 2013  16 32  -21.0179 26077.1 -03469.9 -07.5795 26306.9
 29 09 2013  16 33  -21.0179 26076.8 -03469.9 -07.5794 26306.7
 29 09 2013  16 34  -21.0180 26076.6 -03469.8 -07.5794 26306.4
 29 09 2013  16 35  -21.0180 26076.5 -03469.8 -07.5793 26306.3
 29 09 2013  16 36  -21.0182 26076.3 -03469.7 -07.5793 26306.2
 29 09 2013  16 37  -21.0181 26076.0 -03469.6 -07.5790 26305.9
 29 09 2013  16 38  -21.0179 26075.7 -03469.4 -07.5788 26305.5
 29 09 2013  16 39  -21.0177 26075.4 -03469.3 -07.5786 26305.2
 29 09 2013  16 40  -21.0175 26075.2 -03469.3 -07.5786 26304.9
 29 09 2013  16 41  -21.0174 26074.9 -03469.2 -07.5786 26304.6
 29 09 2013  16 42  -21.0171 26074.6 -03469.2 -07.5785 26304.3
 29 09 2013  16 43  -21.0171 26074.4 -03469.1 -07.5786 26304.1
 29 09 2013  16 44  -21.0170 26074.2 -03469.2 -07.5787 26304.0
 29 09 2013  16 45  -21.0169 26074.0 -03469.2 -07.5787 26303.8
 29 09 2013  16 46  -21.0168 26073.8 -03469.2 -07.5787 26303.6
 29 09 2013  16 47  -21.0167 26073.6 -03469.1 -07.5788 26303.4
 29 09 2013  16 48  -21.0166 26073.5 -03469.2 -07.5789 26303.3
 29 09 2013  16 49  -21.0165 26073.2 -03469.2 -07.5790 26303.0
 29 09 2013  16 50  -21.0164 26073.0 -03469.2 -07.5790 26302.7
 29 09 2013  16 51  -21.0163 26072.7 -03469.2 -07.5791 26302.5
 29 09 2013  16 52  -21.0163 26072.4 -03469.2 -07.5792 26302.2
 29 09 2013  16 53  -21.0163 26072.1 -03469.2 -07.5793 26301.9
 29 09 2013  16 54  -21.0163 26071.8 -03469.2 -07.5794 26301.6
 29 09 2013  16 55  -21.0164 26071.6 -03469.2 -07.5795 26301.4
 29 09 2013  16 56  -21.0164 26071.3 -03469.3 -07.5797 26301.1
 29 09 2013  16 57  -21.0164 26071.1 -03469.3 -07.5799 26300.9
 29 09 2013  16 58  -21.0163 26070.8 -03469.3 -07.5800 26300.6
 29 09 2013  16 59  -21.0163 26070.4 -03469.3 -07.5801 26300.2
 29 09 2013  17 00  -21.0161 26070.1 -03469.4 -07.5804 26300.0
 29 09 2013  17 01  -21.0161 26069.8 -03469.5 -07.5806 26299.6
 29 09 2013  17 02  -21.0162 26069.5 -03469.6 -07.5809 26299.4
 29 09 2013  17 03  -21.0163 26069.3 -03469.7 -07.5812 26299.2
 29 09 2013  17 04  -21.0163 26069.1 -03469.8 -07.5815 26299.0
 29 09 2013  17 05  -21.0163 26068.7 -03469.8 -07.5817 26298.6
 29 09 2013  17 06  -21.0164 26068.5 -03470.0 -07.5821 26298.5
 29 09 2013  17 07  -21.0167 26068.4 -03470.1 -07.5825 26298.3
 29 09 2013  17 08  -21.0170 26068.3 -03470.3 -07.5828 26298.3
 29 09 2013  17 09  -21.0172 26068.0 -03470.3 -07.5829 26298.0
 29 09 2013  17 10  -21.0172 26067.6 -03470.3 -07.5830 26297.6
 29 09 2013  17 11  -21.0173 26067.3 -03470.3 -07.5832 26297.3
 29 09 2013  17 12  -21.0174 26067.0 -03470.3 -07.5832 26296.9
 29 09 2013  17 13  -21.0176 26066.7 -03470.4 -07.5834 26296.7
 29 09 2013  17 14  -21.0180 26066.4 -03470.4 -07.5836 26296.4
 29 09 2013  17 15  -21.0182 26066.1 -03470.4 -07.5836 26296.1
 29 09 2013  17 16  -21.0182 26065.9 -03470.4 -07.5836 26295.9
 29 09 2013  17 17  -21.0184 26065.5 -03470.3 -07.5836 26295.5
 29 09 2013  17 18  -21.0185 26065.2 -03470.3 -07.5837 26295.2
 29 09 2013  17 19  -21.0186 26064.9 -03470.3 -07.5837 26294.9
 29 09 2013  17 20  -21.0184 26064.7 -03470.2 -07.5837 26294.7
 29 09 2013  17 21  -21.0184 26064.3 -03470.1 -07.5836 26294.3
 29 09 2013  17 22  -21.0184 26063.9 -03470.0 -07.5835 26293.9
 29 09 2013  17 23  -21.0184 26063.6 -03470.0 -07.5836 26293.6
 29 09 2013  17 24  -21.0182 26063.2 -03469.9 -07.5834 26293.2
 29 09 2013  17 25  -21.0183 26062.9 -03469.9 -07.5835 26292.9
 29 09 2013  17 26  -21.0182 26062.6 -03469.9 -07.5835 26292.6
 29 09 2013  17 27  -21.0180 26062.3 -03469.8 -07.5835 26292.3
 29 09 2013  17 28  -21.0177 26062.1 -03469.7 -07.5834 26292.1
 29 09 2013  17 29  -21.0175 26061.9 -03469.7 -07.5834 26291.8
 29 09 2013  17 30  -21.0174 26061.7 -03469.7 -07.5835 26291.6
 29 09 2013  17 31  -21.0172 26061.5 -03469.7 -07.5834 26291.5
 29 09 2013  17 32  -21.0170 26061.4 -03469.7 -07.5834 26291.3
 29 09 2013  17 33  -21.0168 26061.1 -03469.6 -07.5834 26291.1
 29 09 2013  17 34  -21.0164 26060.9 -03469.5 -07.5833 26290.8
 29 09 2013  17 35  -21.0162 26060.7 -03469.5 -07.5832 26290.6
 29 09 2013  17 36  -21.0158 26060.3 -03469.4 -07.5831 26290.2
 29 09 2013  17 37  -21.0155 26059.9 -03469.3 -07.5830 26289.9
 29 09 2013  17 38  -21.0151 26059.7 -03469.2 -07.5829 26289.6
 29 09 2013  17 39  -21.0149 26059.5 -03469.2 -07.5829 26289.4
 29 09 2013  17 40  -21.0147 26059.3 -03469.1 -07.5828 26289.1
 29 09 2013  17 41  -21.0144 26059.0 -03469.0 -07.5827 26288.9
 29 09 2013  17 42  -21.0139 26058.7 -03469.0 -07.5827 26288.6
 29 09 2013  17 43  -21.0137 26058.3 -03468.9 -07.5826 26288.2
 29 09 2013  17 44  -21.0134 26057.9 -03468.8 -07.5826 26287.8
 29 09 2013  17 45  -21.0129 26057.7 -03468.8 -07.5827 26287.6
 29 09 2013  17 46  -21.0126 26057.5 -03468.9 -07.5828 26287.4
 29 09 2013  17 47  -21.0121 26057.2 -03468.8 -07.5827 26287.1
 29 09 2013  17 48  -21.0117 26057.1 -03468.9 -07.5829 26287.0
 29 09 2013  17 49  -21.0114 26056.9 -03468.9 -07.5830 26286.8
 29 09 2013  17 50  -21.0110 26056.7 -03468.8 -07.5829 26286.6
 29 09 2013  17 51  -21.0105 26056.4 -03468.7 -07.5828 26286.2
 29 09 2013  17 52  -21.0099 26056.1 -03468.7 -07.5828 26286.0
 29 09 2013  17 53  -21.0095 26055.8 -03468.7 -07.5829 26285.7
 29 09 2013  17 54  -21.0089 26055.6 -03468.7 -07.5830 26285.5
 29 09 2013  17 55  -21.0083 26055.4 -03468.8 -07.5832 26285.3
 29 09 2013  17 56  -21.0079 26055.1 -03468.8 -07.5833 26285.0
 29 09 2013  17 57  -21.0073 26054.8 -03468.7 -07.5833 26284.7
 29 09 2013  17 58  -21.0068 26054.5 -03468.8 -07.5835 26284.4
 29 09 2013  17 59  -21.0063 26054.3 -03468.8 -07.5836 26284.2
 29 09 2013  18 00  -21.0058 26054.0 -03468.8 -07.5837 26283.9
 29 09 2013  18 01  -21.0052 26053.8 -03468.9 -07.5839 26283.7
 29 09 2013  18 02  -21.0046 26053.6 -03468.9 -07.5841 26283.6
 29 09 2013  18 03  -21.0041 26053.6 -03469.1 -07.5844 26283.5
 29 09 2013  18 04  -21.0036 26053.3 -03469.1 -07.5845 26283.3
 29 09 2013  18 05  -21.0030 26053.1 -03469.2 -07.5847 26283.1
 29 09 2013  18 06  -21.0024 26052.9 -03469.2 -07.5849 26282.9
 29 09 2013  18 07  -21.0019 26052.7 -03469.3 -07.5852 26282.7
 29 09 2013  18 08  -21.0014 26052.5 -03469.4 -07.5854 26282.5
 29 09 2013  18 09  -21.0011 26052.3 -03469.5 -07.5857 26282.3
 29 09 2013  18 10  -21.0007 26052.1 -03469.6 -07.5859 26282.1
 29 09 2013  18 11  -21.0003 26051.9 -03469.6 -07.5861 26281.9
 29 09 2013  18 12  -21.0000 26051.7 -03469.7 -07.5864 26281.8
 29 09 2013  18 13  -20.9997 26051.4 -03469.8 -07.5865 26281.5
 29 09 2013  18 14  -20.9993 26051.1 -03469.8 -07.5866 26281.2
 29 09 2013  18 15  -20.9990 26050.9 -03469.9 -07.5869 26281.0
 29 09 2013  18 16  -20.9987 26050.8 -03470.0 -07.5871 26280.8
 29 09 2013  18 17  -20.9983 26050.6 -03470.0 -07.5872 26280.6
 29 09 2013  18 18  -20.9980 26050.3 -03470.0 -07.5874 26280.4
 29 09 2013  18 19  -20.9976 26050.2 -03470.1 -07.5877 26280.3
 29 09 2013  18 20  -20.9970 26050.0 -03470.2 -07.5878 26280.1
 29 09 2013  18 21  -20.9966 26049.8 -03470.3 -07.5881 26279.9
 29 09 2013  18 22  -20.9962 26049.7 -03470.4 -07.5884 26279.8
 29 09 2013  18 23  -20.9958 26049.5 -03470.5 -07.5888 26279.7
 29 09 2013  18 24  -20.9955 26049.3 -03470.7 -07.5890 26279.5
 29 09 2013  18 25  -20.9952 26049.1 -03470.8 -07.5894 26279.3
 29 09 2013  18 26  -20.9949 26049.0 -03470.9 -07.5898 26279.2
 29 09 2013  18 27  -20.9947 26048.8 -03471.1 -07.5902 26279.1
 29 09 2013  18 28  -20.9943 26048.6 -03471.2 -07.5905 26278.9
 29 09 2013  18 29  -20.9940 26048.5 -03471.4 -07.5909 26278.8
 29 09 2013  18 30  -20.9937 26048.3 -03471.5 -07.5912 26278.6
 29 09 2013  18 31  -20.9934 26048.1 -03471.7 -07.5916 26278.4
 29 09 2013  18 32  -20.9931 26047.9 -03471.8 -07.5920 26278.3
 29 09 2013  18 33  -20.9928 26047.8 -03472.0 -07.5925 26278.2
 29 09 2013  18 34  -20.9926 26047.7 -03472.2 -07.5929 26278.1
 29 09 2013  18 35  -20.9924 26047.5 -03472.4 -07.5934 26278.0
 29 09 2013  18 36  -20.9922 26047.4 -03472.6 -07.5938 26277.9
 29 09 2013  18 37  -20.9920 26047.4 -03472.8 -07.5943 26277.9
 29 09 2013  18 38  -20.9919 26047.2 -03473.0 -07.5946 26277.7
 29 09 2013  18 39  -20.9917 26047.0 -03473.1 -07.5950 26277.5
 29 09 2013  18 40  -20.9916 26046.9 -03473.3 -07.5955 26277.5
 29 09 2013  18 41  -20.9914 26046.8 -03473.5 -07.5958 26277.4
 29 09 2013  18 42  -20.9913 26046.7 -03473.7 -07.5963 26277.3
 29 09 2013  18 43  -20.9912 26046.5 -03473.8 -07.5967 26277.1
 29 09 2013  18 44  -20.9910 26046.4 -03473.9 -07.5970 26277.0
 29 09 2013  18 45  -20.9908 26046.2 -03474.1 -07.5974 26276.9
 29 09 2013  18 46  -20.9906 26046.2 -03474.3 -07.5978 26276.9
 29 09 2013  18 47  -20.9904 26046.1 -03474.5 -07.5983 26276.8
 29 09 2013  18 48  -20.9902 26046.0 -03474.7 -07.5987 26276.8
 29 09 2013  18 49  -20.9900 26045.9 -03474.8 -07.5989 26276.7
 29 09 2013  18 50  -20.9898 26045.9 -03474.9 -07.5993 26276.6
 29 09 2013  18 51  -20.9896 26045.7 -03475.1 -07.5996 26276.5
 29 09 2013  18 52  -20.9893 26045.6 -03475.2 -07.5999 26276.4
 29 09 2013  18 53  -20.9891 26045.5 -03475.3 -07.6002 26276.4
 29 09 2013  18 54  -20.9889 26045.4 -03475.5 -07.6006 26276.3
 29 09 2013  18 55  -20.9887 26045.4 -03475.6 -07.6008 26276.3
 29 09 2013  18 56  -20.9888 26045.4 -03475.7 -07.6012 26276.3
 29 09 2013  18 57  -20.9889 26045.4 -03475.8 -07.6013 26276.3
 29 09 2013  18 58  -20.9888 26045.2 -03475.8 -07.6013 26276.1
 29 09 2013  18 59  -20.9888 26045.1 -03475.9 -07.6015 26276.0
 29 09 2013  19 00  -20.9889 26044.9 -03475.9 -07.6016 26275.9
 29 09 2013  19 01  -20.9888 26044.8 -03475.9 -07.6017 26275.7
 29 09 2013  19 02  -20.9886 26044.7 -03476.0 -07.6019 26275.6
 29 09 2013  19 03  -20.9886 26044.6 -03476.1 -07.6022 26275.5
 29 09 2013  19 04  -20.9885 26044.5 -03476.2 -07.6024 26275.4
 29 09 2013  19 05  -20.9884 26044.4 -03476.3 -07.6026 26275.4
 29 09 2013  19 06  -20.9884 26044.4 -03476.4 -07.6028 26275.4
 29 09 2013  19 07  -20.9883 26044.5 -03476.5 -07.6032 26275.5
 29 09 2013  19 08  -20.9881 26044.6 -03476.7 -07.6035 26275.6
 29 09 2013  19 09  -20.9879 26044.7 -03476.9 -07.6038 26275.7
 29 09 2013  19 10  -20.9874 26044.9 -03477.1 -07.6042 26276.0
 29 09 2013  19 11  -20.9873 26045.0 -03477.3 -07.6047 26276.1
 29 09 2013  19 12  -20.9873 26045.6 -03477.7 -07.6052 26276.8
 29 09 2013  19 13  -20.9873 26046.5 -03478.2 -07.6061 26277.7
 29 09 2013  19 14  -20.9873 26047.0 -03478.6 -07.6068 26278.3
 29 09 2013  19 15  -20.9871 26047.4 -03478.8 -07.6073 26278.7
 29 09 2013  19 16  -20.9869 26048.0 -03479.1 -07.6078 26279.3
 29 09 2013  19 17  -20.9867 26048.3 -03479.3 -07.6080 26279.6
 29 09 2013  19 18  -20.9865 26048.2 -03479.2 -07.6079 26279.5
 29 09 2013  19 19  -20.9861 26048.0 -03479.2 -07.6078 26279.4
 29 09 2013  19 20  -20.9858 26047.9 -03479.1 -07.6076 26279.2
 29 09 2013  19 21  -20.9855 26047.5 -03479.0 -07.6075 26278.8
 29 09 2013  19 22  -20.9853 26047.1 -03478.8 -07.6072 26278.3
 29 09 2013  19 23  -20.9849 26046.5 -03478.6 -07.6070 26277.8
 29 09 2013  19 24  -20.9844 26046.0 -03478.4 -07.6067 26277.2
 29 09 2013  19 25  -20.9838 26045.6 -03478.3 -07.6066 26276.8
 29 09 2013  19 26  -20.9834 26045.3 -03478.4 -07.6068 26276.5
 29 09 2013  19 27  -20.9829 26045.4 -03478.7 -07.6075 26276.6
 29 09 2013  19 28  -20.9826 26046.3 -03479.3 -07.6086 26277.6
 29 09 2013  19 29  -20.9828 26045.4 -03479.2 -07.6087 26276.8
 29 09 2013  19 30  -20.9825 26045.6 -03479.4 -07.6090 26277.0
 29 09 2013  19 31  -20.9823 26045.8 -03479.5 -07.6092 26277.2
 29 09 2013  19 32  -20.9823 26046.0 -03479.7 -07.6096 26277.4
 29 09 2013  19 33  -20.9819 26045.9 -03479.8 -07.6098 26277.4
 29 09 2013  19 34  -20.9818 26045.7 -03479.8 -07.6099 26277.1
 29 09 2013  19 35  -20.9815 26045.6 -03479.9 -07.6100 26277.1
 29 09 2013  19 36  -20.9813 26045.5 -03479.9 -07.6101 26277.0
 29 09 2013  19 37  -20.9813 26045.3 -03479.9 -07.6101 26276.7
 29 09 2013  19 38  -20.9812 26044.9 -03479.8 -07.6100 26276.3
 29 09 2013  19 39  -20.9812 26044.7 -03479.8 -07.6101 26276.1
 29 09 2013  19 40  -20.9810 26044.6 -03479.9 -07.6103 26276.1
 29 09 2013  19 41  -20.9809 26044.5 -03480.0 -07.6106 26276.0
 29 09 2013  19 42  -20.9806 26044.3 -03480.0 -07.6108 26275.8
 29 09 2013  19 43  -20.9803 26044.1 -03480.1 -07.6109 26275.6
 29 09 2013  19 44  -20.9798 26043.9 -03480.1 -07.6111 26275.4
 29 09 2013  19 45  -20.9794 26043.8 -03480.2 -07.6112 26275.3
 29 09 2013  19 46  -20.9788 26043.8 -03480.4 -07.6116 26275.4
 29 09 2013  19 47  -20.9784 26044.0 -03480.6 -07.6121 26275.5
 29 09 2013  19 48  -20.9778 26044.2 -03480.8 -07.6125 26275.8
 29 09 2013  19 49  -20.9773 26044.2 -03481.0 -07.6129 26275.8
 29 09 2013  19 50  -20.9768 26044.0 -03481.1 -07.6132 26275.6
 29 09 2013  19 51  -20.9765 26044.2 -03481.4 -07.6137 26275.9
 29 09 2013  19 52  -20.9761 26044.4 -03481.6 -07.6142 26276.1
 29 09 2013  19 53  -20.9758 26044.7 -03481.9 -07.6147 26276.4
 29 09 2013  19 54  -20.9758 26044.8 -03482.1 -07.6151 26276.5
 29 09 2013  19 55  -20.9756 26044.7 -03482.2 -07.6152 26276.5
 29 09 2013  19 56  -20.9754 26044.8 -03482.3 -07.6154 26276.6
 29 09 2013  19 57  -20.9754 26044.7 -03482.3 -07.6156 26276.5
 29 09 2013  19 58  -20.9754 26044.5 -03482.3 -07.6156 26276.3
 29 09 2013  19 59  -20.9753 26043.9 -03482.2 -07.6155 26275.7
 29 09 2013  20 00  -20.9751 26043.9 -03482.3 -07.6157 26275.7
 29 09 2013  20 01  -20.9750 26044.2 -03482.6 -07.6163 26276.0
 29 09 2013  20 02  -20.9750 26044.4 -03482.8 -07.6167 26276.2
 29 09 2013  20 03  -20.9752 26044.3 -03483.0 -07.6172 26276.2
 29 09 2013  20 04  -20.9752 26044.5 -03483.2 -07.6176 26276.4
 29 09 2013  20 05  -20.9752 26044.7 -03483.4 -07.6180 26276.6
 29 09 2013  20 06  -20.9753 26044.7 -03483.6 -07.6183 26276.6
 29 09 2013  20 07  -20.9754 26044.5 -03483.6 -07.6184 26276.4
 29 09 2013  20 08  -20.9754 26044.1 -03483.5 -07.6184 26276.1
 29 09 2013  20 09  -20.9751 26043.9 -03483.6 -07.6185 26275.9
 29 09 2013  20 10  -20.9750 26043.8 -03483.7 -07.6187 26275.8
 29 09 2013  20 11  -20.9750 26043.6 -03483.8 -07.6190 26275.6
 29 09 2013  20 12  -20.9749 26043.6 -03483.8 -07.6192 26275.6
 29 09 2013  20 13  -20.9751 26043.7 -03484.1 -07.6198 26275.7
 29 09 2013  20 14  -20.9754 26043.9 -03484.4 -07.6204 26275.9
 29 09 2013  20 15  -20.9758 26044.0 -03484.7 -07.6210 26276.1
 29 09 2013  20 16  -20.9759 26044.2 -03485.0 -07.6215 26276.4
 29 09 2013  20 17  -20.9763 26044.4 -03485.3 -07.6221 26276.6
 29 09 2013  20 18  -20.9765 26044.5 -03485.4 -07.6224 26276.6
 29 09 2013  20 19  -20.9766 26044.6 -03485.7 -07.6228 26276.9
 29 09 2013  20 20  -20.9766 26045.1 -03486.0 -07.6234 26277.4
 29 09 2013  20 21  -20.9768 26045.8 -03486.5 -07.6242 26278.1
 29 09 2013  20 22  -20.9773 26046.6 -03487.0 -07.6251 26278.9
 29 09 2013  20 23  -20.9777 26047.0 -03487.4 -07.6258 26279.5
 29 09 2013  20 24  -20.9783 26047.3 -03487.6 -07.6263 26279.7
 29 09 2013  20 25  -20.9787 26047.5 -03487.8 -07.6265 26279.9
 29 09 2013  20 26  -20.9792 26047.5 -03487.8 -07.6267 26279.9
 29 09 2013  20 27  -20.9795 26047.3 -03487.8 -07.6267 26279.8
 29 09 2013  20 28  -20.9799 26047.0 -03487.8 -07.6266 26279.5
 29 09 2013  20 29  -20.9802 26046.7 -03487.7 -07.6266 26279.2
 29 09 2013  20 30  -20.9806 26046.4 -03487.7 -07.6266 26278.9
 29 09 2013  20 31  -20.9811 26046.1 -03487.6 -07.6266 26278.5
 29 09 2013  20 32  -20.9817 26045.8 -03487.5 -07.6266 26278.2
 29 09 2013  20 33  -20.9822 26045.6 -03487.5 -07.6264 26278.1
 29 09 2013  20 34  -20.9830 26045.4 -03487.7 -07.6269 26277.9
 29 09 2013  20 35  -20.9837 26045.4 -03487.7 -07.6271 26277.9
 29 09 2013  20 36  -20.9844 26045.1 -03487.7 -07.6271 26277.6
 29 09 2013  20 37  -20.9850 26044.5 -03487.6 -07.6270 26277.0
 29 09 2013  20 38  -20.9856 26044.0 -03487.4 -07.6268 26276.4
 29 09 2013  20 39  -20.9863 26043.3 -03487.2 -07.6265 26275.7
 29 09 2013  20 40  -20.9868 26042.8 -03487.0 -07.6263 26275.3
 29 09 2013  20 41  -20.9874 26042.6 -03487.0 -07.6264 26275.0
 29 09 2013  20 42  -20.9879 26042.2 -03487.0 -07.6264 26274.6
 29 09 2013  20 43  -20.9885 26042.0 -03486.9 -07.6264 26274.4
 29 09 2013  20 44  -20.9890 26041.8 -03487.0 -07.6264 26274.2
 29 09 2013  20 45  -20.9894 26041.7 -03487.0 -07.6266 26274.1
 29 09 2013  20 46  -20.9900 26041.7 -03487.1 -07.6267 26274.1
 29 09 2013  20 47  -20.9905 26041.6 -03487.1 -07.6268 26274.1
 29 09 2013  20 48  -20.9910 26041.5 -03487.1 -07.6269 26274.0
 29 09 2013  20 49  -20.9913 26041.5 -03487.2 -07.6270 26273.9
 29 09 2013  20 50  -20.9917 26041.4 -03487.2 -07.6271 26273.8
 29 09 2013  20 51  -20.9920 26041.3 -03487.2 -07.6271 26273.8
 29 09 2013  20 52  -20.9923 26041.3 -03487.3 -07.6273 26273.8
 29 09 2013  20 53  -20.9925 26041.1 -03487.3 -07.6273 26273.6
 29 09 2013  20 54  -20.9928 26041.0 -03487.3 -07.6273 26273.5
 29 09 2013  20 55  -20.9929 26041.0 -03487.3 -07.6274 26273.5
 29 09 2013  20 56  -20.9933 26040.9 -03487.3 -07.6275 26273.4
 29 09 2013  20 57  -20.9936 26040.8 -03487.4 -07.6276 26273.3
 29 09 2013  20 58  -20.9939 26040.9 -03487.5 -07.6278 26273.4
 29 09 2013  20 59  -20.9942 26040.8 -03487.5 -07.6280 26273.3
 29 09 2013  21 00  -20.9947 26040.5 -03487.5 -07.6280 26273.0
 29 09 2013  21 01  -20.9954 26040.4 -03487.5 -07.6281 26272.9
 29 09 2013  21 02  -20.9959 26040.1 -03487.5 -07.6281 26272.6
 29 09 2013  21 03  -20.9966 26039.9 -03487.5 -07.6281 26272.4
 29 09 2013  21 04  -20.9971 26039.6 -03487.4 -07.6281 26272.1
 29 09 2013  21 05  -20.9976 26039.4 -03487.4 -07.6281 26271.9
 29 09 2013  21 06  -20.9980 26039.3 -03487.4 -07.6281 26271.8
 29 09 2013  21 07  -20.9986 26039.1 -03487.4 -07.6281 26271.6
 29 09 2013  21 08  -20.9990 26038.9 -03487.3 -07.6281 26271.4
 29 09 2013  21 09  -20.9995 26038.8 -03487.4 -07.6282 26271.3
 29 09 2013  21 10  -20.9999 26038.6 -03487.3 -07.6281 26271.1
 29 09 2013  21 11  -21.0003 26038.5 -03487.3 -07.6281 26271.0
 29 09 2013  21 12  -21.0007 26038.5 -03487.3 -07.6282 26271.0
 29 09 2013  21 13  -21.0011 26038.4 -03487.3 -07.6283 26270.9
 29 09 2013  21 14  -21.0015 26038.2 -03487.3 -07.6283 26270.7
 29 09 2013  21 15  -21.0019 26038.2 -03487.4 -07.6284 26270.7
 29 09 2013  21 16  -21.0021 26038.2 -03487.4 -07.6284 26270.7
 29 09 2013  21 17  -21.0023 26038.2 -03487.4 -07.6285 26270.7
 29 09 2013  21 18  -21.0024 26038.1 -03487.4 -07.6285 26270.6
 29 09 2013  21 19  -21.0025 26038.1 -03487.4 -07.6286 26270.6
 29 09 2013  21 20  -21.0026 26038.1 -03487.5 -07.6288 26270.6
 29 09 2013  21 21  -21.0027 26038.1 -03487.6 -07.6288 26270.7
 29 09 2013  21 22  -21.0027 26038.3 -03487.7 -07.6290 26270.8
 29 09 2013  21 23  -21.0027 26038.6 -03487.8 -07.6293 26271.1
 29 09 2013  21 24  -21.0029 26038.6 -03488.0 -07.6295 26271.2
 29 09 2013  21 25  -21.0030 26038.8 -03488.1 -07.6297 26271.4
 29 09 2013  21 26  -21.0030 26038.8 -03488.1 -07.6298 26271.4
 29 09 2013  21 27  -21.0031 26038.7 -03488.1 -07.6299 26271.3
 29 09 2013  21 28  -21.0033 26038.7 -03488.1 -07.6299 26271.3
 29 09 2013  21 29  -21.0036 26038.5 -03488.1 -07.6299 26271.1
 29 09 2013  21 30  -21.0039 26038.6 -03488.2 -07.6300 26271.2
 29 09 2013  21 31  -21.0043 26038.8 -03488.3 -07.6302 26271.4
 29 09 2013  21 32  -21.0050 26039.1 -03488.5 -07.6305 26271.7
 29 09 2013  21 33  -21.0056 26039.2 -03488.6 -07.6307 26271.8
 29 09 2013  21 34  -21.0061 26039.2 -03488.6 -07.6307 26271.8
 29 09 2013  21 35  -21.0065 26038.7 -03488.4 -07.6304 26271.3
 29 09 2013  21 36  -21.0068 26038.3 -03488.1 -07.6300 26270.9
 29 09 2013  21 37  -21.0071 26038.0 -03488.0 -07.6298 26270.6
 29 09 2013  21 38  -21.0074 26037.7 -03487.9 -07.6296 26270.3
 29 09 2013  21 39  -21.0076 26037.7 -03487.9 -07.6297 26270.3
 29 09 2013  21 40  -21.0078 26037.7 -03488.0 -07.6298 26270.3
 29 09 2013  21 41  -21.0078 26037.8 -03488.0 -07.6299 26270.4
 29 09 2013  21 42  -21.0076 26038.3 -03488.3 -07.6303 26271.0
 29 09 2013  21 43  -21.0075 26038.2 -03488.3 -07.6305 26270.8
 29 09 2013  21 44  -21.0078 26037.8 -03488.2 -07.6302 26270.5
 29 09 2013  21 45  -21.0081 26037.6 -03488.1 -07.6301 26270.2
 29 09 2013  21 46  -21.0079 26037.7 -03488.1 -07.6302 26270.3
 29 09 2013  21 47  -21.0082 26037.5 -03488.1 -07.6302 26270.1
 29 09 2013  21 48  -21.0084 26037.4 -03488.0 -07.6301 26270.0
 29 09 2013  21 49  -21.0084 26037.4 -03488.1 -07.6302 26270.0
 29 09 2013  21 50  -21.0086 26037.3 -03488.1 -07.6302 26269.9
 29 09 2013  21 51  -21.0088 26037.0 -03488.0 -07.6300 26269.6
 29 09 2013  21 52  -21.0089 26037.3 -03488.2 -07.6303 26270.0
 29 09 2013  21 53  -21.0090 26037.4 -03488.2 -07.6305 26270.0
 29 09 2013  21 54  -21.0089 26037.5 -03488.3 -07.6306 26270.1
 29 09 2013  21 55  -21.0088 26037.4 -03488.3 -07.6306 26270.0
 29 09 2013  21 56  -21.0090 26037.0 -03488.1 -07.6304 26269.6
 29 09 2013  21 57  -21.0091 26036.7 -03488.0 -07.6301 26269.3
 29 09 2013  21 58  -21.0089 26036.8 -03488.1 -07.6303 26269.4
 29 09 2013  21 59  -21.0090 26036.5 -03488.0 -07.6301 26269.1
 29 09 2013  22 00  -21.0090 26036.1 -03487.8 -07.6299 26268.7
 29 09 2013  22 01  -21.0090 26036.0 -03487.7 -07.6298 26268.6
 29 09 2013  22 02  -21.0090 26035.8 -03487.7 -07.6298 26268.4
 29 09 2013  22 03  -21.0089 26035.9 -03487.8 -07.6299 26268.4
 29 09 2013  22 04  -21.0088 26036.0 -03487.9 -07.6302 26268.6
 29 09 2013  22 05  -21.0088 26035.9 -03488.0 -07.6303 26268.5
 29 09 2013  22 06  -21.0091 26035.6 -03487.8 -07.6302 26268.1
 29 09 2013  22 07  -21.0090 26035.7 -03487.9 -07.6302 26268.3
 29 09 2013  22 08  -21.0088 26036.0 -03488.1 -07.6306 26268.6
 29 09 2013  22 09  -21.0089 26036.1 -03488.2 -07.6308 26268.7
 29 09 2013  22 10  -21.0090 26036.1 -03488.3 -07.6309 26268.7
 29 09 2013  22 11  -21.0089 26035.9 -03488.2 -07.6309 26268.5
 29 09 2013  22 12  -21.0090 26035.7 -03488.1 -07.6307 26268.3
 29 09 2013  22 13  -21.0088 26036.0 -03488.3 -07.6310 26268.7
 29 09 2013  22 14  -21.0087 26036.2 -03488.5 -07.6313 26268.8
 29 09 2013  22 15  -21.0087 26036.0 -03488.4 -07.6312 26268.6
 29 09 2013  22 16  -21.0086 26036.2 -03488.5 -07.6313 26268.9
 29 09 2013  22 17  -21.0087 26036.1 -03488.5 -07.6313 26268.7
 29 09 2013  22 18  -21.0087 26036.0 -03488.4 -07.6312 26268.6
 29 09 2013  22 19  -21.0088 26036.2 -03488.5 -07.6315 26268.8
 29 09 2013  22 20  -21.0087 26036.0 -03488.5 -07.6314 26268.7
 29 09 2013  22 21  -21.0088 26036.0 -03488.5 -07.6314 26268.6
 29 09 2013  22 22  -21.0090 26035.9 -03488.4 -07.6313 26268.5
 29 09 2013  22 23  -21.0091 26035.7 -03488.3 -07.6312 26268.3
 29 09 2013  22 24  -21.0090 26035.6 -03488.3 -07.6312 26268.3
 29 09 2013  22 25  -21.0090 26035.7 -03488.4 -07.6313 26268.4
 29 09 2013  22 26  -21.0089 26035.6 -03488.4 -07.6314 26268.3
 29 09 2013  22 27  -21.0089 26035.6 -03488.4 -07.6313 26268.3
 29 09 2013  22 28  -21.0088 26036.1 -03488.7 -07.6318 26268.8
 29 09 2013  22 29  -21.0090 26035.6 -03488.5 -07.6316 26268.3
 29 09 2013  22 30  -21.0090 26035.8 -03488.5 -07.6316 26268.5
 29 09 2013  22 31  -21.0088 26036.2 -03488.8 -07.6320 26268.9
 29 09 2013  22 32  -21.0091 26035.7 -03488.6 -07.6317 26268.4
 29 09 2013  22 33  -21.0091 26036.0 -03488.7 -07.6318 26268.7
 29 09 2013  22 34  -21.0090 26036.0 -03488.8 -07.6320 26268.7
 29 09 2013  22 35  -21.0092 26035.6 -03488.5 -07.6316 26268.2
 29 09 2013  22 36  -21.0092 26036.0 -03488.7 -07.6318 26268.7
 29 09 2013  22 37  -21.0092 26035.7 -03488.6 -07.6318 26268.4
 29 09 2013  22 38  -21.0093 26035.8 -03488.6 -07.6317 26268.5
 29 09 2013  22 39  -21.0093 26036.1 -03488.8 -07.6320 26268.8
 29 09 2013  22 40  -21.0093 26035.9 -03488.7 -07.6319 26268.6
 29 09 2013  22 41  -21.0093 26036.0 -03488.8 -07.6320 26268.7
 29 09 2013  22 42  -21.0094 26036.1 -03488.8 -07.6321 26268.8
 29 09 2013  22 43  -21.0095 26036.0 -03488.8 -07.6320 26268.7
 29 09 2013  22 44  -21.0095 26036.2 -03488.8 -07.6321 26268.9
 29 09 2013  22 45  -21.0097 26035.9 -03488.8 -07.6320 26268.6
 29 09 2013  22 46  -21.0096 26036.0 -03488.8 -07.6320 26268.7
 29 09 2013  22 47  -21.0097 26036.0 -03488.8 -07.6321 26268.7
 29 09 2013  22 48  -21.0097 26036.0 -03488.8 -07.6321 26268.7
 29 09 2013  22 49  -21.0097 26036.0 -03488.8 -07.6321 26268.8
 29 09 2013  22 50  -21.0096 26036.0 -03488.8 -07.6321 26268.7
 29 09 2013  22 51  -21.0096 26036.0 -03488.8 -07.6321 26268.7
 29 09 2013  22 52  -21.0095 26036.0 -03488.8 -07.6321 26268.8
 29 09 2013  22 53  -21.0094 26036.0 -03488.8 -07.6321 26268.7
 29 09 2013  22 54  -21.0094 26036.1 -03488.8 -07.6322 26268.8
 29 09 2013  22 55  -21.0092 26036.2 -03488.9 -07.6322 26268.9
 29 09 2013  22 56  -21.0091 26036.2 -03488.9 -07.6323 26268.9
 29 09 2013  22 57  -21.0090 26036.2 -03488.9 -07.6323 26268.9
 29 09 2013  22 58  -21.0090 26036.1 -03488.8 -07.6322 26268.8
 29 09 2013  22 59  -21.0089 26036.1 -03488.9 -07.6323 26268.9
 29 09 2013  23 00  -21.0089 26036.1 -03488.9 -07.6323 26268.8
 29 09 2013  23 01  -21.0088 26036.1 -03488.9 -07.6323 26268.8
 29 09 2013  23 02  -21.0088 26036.2 -03488.9 -07.6324 26268.9
 29 09 2013  23 03  -21.0087 26036.3 -03489.0 -07.6324 26269.0
 29 09 2013  23 04  -21.0086 26036.4 -03489.1 -07.6326 26269.1
 29 09 2013  23 05  -21.0084 26036.5 -03489.2 -07.6327 26269.2
 29 09 2013  23 06  -21.0083 26036.6 -03489.2 -07.6328 26269.4
 29 09 2013  23 07  -21.0081 26036.7 -03489.2 -07.6329 26269.4
 29 09 2013  23 08  -21.0080 26036.6 -03489.2 -07.6329 26269.4
 29 09 2013  23 09  -21.0079 26036.9 -03489.4 -07.6330 26269.7
 29 09 2013  23 10  -21.0078 26036.9 -03489.4 -07.6331 26269.7
 29 09 2013  23 11  -21.0077 26037.1 -03489.5 -07.6332 26269.9
 29 09 2013  23 12  -21.0078 26036.9 -03489.5 -07.6332 26269.7
 29 09 2013  23 13  -21.0077 26037.0 -03489.4 -07.6332 26269.8
 29 09 2013  23 14  -21.0077 26037.0 -03489.5 -07.6333 26269.8
 29 09 2013  23 15  -21.0076 26037.0 -03489.5 -07.6333 26269.8
 29 09 2013  23 16  -21.0075 26037.2 -03489.6 -07.6335 26270.0
 29 09 2013  23 17  -21.0073 26037.1 -03489.6 -07.6335 26269.9
 29 09 2013  23 18  -21.0073 26037.2 -03489.6 -07.6335 26270.0
 29 09 2013  23 19  -21.0072 26037.2 -03489.7 -07.6336 26270.1
 29 09 2013  23 20  -21.0071 26037.2 -03489.7 -07.6336 26270.0
 29 09 2013  23 21  -21.0070 26037.2 -03489.7 -07.6337 26270.0
 29 09 2013  23 22  -21.0070 26037.2 -03489.7 -07.6337 26270.0
 29 09 2013  23 23  -21.0069 26037.2 -03489.8 -07.6338 26270.1
 29 09 2013  23 24  -21.0068 26037.4 -03489.9 -07.6340 26270.3
 29 09 2013  23 25  -21.0066 26037.4 -03489.9 -07.6341 26270.2
 29 09 2013  23 26  -21.0064 26037.4 -03489.9 -07.6341 26270.3
 29 09 2013  23 27  -21.0063 26037.4 -03490.0 -07.6342 26270.3
 29 09 2013  23 28  -21.0061 26037.4 -03490.0 -07.6342 26270.2
 29 09 2013  23 29  -21.0059 26037.4 -03490.0 -07.6343 26270.3
 29 09 2013  23 30  -21.0059 26037.4 -03490.1 -07.6344 26270.3
 29 09 2013  23 31  -21.0057 26037.3 -03490.0 -07.6344 26270.2
 29 09 2013  23 32  -21.0058 26037.5 -03490.1 -07.6345 26270.4
 29 09 2013  23 33  -21.0057 26037.4 -03490.2 -07.6346 26270.3
 29 09 2013  23 34  -21.0056 26037.4 -03490.2 -07.6346 26270.3
 29 09 2013  23 35  -21.0054 26037.3 -03490.1 -07.6345 26270.2
 29 09 2013  23 36  -21.0052 26037.3 -03490.1 -07.6346 26270.2
 29 09 2013  23 37  -21.0051 26037.4 -03490.2 -07.6347 26270.3
 29 09 2013  23 38  -21.0051 26037.3 -03490.2 -07.6347 26270.2
 29 09 2013  23 39  -21.0048 26037.6 -03490.3 -07.6349 26270.5
 29 09 2013  23 40  -21.0046 26037.7 -03490.4 -07.6351 26270.6
 29 09 2013  23 41  -21.0044 26037.7 -03490.4 -07.6351 26270.6
 29 09 2013  23 42  -21.0044 26037.9 -03490.6 -07.6354 26270.9
 29 09 2013  23 43  -21.0042 26037.9 -03490.6 -07.6354 26270.9
 29 09 2013  23 44  -21.0040 26038.0 -03490.6 -07.6355 26270.9
 29 09 2013  23 45  -21.0039 26038.1 -03490.7 -07.6357 26271.0
 29 09 2013  23 46  -21.0037 26038.1 -03490.8 -07.6357 26271.0
 29 09 2013  23 47  -21.0036 26038.0 -03490.7 -07.6357 26271.0
 29 09 2013  23 48  -21.0036 26038.1 -03490.8 -07.6358 26271.1
 29 09 2013  23 49  -21.0036 26037.9 -03490.7 -07.6356 26270.8
 29 09 2013  23 50  -21.0034 26037.9 -03490.7 -07.6356 26270.8
 29 09 2013  23 51  -21.0034 26037.9 -03490.7 -07.6356 26270.8
 29 09 2013  23 52  -21.0033 26037.6 -03490.6 -07.6355 26270.5
 29 09 2013  23 53  -21.0034 26037.5 -03490.5 -07.6354 26270.5
 29 09 2013  23 54  -21.0033 26037.5 -03490.5 -07.6354 26270.4
 29 09 2013  23 55  -21.0034 26037.4 -03490.6 -07.6355 26270.3
 29 09 2013  23 56  -21.0034 26037.5 -03490.6 -07.6356 26270.4
 29 09 2013  23 57  -21.0033 26037.4 -03490.6 -07.6356 26270.4
