SAO LUIS EMBRACE-03 <117> 1 Min. Reported data

 DD MM YYYY  HH MM   D(Deg)  H(nT)   Z(nT)   I(Deg)   F(nT)

 27 04 2013  00 00  -21.0571 26023.4 -03431.1 -07.5109 26248.7
 27 04 2013  00 01  -21.0581 26022.8 -03430.9 -07.5107 26248.0
 27 04 2013  00 02  -21.0589 26022.1 -03430.6 -07.5103 26247.3
 27 04 2013  00 03  -21.0597 26021.3 -03430.3 -07.5099 26246.5
 27 04 2013  00 04  -21.0604 26020.9 -03430.1 -07.5095 26246.0
 27 04 2013  00 05  -21.0610 26020.7 -03430.1 -07.5096 26245.9
 27 04 2013  00 06  -21.0616 26020.6 -03430.1 -07.5096 26245.7
 27 04 2013  00 07  -21.0621 26020.2 -03430.0 -07.5095 26245.3
 27 04 2013  00 08  -21.0626 26020.0 -03430.0 -07.5095 26245.1
 27 04 2013  00 09  -21.0630 26019.9 -03430.0 -07.5095 26245.0
 27 04 2013  00 10  -21.0630 26019.8 -03430.0 -07.5097 26244.9
 27 04 2013  00 11  -21.0631 26019.7 -03430.0 -07.5096 26244.8
 27 04 2013  00 12  -21.0631 26019.6 -03430.0 -07.5097 26244.7
 27 04 2013  00 13  -21.0630 26019.4 -03430.0 -07.5097 26244.6
 27 04 2013  00 14  -21.0630 26019.1 -03429.9 -07.5095 26244.2
 27 04 2013  00 15  -21.0631 26018.9 -03429.8 -07.5095 26244.0
 27 04 2013  00 16  -21.0633 26019.0 -03430.0 -07.5097 26244.1
 27 04 2013  00 17  -21.0636 26018.8 -03430.0 -07.5098 26244.0
 27 04 2013  00 18  -21.0637 26018.8 -03430.0 -07.5099 26243.9
 27 04 2013  00 19  -21.0638 26018.8 -03430.1 -07.5100 26243.9
 27 04 2013  00 20  -21.0640 26018.7 -03430.1 -07.5100 26243.8
 27 04 2013  00 21  -21.0646 26018.7 -03430.2 -07.5102 26243.9
 27 04 2013  00 22  -21.0649 26018.9 -03430.3 -07.5105 26244.1
 27 04 2013  00 23  -21.0649 26019.0 -03430.4 -07.5107 26244.2
 27 04 2013  00 24  -21.0647 26019.0 -03430.4 -07.5107 26244.1
 27 04 2013  00 25  -21.0639 26018.9 -03430.3 -07.5106 26244.1
 27 04 2013  00 26  -21.0633 26018.9 -03430.4 -07.5106 26244.0
 27 04 2013  00 27  -21.0631 26018.9 -03430.4 -07.5107 26244.0
 27 04 2013  00 28  -21.0629 26018.9 -03430.5 -07.5108 26244.1
 27 04 2013  00 29  -21.0626 26018.9 -03430.5 -07.5109 26244.0
 27 04 2013  00 30  -21.0623 26018.7 -03430.5 -07.5109 26243.9
 27 04 2013  00 31  -21.0621 26018.6 -03430.4 -07.5109 26243.8
 27 04 2013  00 32  -21.0619 26018.6 -03430.5 -07.5109 26243.8
 27 04 2013  00 33  -21.0614 26018.7 -03430.5 -07.5110 26243.8
 27 04 2013  00 34  -21.0610 26018.5 -03430.5 -07.5110 26243.6
 27 04 2013  00 35  -21.0608 26018.4 -03430.5 -07.5110 26243.6
 27 04 2013  00 36  -21.0607 26018.1 -03430.5 -07.5110 26243.3
 27 04 2013  00 37  -21.0605 26017.7 -03430.3 -07.5109 26242.9
 27 04 2013  00 38  -21.0602 26017.4 -03430.2 -07.5107 26242.5
 27 04 2013  00 39  -21.0599 26017.3 -03430.2 -07.5108 26242.4
 27 04 2013  00 40  -21.0600 26017.3 -03430.3 -07.5110 26242.4
 27 04 2013  00 41  -21.0599 26017.6 -03430.6 -07.5115 26242.8
 27 04 2013  00 42  -21.0598 26017.9 -03430.8 -07.5119 26243.1
 27 04 2013  00 43  -21.0597 26018.4 -03431.1 -07.5124 26243.7
 27 04 2013  00 44  -21.0599 26018.9 -03431.4 -07.5129 26244.2
 27 04 2013  00 45  -21.0600 26019.4 -03431.7 -07.5133 26244.7
 27 04 2013  00 46  -21.0603 26019.8 -03431.9 -07.5137 26245.2
 27 04 2013  00 47  -21.0609 26020.1 -03432.1 -07.5139 26245.5
 27 04 2013  00 48  -21.0613 26020.1 -03432.0 -07.5139 26245.4
 27 04 2013  00 49  -21.0618 26019.3 -03431.6 -07.5132 26244.6
 27 04 2013  00 50  -21.0621 26018.4 -03431.1 -07.5123 26243.7
 27 04 2013  00 51  -21.0621 26017.8 -03430.7 -07.5117 26243.0
 27 04 2013  00 52  -21.0623 26017.1 -03430.4 -07.5111 26242.2
 27 04 2013  00 53  -21.0620 26016.6 -03430.1 -07.5108 26241.8
 27 04 2013  00 54  -21.0614 26016.4 -03430.1 -07.5107 26241.6
 27 04 2013  00 55  -21.0609 26016.4 -03430.1 -07.5108 26241.5
 27 04 2013  00 56  -21.0604 26016.5 -03430.3 -07.5111 26241.7
 27 04 2013  00 57  -21.0598 26016.7 -03430.5 -07.5115 26241.9
 27 04 2013  00 58  -21.0592 26017.0 -03430.7 -07.5118 26242.2
 27 04 2013  00 59  -21.0585 26016.9 -03430.7 -07.5119 26242.1
 27 04 2013  01 00  -21.0579 26016.8 -03430.7 -07.5119 26242.0
 27 04 2013  01 01  -21.0574 26016.8 -03430.8 -07.5121 26242.0
 27 04 2013  01 02  -21.0573 26016.5 -03430.7 -07.5121 26241.7
 27 04 2013  01 03  -21.0575 26016.2 -03430.7 -07.5120 26241.4
 27 04 2013  01 04  -21.0572 26016.1 -03430.7 -07.5120 26241.3
 27 04 2013  01 05  -21.0568 26016.0 -03430.7 -07.5121 26241.2
 27 04 2013  01 06  -21.0565 26016.0 -03430.8 -07.5123 26241.3
 27 04 2013  01 07  -21.0562 26016.2 -03430.9 -07.5126 26241.4
 27 04 2013  01 08  -21.0559 26016.3 -03431.0 -07.5128 26241.6
 27 04 2013  01 09  -21.0562 26016.5 -03431.2 -07.5130 26241.8
 27 04 2013  01 10  -21.0559 26016.5 -03431.2 -07.5131 26241.8
 27 04 2013  01 11  -21.0557 26016.6 -03431.3 -07.5132 26241.9
 27 04 2013  01 12  -21.0554 26016.6 -03431.3 -07.5133 26241.9
 27 04 2013  01 13  -21.0551 26016.6 -03431.4 -07.5134 26241.9
 27 04 2013  01 14  -21.0549 26016.5 -03431.4 -07.5135 26241.9
 27 04 2013  01 15  -21.0549 26016.5 -03431.4 -07.5135 26241.8
 27 04 2013  01 16  -21.0550 26016.5 -03431.4 -07.5136 26241.8
 27 04 2013  01 17  -21.0552 26016.5 -03431.5 -07.5137 26241.8
 27 04 2013  01 18  -21.0554 26016.5 -03431.5 -07.5138 26241.8
 27 04 2013  01 19  -21.0553 26016.5 -03431.6 -07.5139 26241.9
 27 04 2013  01 20  -21.0550 26016.6 -03431.6 -07.5139 26241.9
 27 04 2013  01 21  -21.0549 26016.6 -03431.6 -07.5140 26241.9
 27 04 2013  01 22  -21.0549 26016.6 -03431.7 -07.5141 26242.0
 27 04 2013  01 23  -21.0549 26016.7 -03431.7 -07.5142 26242.1
 27 04 2013  01 24  -21.0548 26016.8 -03431.8 -07.5143 26242.1
 27 04 2013  01 25  -21.0546 26016.7 -03431.8 -07.5143 26242.1
 27 04 2013  01 26  -21.0545 26016.7 -03431.8 -07.5143 26242.1
 27 04 2013  01 27  -21.0543 26016.8 -03431.8 -07.5144 26242.1
 27 04 2013  01 28  -21.0540 26016.8 -03431.9 -07.5145 26242.1
 27 04 2013  01 29  -21.0539 26016.6 -03431.8 -07.5144 26242.0
 27 04 2013  01 30  -21.0538 26016.4 -03431.8 -07.5144 26241.8
 27 04 2013  01 31  -21.0537 26016.4 -03431.8 -07.5144 26241.7
 27 04 2013  01 32  -21.0534 26016.3 -03431.8 -07.5144 26241.7
 27 04 2013  01 33  -21.0529 26016.3 -03431.8 -07.5145 26241.7
 27 04 2013  01 34  -21.0528 26016.4 -03432.0 -07.5148 26241.8
 27 04 2013  01 35  -21.0537 26016.4 -03432.0 -07.5149 26241.8
 27 04 2013  01 36  -21.0541 26016.4 -03432.1 -07.5150 26241.8
 27 04 2013  01 37  -21.0544 26016.3 -03432.1 -07.5151 26241.7
 27 04 2013  01 38  -21.0547 26016.4 -03432.2 -07.5153 26241.8
 27 04 2013  01 39  -21.0549 26016.5 -03432.3 -07.5155 26241.9
 27 04 2013  01 40  -21.0555 26016.5 -03432.3 -07.5155 26241.9
 27 04 2013  01 41  -21.0562 26016.6 -03432.4 -07.5157 26242.0
 27 04 2013  01 42  -21.0566 26016.8 -03432.5 -07.5158 26242.2
 27 04 2013  01 43  -21.0567 26016.7 -03432.5 -07.5158 26242.2
 27 04 2013  01 44  -21.0566 26017.0 -03432.6 -07.5159 26242.5
 27 04 2013  01 45  -21.0566 26017.3 -03432.7 -07.5162 26242.7
 27 04 2013  01 46  -21.0566 26017.5 -03432.8 -07.5164 26243.0
 27 04 2013  01 47  -21.0564 26017.6 -03432.9 -07.5164 26243.0
 27 04 2013  01 48  -21.0564 26017.4 -03432.8 -07.5163 26242.9
 27 04 2013  01 49  -21.0564 26017.3 -03432.7 -07.5162 26242.8
 27 04 2013  01 50  -21.0563 26017.4 -03432.8 -07.5162 26242.9
 27 04 2013  01 51  -21.0564 26017.4 -03432.8 -07.5163 26242.9
 27 04 2013  01 52  -21.0566 26017.3 -03432.7 -07.5162 26242.8
 27 04 2013  01 53  -21.0568 26017.4 -03432.8 -07.5163 26242.9
 27 04 2013  01 54  -21.0570 26017.4 -03432.8 -07.5163 26242.9
 27 04 2013  01 55  -21.0570 26017.4 -03432.8 -07.5163 26242.9
 27 04 2013  01 56  -21.0569 26017.5 -03432.8 -07.5163 26243.0
 27 04 2013  01 57  -21.0568 26017.7 -03432.9 -07.5165 26243.2
 27 04 2013  01 58  -21.0567 26017.8 -03433.0 -07.5167 26243.4
 27 04 2013  01 59  -21.0567 26017.9 -03433.1 -07.5168 26243.4
 27 04 2013  02 00  -21.0568 26017.8 -03433.1 -07.5167 26243.4
 27 04 2013  02 01  -21.0571 26017.9 -03433.1 -07.5167 26243.4
 27 04 2013  02 02  -21.0573 26017.9 -03433.1 -07.5168 26243.4
 27 04 2013  02 03  -21.0572 26017.8 -03433.0 -07.5167 26243.3
 27 04 2013  02 04  -21.0570 26017.6 -03432.9 -07.5165 26243.1
 27 04 2013  02 05  -21.0567 26017.4 -03432.8 -07.5163 26242.9
 27 04 2013  02 06  -21.0568 26017.3 -03432.7 -07.5162 26242.8
 27 04 2013  02 07  -21.0568 26017.2 -03432.7 -07.5162 26242.6
 27 04 2013  02 08  -21.0569 26017.0 -03432.6 -07.5161 26242.5
 27 04 2013  02 09  -21.0567 26016.9 -03432.6 -07.5160 26242.4
 27 04 2013  02 10  -21.0568 26016.9 -03432.6 -07.5161 26242.3
 27 04 2013  02 11  -21.0569 26016.7 -03432.6 -07.5161 26242.2
 27 04 2013  02 12  -21.0571 26016.6 -03432.5 -07.5160 26242.0
 27 04 2013  02 13  -21.0572 26016.4 -03432.5 -07.5160 26241.9
 27 04 2013  02 14  -21.0573 26016.4 -03432.6 -07.5161 26241.9
 27 04 2013  02 15  -21.0575 26016.6 -03432.7 -07.5163 26242.1
 27 04 2013  02 16  -21.0576 26016.6 -03432.7 -07.5163 26242.1
 27 04 2013  02 17  -21.0576 26016.6 -03432.7 -07.5164 26242.0
 27 04 2013  02 18  -21.0579 26016.5 -03432.7 -07.5164 26242.0
 27 04 2013  02 19  -21.0583 26016.4 -03432.7 -07.5164 26241.9
 27 04 2013  02 20  -21.0587 26016.3 -03432.7 -07.5163 26241.8
 27 04 2013  02 21  -21.0590 26016.2 -03432.6 -07.5163 26241.7
 27 04 2013  02 22  -21.0591 26016.2 -03432.6 -07.5162 26241.7
 27 04 2013  02 23  -21.0591 26016.2 -03432.6 -07.5162 26241.7
 27 04 2013  02 24  -21.0591 26016.3 -03432.6 -07.5162 26241.8
 27 04 2013  02 25  -21.0591 26016.5 -03432.7 -07.5164 26242.0
 27 04 2013  02 26  -21.0589 26016.7 -03432.8 -07.5164 26242.2
 27 04 2013  02 27  -21.0587 26016.9 -03432.9 -07.5166 26242.4
 27 04 2013  02 28  -21.0585 26017.1 -03433.0 -07.5168 26242.6
 27 04 2013  02 29  -21.0582 26017.2 -03433.1 -07.5170 26242.8
 27 04 2013  02 30  -21.0582 26017.3 -03433.1 -07.5171 26242.9
 27 04 2013  02 31  -21.0582 26017.4 -03433.2 -07.5171 26242.9
 27 04 2013  02 32  -21.0575 26017.5 -03433.2 -07.5172 26243.0
 27 04 2013  02 33  -21.0574 26017.5 -03433.2 -07.5172 26243.1
 27 04 2013  02 34  -21.0576 26017.6 -03433.3 -07.5173 26243.1
 27 04 2013  02 35  -21.0578 26017.7 -03433.3 -07.5173 26243.2
 27 04 2013  02 36  -21.0580 26017.8 -03433.3 -07.5174 26243.3
 27 04 2013  02 37  -21.0583 26017.9 -03433.4 -07.5174 26243.5
 27 04 2013  02 38  -21.0587 26018.2 -03433.4 -07.5175 26243.7
 27 04 2013  02 39  -21.0586 26018.3 -03433.5 -07.5175 26243.9
 27 04 2013  02 40  -21.0585 26018.5 -03433.5 -07.5175 26244.0
 27 04 2013  02 41  -21.0583 26018.6 -03433.5 -07.5175 26244.2
 27 04 2013  02 42  -21.0582 26018.7 -03433.5 -07.5175 26244.3
 27 04 2013  02 43  -21.0582 26018.8 -03433.6 -07.5176 26244.4
 27 04 2013  02 44  -21.0581 26019.0 -03433.6 -07.5176 26244.5
 27 04 2013  02 45  -21.0581 26019.1 -03433.7 -07.5177 26244.7
 27 04 2013  02 46  -21.0582 26019.3 -03433.8 -07.5178 26244.9
 27 04 2013  02 47  -21.0585 26019.4 -03433.8 -07.5179 26245.0
 27 04 2013  02 48  -21.0589 26019.6 -03433.9 -07.5180 26245.2
 27 04 2013  02 49  -21.0593 26019.7 -03433.9 -07.5180 26245.3
 27 04 2013  02 50  -21.0595 26019.8 -03433.9 -07.5181 26245.4
 27 04 2013  02 51  -21.0598 26019.9 -03433.9 -07.5180 26245.5
 27 04 2013  02 52  -21.0600 26019.8 -03433.8 -07.5179 26245.4
 27 04 2013  02 53  -21.0601 26019.8 -03433.8 -07.5178 26245.4
 27 04 2013  02 54  -21.0604 26019.9 -03433.8 -07.5177 26245.5
 27 04 2013  02 55  -21.0603 26019.9 -03433.7 -07.5176 26245.5
 27 04 2013  02 56  -21.0602 26019.8 -03433.6 -07.5174 26245.3
 27 04 2013  02 57  -21.0601 26019.7 -03433.5 -07.5173 26245.2
 27 04 2013  02 58  -21.0599 26019.5 -03433.4 -07.5171 26245.1
 27 04 2013  02 59  -21.0597 26019.5 -03433.4 -07.5170 26245.0
 27 04 2013  03 00  -21.0597 26019.5 -03433.4 -07.5171 26245.0
 27 04 2013  03 01  -21.0598 26019.7 -03433.5 -07.5172 26245.2
 27 04 2013  03 02  -21.0599 26019.9 -03433.6 -07.5174 26245.4
 27 04 2013  03 03  -21.0598 26020.0 -03433.7 -07.5175 26245.6
 27 04 2013  03 04  -21.0595 26020.3 -03433.8 -07.5177 26245.9
 27 04 2013  03 05  -21.0589 26020.4 -03433.9 -07.5178 26246.0
 27 04 2013  03 06  -21.0587 26020.5 -03433.9 -07.5178 26246.1
 27 04 2013  03 07  -21.0584 26020.5 -03433.8 -07.5177 26246.1
 27 04 2013  03 08  -21.0583 26020.5 -03433.9 -07.5178 26246.1
 27 04 2013  03 09  -21.0583 26020.6 -03433.9 -07.5178 26246.2
 27 04 2013  03 10  -21.0583 26020.4 -03433.8 -07.5177 26246.0
 27 04 2013  03 11  -21.0583 26020.2 -03433.7 -07.5175 26245.8
 27 04 2013  03 12  -21.0583 26019.9 -03433.5 -07.5172 26245.5
 27 04 2013  03 13  -21.0584 26019.7 -03433.4 -07.5170 26245.2
 27 04 2013  03 14  -21.0584 26019.5 -03433.3 -07.5169 26245.0
 27 04 2013  03 15  -21.0583 26019.1 -03433.2 -07.5166 26244.7
 27 04 2013  03 16  -21.0580 26019.0 -03433.1 -07.5165 26244.5
 27 04 2013  03 17  -21.0575 26019.2 -03433.2 -07.5166 26244.7
 27 04 2013  03 18  -21.0573 26019.1 -03433.2 -07.5167 26244.6
 27 04 2013  03 19  -21.0574 26019.0 -03433.2 -07.5168 26244.6
 27 04 2013  03 20  -21.0576 26019.1 -03433.3 -07.5170 26244.6
 27 04 2013  03 21  -21.0577 26019.0 -03433.3 -07.5170 26244.5
 27 04 2013  03 22  -21.0577 26019.0 -03433.4 -07.5171 26244.6
 27 04 2013  03 23  -21.0576 26019.3 -03433.6 -07.5174 26244.9
 27 04 2013  03 24  -21.0578 26019.5 -03433.7 -07.5177 26245.1
 27 04 2013  03 25  -21.0579 26019.6 -03433.8 -07.5178 26245.2
 27 04 2013  03 26  -21.0580 26019.7 -03433.8 -07.5179 26245.3
 27 04 2013  03 27  -21.0581 26019.7 -03433.8 -07.5178 26245.3
 27 04 2013  03 28  -21.0578 26019.5 -03433.7 -07.5177 26245.1
 27 04 2013  03 29  -21.0572 26019.5 -03433.7 -07.5176 26245.0
 27 04 2013  03 30  -21.0568 26019.6 -03433.7 -07.5177 26245.1
 27 04 2013  03 31  -21.0567 26019.6 -03433.8 -07.5178 26245.2
 27 04 2013  03 32  -21.0568 26019.7 -03433.8 -07.5179 26245.3
 27 04 2013  03 33  -21.0568 26019.8 -03434.0 -07.5182 26245.5
 27 04 2013  03 34  -21.0568 26020.0 -03434.1 -07.5184 26245.7
 27 04 2013  03 35  -21.0569 26020.1 -03434.2 -07.5186 26245.8
 27 04 2013  03 36  -21.0568 26020.2 -03434.3 -07.5187 26245.9
 27 04 2013  03 37  -21.0567 26020.3 -03434.3 -07.5188 26246.0
 27 04 2013  03 38  -21.0566 26020.4 -03434.3 -07.5188 26246.0
 27 04 2013  03 39  -21.0567 26020.4 -03434.3 -07.5188 26246.1
 27 04 2013  03 40  -21.0568 26020.5 -03434.4 -07.5189 26246.2
 27 04 2013  03 41  -21.0568 26020.6 -03434.5 -07.5190 26246.3
 27 04 2013  03 42  -21.0568 26020.5 -03434.4 -07.5190 26246.2
 27 04 2013  03 43  -21.0567 26020.5 -03434.4 -07.5189 26246.2
 27 04 2013  03 44  -21.0568 26020.3 -03434.3 -07.5188 26246.0
 27 04 2013  03 45  -21.0569 26020.3 -03434.3 -07.5188 26245.9
 27 04 2013  03 46  -21.0569 26020.3 -03434.3 -07.5187 26245.9
 27 04 2013  03 47  -21.0568 26020.4 -03434.4 -07.5188 26246.1
 27 04 2013  03 48  -21.0569 26020.3 -03434.3 -07.5188 26246.0
 27 04 2013  03 49  -21.0569 26020.3 -03434.3 -07.5187 26245.9
 27 04 2013  03 50  -21.0569 26020.6 -03434.5 -07.5190 26246.3
 27 04 2013  03 51  -21.0569 26020.9 -03434.6 -07.5192 26246.6
 27 04 2013  03 52  -21.0570 26021.2 -03434.8 -07.5195 26246.9
 27 04 2013  03 53  -21.0569 26021.4 -03434.8 -07.5196 26247.1
 27 04 2013  03 54  -21.0566 26021.7 -03435.0 -07.5198 26247.4
 27 04 2013  03 55  -21.0566 26022.0 -03435.1 -07.5199 26247.7
 27 04 2013  03 56  -21.0568 26022.2 -03435.2 -07.5201 26248.0
 27 04 2013  03 57  -21.0571 26022.4 -03435.2 -07.5202 26248.1
 27 04 2013  03 58  -21.0574 26022.2 -03435.2 -07.5200 26248.0
 27 04 2013  03 59  -21.0576 26022.0 -03435.0 -07.5197 26247.7
 27 04 2013  04 00  -21.0578 26021.6 -03434.8 -07.5194 26247.3
 27 04 2013  04 01  -21.0580 26021.3 -03434.6 -07.5190 26247.0
 27 04 2013  04 02  -21.0580 26021.1 -03434.5 -07.5188 26246.8
 27 04 2013  04 03  -21.0581 26021.1 -03434.4 -07.5187 26246.7
 27 04 2013  04 04  -21.0582 26021.3 -03434.5 -07.5189 26247.0
 27 04 2013  04 05  -21.0582 26021.3 -03434.5 -07.5190 26247.0
 27 04 2013  04 06  -21.0582 26021.4 -03434.5 -07.5189 26247.1
 27 04 2013  04 07  -21.0580 26021.5 -03434.6 -07.5190 26247.2
 27 04 2013  04 08  -21.0579 26021.5 -03434.5 -07.5189 26247.1
 27 04 2013  04 09  -21.0578 26021.3 -03434.4 -07.5187 26246.9
 27 04 2013  04 10  -21.0576 26021.1 -03434.3 -07.5185 26246.8
 27 04 2013  04 11  -21.0574 26021.0 -03434.2 -07.5183 26246.6
 27 04 2013  04 12  -21.0572 26020.9 -03434.2 -07.5183 26246.6
 27 04 2013  04 13  -21.0569 26021.0 -03434.2 -07.5182 26246.6
 27 04 2013  04 14  -21.0565 26021.0 -03434.2 -07.5183 26246.7
 27 04 2013  04 15  -21.0563 26021.1 -03434.3 -07.5184 26246.7
 27 04 2013  04 16  -21.0562 26021.1 -03434.3 -07.5185 26246.8
 27 04 2013  04 17  -21.0563 26021.0 -03434.3 -07.5184 26246.7
 27 04 2013  04 18  -21.0565 26021.0 -03434.2 -07.5184 26246.6
 27 04 2013  04 19  -21.0568 26020.8 -03434.2 -07.5184 26246.5
 27 04 2013  04 20  -21.0571 26020.6 -03434.1 -07.5183 26246.3
 27 04 2013  04 21  -21.0575 26020.4 -03434.0 -07.5181 26246.0
 27 04 2013  04 22  -21.0577 26020.3 -03433.9 -07.5179 26245.9
 27 04 2013  04 23  -21.0577 26020.6 -03434.1 -07.5182 26246.2
 27 04 2013  04 24  -21.0579 26021.3 -03434.5 -07.5188 26247.0
 27 04 2013  04 25  -21.0577 26021.8 -03434.7 -07.5191 26247.5
 27 04 2013  04 26  -21.0573 26022.5 -03435.0 -07.5196 26248.2
 27 04 2013  04 27  -21.0567 26022.8 -03435.0 -07.5196 26248.5
 27 04 2013  04 28  -21.0563 26023.0 -03435.1 -07.5197 26248.7
 27 04 2013  04 29  -21.0560 26023.1 -03435.1 -07.5198 26248.9
 27 04 2013  04 30  -21.0558 26023.2 -03435.2 -07.5198 26248.9
 27 04 2013  04 31  -21.0557 26023.3 -03435.2 -07.5198 26249.1
 27 04 2013  04 32  -21.0555 26023.3 -03435.2 -07.5197 26249.1
 27 04 2013  04 33  -21.0553 26023.5 -03435.2 -07.5198 26249.3
 27 04 2013  04 34  -21.0557 26023.4 -03435.2 -07.5198 26249.2
 27 04 2013  04 35  -21.0563 26023.5 -03435.3 -07.5199 26249.3
 27 04 2013  04 36  -21.0569 26023.8 -03435.4 -07.5202 26249.6
 27 04 2013  04 37  -21.0571 26024.2 -03435.5 -07.5203 26249.9
 27 04 2013  04 38  -21.0570 26024.3 -03435.6 -07.5203 26250.1
 27 04 2013  04 39  -21.0569 26024.3 -03435.5 -07.5202 26250.1
 27 04 2013  04 40  -21.0563 26024.3 -03435.4 -07.5200 26250.1
 27 04 2013  04 41  -21.0560 26024.2 -03435.3 -07.5199 26250.0
 27 04 2013  04 42  -21.0557 26024.0 -03435.2 -07.5197 26249.8
 27 04 2013  04 43  -21.0557 26024.0 -03435.2 -07.5196 26249.7
 27 04 2013  04 44  -21.0557 26023.9 -03435.2 -07.5196 26249.7
 27 04 2013  04 45  -21.0556 26023.8 -03435.2 -07.5196 26249.5
 27 04 2013  04 46  -21.0553 26023.8 -03435.2 -07.5196 26249.5
 27 04 2013  04 47  -21.0553 26023.9 -03435.2 -07.5197 26249.6
 27 04 2013  04 48  -21.0552 26023.9 -03435.3 -07.5198 26249.7
 27 04 2013  04 49  -21.0551 26023.9 -03435.3 -07.5199 26249.7
 27 04 2013  04 50  -21.0551 26024.0 -03435.4 -07.5200 26249.7
 27 04 2013  04 51  -21.0550 26024.0 -03435.4 -07.5200 26249.7
 27 04 2013  04 52  -21.0547 26023.9 -03435.4 -07.5201 26249.7
 27 04 2013  04 53  -21.0546 26023.9 -03435.4 -07.5201 26249.7
 27 04 2013  04 54  -21.0544 26023.9 -03435.4 -07.5202 26249.7
 27 04 2013  04 55  -21.0540 26023.9 -03435.5 -07.5203 26249.7
 27 04 2013  04 56  -21.0536 26023.9 -03435.5 -07.5203 26249.7
 27 04 2013  04 57  -21.0534 26024.0 -03435.6 -07.5204 26249.7
 27 04 2013  04 58  -21.0531 26024.0 -03435.6 -07.5205 26249.8
 27 04 2013  04 59  -21.0530 26024.3 -03435.8 -07.5208 26250.1
 27 04 2013  05 00  -21.0528 26024.8 -03436.0 -07.5212 26250.7
 27 04 2013  05 01  -21.0523 26025.6 -03436.5 -07.5219 26251.5
 27 04 2013  05 02  -21.0523 26025.8 -03436.6 -07.5221 26251.8
 27 04 2013  05 03  -21.0523 26025.9 -03436.6 -07.5221 26251.8
 27 04 2013  05 04  -21.0519 26026.1 -03436.6 -07.5221 26252.1
 27 04 2013  05 05  -21.0521 26026.0 -03436.5 -07.5220 26251.9
 27 04 2013  05 06  -21.0526 26026.0 -03436.5 -07.5219 26251.9
 27 04 2013  05 07  -21.0525 26025.9 -03436.4 -07.5217 26251.8
 27 04 2013  05 08  -21.0522 26025.9 -03436.4 -07.5216 26251.8
 27 04 2013  05 09  -21.0518 26025.9 -03436.4 -07.5216 26251.8
 27 04 2013  05 10  -21.0514 26026.1 -03436.4 -07.5217 26251.9
 27 04 2013  05 11  -21.0506 26026.1 -03436.5 -07.5218 26252.0
 27 04 2013  05 12  -21.0499 26026.0 -03436.4 -07.5218 26251.9
 27 04 2013  05 13  -21.0496 26025.9 -03436.4 -07.5217 26251.8
 27 04 2013  05 14  -21.0494 26025.9 -03436.5 -07.5218 26251.8
 27 04 2013  05 15  -21.0491 26025.8 -03436.4 -07.5217 26251.7
 27 04 2013  05 16  -21.0489 26025.7 -03436.4 -07.5218 26251.6
 27 04 2013  05 17  -21.0487 26025.6 -03436.4 -07.5217 26251.5
 27 04 2013  05 18  -21.0487 26025.5 -03436.4 -07.5218 26251.4
 27 04 2013  05 19  -21.0486 26025.5 -03436.5 -07.5219 26251.4
 27 04 2013  05 20  -21.0486 26025.5 -03436.5 -07.5220 26251.5
 27 04 2013  05 21  -21.0485 26025.6 -03436.6 -07.5221 26251.5
 27 04 2013  05 22  -21.0483 26025.6 -03436.6 -07.5222 26251.5
 27 04 2013  05 23  -21.0480 26025.6 -03436.6 -07.5223 26251.6
 27 04 2013  05 24  -21.0478 26025.7 -03436.7 -07.5225 26251.6
 27 04 2013  05 25  -21.0476 26025.7 -03436.8 -07.5225 26251.7
 27 04 2013  05 26  -21.0475 26025.8 -03436.8 -07.5226 26251.8
 27 04 2013  05 27  -21.0472 26025.9 -03436.9 -07.5228 26251.8
 27 04 2013  05 28  -21.0469 26026.0 -03437.0 -07.5229 26251.9
 27 04 2013  05 29  -21.0465 26026.0 -03437.0 -07.5230 26252.0
 27 04 2013  05 30  -21.0461 26026.0 -03437.1 -07.5231 26252.0
 27 04 2013  05 31  -21.0458 26026.0 -03437.0 -07.5230 26251.9
 27 04 2013  05 32  -21.0455 26025.9 -03437.0 -07.5230 26251.9
 27 04 2013  05 33  -21.0454 26025.9 -03437.0 -07.5231 26251.8
 27 04 2013  05 34  -21.0455 26025.9 -03437.1 -07.5232 26251.9
 27 04 2013  05 35  -21.0456 26026.1 -03437.2 -07.5234 26252.1
 27 04 2013  05 36  -21.0454 26026.2 -03437.3 -07.5236 26252.2
 27 04 2013  05 37  -21.0451 26026.3 -03437.4 -07.5237 26252.3
 27 04 2013  05 38  -21.0449 26026.4 -03437.4 -07.5238 26252.4
 27 04 2013  05 39  -21.0448 26026.3 -03437.4 -07.5238 26252.3
 27 04 2013  05 40  -21.0446 26026.2 -03437.4 -07.5238 26252.2
 27 04 2013  05 41  -21.0444 26026.1 -03437.4 -07.5237 26252.1
 27 04 2013  05 42  -21.0445 26026.0 -03437.3 -07.5236 26252.0
 27 04 2013  05 43  -21.0447 26025.8 -03437.3 -07.5236 26251.8
 27 04 2013  05 44  -21.0449 26025.9 -03437.3 -07.5236 26251.9
 27 04 2013  05 45  -21.0453 26025.8 -03437.3 -07.5237 26251.8
 27 04 2013  05 46  -21.0455 26025.8 -03437.3 -07.5237 26251.8
 27 04 2013  05 47  -21.0454 26025.7 -03437.3 -07.5236 26251.7
 27 04 2013  05 48  -21.0454 26025.7 -03437.2 -07.5236 26251.7
 27 04 2013  05 49  -21.0453 26025.6 -03437.2 -07.5235 26251.6
 27 04 2013  05 50  -21.0452 26025.5 -03437.2 -07.5235 26251.5
 27 04 2013  05 51  -21.0454 26025.4 -03437.1 -07.5234 26251.3
 27 04 2013  05 52  -21.0455 26025.2 -03437.1 -07.5233 26251.2
 27 04 2013  05 53  -21.0456 26025.1 -03437.0 -07.5232 26251.1
 27 04 2013  05 54  -21.0455 26025.0 -03437.0 -07.5233 26251.0
 27 04 2013  05 55  -21.0454 26024.8 -03436.9 -07.5231 26250.8
 27 04 2013  05 56  -21.0453 26024.6 -03436.9 -07.5230 26250.6
 27 04 2013  05 57  -21.0453 26024.4 -03436.8 -07.5229 26250.4
 27 04 2013  05 58  -21.0453 26024.4 -03436.7 -07.5228 26250.3
 27 04 2013  05 59  -21.0454 26024.3 -03436.7 -07.5228 26250.3
 27 04 2013  06 00  -21.0454 26024.4 -03436.8 -07.5229 26250.3
 27 04 2013  06 01  -21.0451 26024.4 -03436.8 -07.5230 26250.4
 27 04 2013  06 02  -21.0450 26024.5 -03436.8 -07.5230 26250.4
 27 04 2013  06 03  -21.0446 26024.6 -03436.9 -07.5231 26250.6
 27 04 2013  06 04  -21.0443 26024.8 -03437.0 -07.5233 26250.8
 27 04 2013  06 05  -21.0442 26025.1 -03437.2 -07.5236 26251.1
 27 04 2013  06 06  -21.0440 26025.3 -03437.3 -07.5238 26251.4
 27 04 2013  06 07  -21.0440 26025.4 -03437.4 -07.5240 26251.5
 27 04 2013  06 08  -21.0441 26025.4 -03437.5 -07.5241 26251.5
 27 04 2013  06 09  -21.0443 26025.3 -03437.4 -07.5241 26251.4
 27 04 2013  06 10  -21.0443 26025.2 -03437.3 -07.5238 26251.2
 27 04 2013  06 11  -21.0440 26025.1 -03437.2 -07.5237 26251.1
 27 04 2013  06 12  -21.0438 26024.9 -03437.1 -07.5236 26250.9
 27 04 2013  06 13  -21.0436 26024.8 -03437.1 -07.5235 26250.8
 27 04 2013  06 14  -21.0434 26024.7 -03437.0 -07.5234 26250.7
 27 04 2013  06 15  -21.0429 26024.6 -03437.0 -07.5233 26250.6
 27 04 2013  06 16  -21.0424 26024.6 -03437.0 -07.5232 26250.6
 27 04 2013  06 17  -21.0419 26024.5 -03437.0 -07.5233 26250.5
 27 04 2013  06 18  -21.0415 26024.3 -03436.9 -07.5232 26250.2
 27 04 2013  06 19  -21.0411 26024.1 -03436.8 -07.5231 26250.1
 27 04 2013  06 20  -21.0409 26024.0 -03436.8 -07.5231 26250.0
 27 04 2013  06 21  -21.0406 26024.0 -03436.9 -07.5232 26250.0
 27 04 2013  06 22  -21.0406 26024.1 -03437.0 -07.5234 26250.1
 27 04 2013  06 23  -21.0408 26024.2 -03437.1 -07.5236 26250.2
 27 04 2013  06 24  -21.0413 26024.4 -03437.3 -07.5240 26250.4
 27 04 2013  06 25  -21.0417 26025.1 -03437.6 -07.5244 26251.1
 27 04 2013  06 26  -21.0422 26025.7 -03437.9 -07.5251 26251.8
 27 04 2013  06 27  -21.0426 26026.1 -03438.2 -07.5254 26252.2
 27 04 2013  06 28  -21.0426 26026.4 -03438.3 -07.5256 26252.5
 27 04 2013  06 29  -21.0425 26026.2 -03438.2 -07.5254 26252.4
 27 04 2013  06 30  -21.0423 26025.9 -03437.9 -07.5250 26252.0
 27 04 2013  06 31  -21.0426 26025.8 -03437.8 -07.5247 26251.9
 27 04 2013  06 32  -21.0431 26025.8 -03437.7 -07.5246 26251.9
 27 04 2013  06 33  -21.0435 26025.7 -03437.7 -07.5244 26251.8
 27 04 2013  06 34  -21.0438 26025.7 -03437.6 -07.5244 26251.8
 27 04 2013  06 35  -21.0441 26025.7 -03437.6 -07.5244 26251.8
 27 04 2013  06 36  -21.0442 26025.7 -03437.6 -07.5243 26251.8
 27 04 2013  06 37  -21.0444 26025.7 -03437.6 -07.5243 26251.8
 27 04 2013  06 38  -21.0444 26025.7 -03437.5 -07.5242 26251.7
 27 04 2013  06 39  -21.0443 26025.7 -03437.5 -07.5241 26251.7
 27 04 2013  06 40  -21.0442 26025.7 -03437.5 -07.5241 26251.7
 27 04 2013  06 41  -21.0441 26025.7 -03437.5 -07.5241 26251.8
 27 04 2013  06 42  -21.0439 26025.8 -03437.5 -07.5240 26251.8
 27 04 2013  06 43  -21.0438 26025.7 -03437.4 -07.5240 26251.7
 27 04 2013  06 44  -21.0438 26025.6 -03437.4 -07.5240 26251.7
 27 04 2013  06 45  -21.0439 26025.6 -03437.4 -07.5239 26251.6
 27 04 2013  06 46  -21.0438 26025.6 -03437.3 -07.5238 26251.6
 27 04 2013  06 47  -21.0437 26025.4 -03437.3 -07.5237 26251.4
 27 04 2013  06 48  -21.0436 26025.5 -03437.3 -07.5237 26251.5
 27 04 2013  06 49  -21.0434 26025.8 -03437.4 -07.5239 26251.8
 27 04 2013  06 50  -21.0433 26026.2 -03437.6 -07.5243 26252.2
 27 04 2013  06 51  -21.0430 26026.6 -03437.8 -07.5246 26252.6
 27 04 2013  06 52  -21.0428 26026.7 -03437.9 -07.5247 26252.8
 27 04 2013  06 53  -21.0426 26026.7 -03437.9 -07.5247 26252.8
 27 04 2013  06 54  -21.0422 26026.9 -03438.0 -07.5247 26253.0
 27 04 2013  06 55  -21.0419 26027.0 -03438.0 -07.5248 26253.1
 27 04 2013  06 56  -21.0416 26027.0 -03438.0 -07.5248 26253.1
 27 04 2013  06 57  -21.0414 26026.9 -03438.0 -07.5248 26253.0
 27 04 2013  06 58  -21.0413 26026.8 -03437.9 -07.5246 26252.8
 27 04 2013  06 59  -21.0410 26026.7 -03437.9 -07.5246 26252.8
 27 04 2013  07 00  -21.0407 26026.7 -03437.8 -07.5246 26252.8
 27 04 2013  07 01  -21.0405 26026.7 -03437.8 -07.5246 26252.8
 27 04 2013  07 02  -21.0403 26026.7 -03437.8 -07.5246 26252.7
 27 04 2013  07 03  -21.0401 26026.6 -03437.8 -07.5245 26252.7
 27 04 2013  07 04  -21.0400 26026.6 -03437.8 -07.5246 26252.6
 27 04 2013  07 05  -21.0399 26026.7 -03437.9 -07.5247 26252.7
 27 04 2013  07 06  -21.0397 26026.8 -03438.0 -07.5249 26252.9
 27 04 2013  07 07  -21.0395 26026.9 -03438.1 -07.5250 26253.0
 27 04 2013  07 08  -21.0394 26027.0 -03438.2 -07.5251 26253.2
 27 04 2013  07 09  -21.0392 26027.2 -03438.2 -07.5253 26253.3
 27 04 2013  07 10  -21.0390 26027.3 -03438.3 -07.5253 26253.4
 27 04 2013  07 11  -21.0388 26027.4 -03438.3 -07.5254 26253.5
 27 04 2013  07 12  -21.0384 26027.4 -03438.4 -07.5255 26253.5
 27 04 2013  07 13  -21.0382 26027.3 -03438.3 -07.5254 26253.5
 27 04 2013  07 14  -21.0381 26027.2 -03438.2 -07.5253 26253.3
 27 04 2013  07 15  -21.0383 26027.1 -03438.2 -07.5252 26253.2
 27 04 2013  07 16  -21.0385 26026.8 -03438.0 -07.5249 26252.9
 27 04 2013  07 17  -21.0391 26026.4 -03437.8 -07.5247 26252.5
 27 04 2013  07 18  -21.0396 26026.4 -03437.8 -07.5246 26252.4
 27 04 2013  07 19  -21.0398 26026.4 -03437.8 -07.5246 26252.5
 27 04 2013  07 20  -21.0399 26026.4 -03437.8 -07.5246 26252.5
 27 04 2013  07 21  -21.0397 26026.4 -03437.8 -07.5246 26252.4
 27 04 2013  07 22  -21.0397 26026.3 -03437.8 -07.5246 26252.4
 27 04 2013  07 23  -21.0398 26026.3 -03437.8 -07.5246 26252.4
 27 04 2013  07 24  -21.0398 26026.4 -03437.9 -07.5248 26252.5
 27 04 2013  07 25  -21.0397 26026.4 -03437.9 -07.5248 26252.5
 27 04 2013  07 26  -21.0397 26026.5 -03437.9 -07.5248 26252.6
 27 04 2013  07 27  -21.0395 26026.5 -03437.9 -07.5248 26252.5
 27 04 2013  07 28  -21.0392 26026.6 -03438.0 -07.5248 26252.7
 27 04 2013  07 29  -21.0390 26026.5 -03437.9 -07.5248 26252.6
 27 04 2013  07 30  -21.0386 26026.5 -03437.9 -07.5248 26252.6
 27 04 2013  07 31  -21.0382 26026.4 -03437.9 -07.5248 26252.5
 27 04 2013  07 32  -21.0378 26026.4 -03437.9 -07.5248 26252.5
 27 04 2013  07 33  -21.0374 26026.4 -03437.9 -07.5248 26252.5
 27 04 2013  07 34  -21.0370 26026.2 -03437.9 -07.5247 26252.3
 27 04 2013  07 35  -21.0367 26026.1 -03437.8 -07.5246 26252.2
 27 04 2013  07 36  -21.0366 26026.2 -03437.9 -07.5248 26252.3
 27 04 2013  07 37  -21.0359 26026.3 -03437.9 -07.5249 26252.4
 27 04 2013  07 38  -21.0353 26026.3 -03438.0 -07.5250 26252.4
 27 04 2013  07 39  -21.0349 26026.4 -03438.1 -07.5252 26252.5
 27 04 2013  07 40  -21.0346 26026.4 -03438.2 -07.5254 26252.6
 27 04 2013  07 41  -21.0344 26026.4 -03438.3 -07.5255 26252.6
 27 04 2013  07 42  -21.0342 26026.5 -03438.3 -07.5256 26252.6
 27 04 2013  07 43  -21.0341 26026.5 -03438.3 -07.5257 26252.6
 27 04 2013  07 44  -21.0340 26026.4 -03438.4 -07.5258 26252.5
 27 04 2013  07 45  -21.0344 26026.6 -03438.4 -07.5259 26252.7
 27 04 2013  07 46  -21.0346 26026.5 -03438.5 -07.5260 26252.7
 27 04 2013  07 47  -21.0348 26026.4 -03438.5 -07.5260 26252.6
 27 04 2013  07 48  -21.0350 26026.4 -03438.5 -07.5260 26252.5
 27 04 2013  07 49  -21.0350 26026.4 -03438.5 -07.5261 26252.5
 27 04 2013  07 50  -21.0351 26026.3 -03438.5 -07.5260 26252.5
 27 04 2013  07 51  -21.0348 26026.3 -03438.4 -07.5259 26252.4
 27 04 2013  07 52  -21.0346 26026.4 -03438.5 -07.5260 26252.6
 27 04 2013  07 53  -21.0345 26026.6 -03438.6 -07.5262 26252.8
 27 04 2013  07 54  -21.0344 26026.6 -03438.6 -07.5263 26252.8
 27 04 2013  07 55  -21.0346 26026.7 -03438.7 -07.5264 26252.9
 27 04 2013  07 56  -21.0349 26026.7 -03438.7 -07.5265 26252.9
 27 04 2013  07 57  -21.0351 26026.6 -03438.7 -07.5264 26252.8
 27 04 2013  07 58  -21.0353 26026.7 -03438.7 -07.5264 26252.8
 27 04 2013  07 59  -21.0357 26026.7 -03438.7 -07.5264 26252.9
 27 04 2013  08 00  -21.0361 26026.6 -03438.7 -07.5264 26252.8
 27 04 2013  08 01  -21.0365 26026.7 -03438.7 -07.5264 26252.8
 27 04 2013  08 02  -21.0367 26026.7 -03438.6 -07.5263 26252.9
 27 04 2013  08 03  -21.0371 26026.7 -03438.6 -07.5262 26252.8
 27 04 2013  08 04  -21.0374 26026.7 -03438.6 -07.5262 26252.8
 27 04 2013  08 05  -21.0374 26026.7 -03438.6 -07.5261 26252.9
 27 04 2013  08 06  -21.0375 26026.5 -03438.5 -07.5260 26252.7
 27 04 2013  08 07  -21.0375 26026.5 -03438.5 -07.5260 26252.7
 27 04 2013  08 08  -21.0377 26026.3 -03438.3 -07.5257 26252.5
 27 04 2013  08 09  -21.0377 26026.3 -03438.2 -07.5255 26252.4
 27 04 2013  08 10  -21.0376 26026.2 -03438.1 -07.5254 26252.3
 27 04 2013  08 11  -21.0377 26026.2 -03438.1 -07.5253 26252.3
 27 04 2013  08 12  -21.0376 26026.2 -03438.1 -07.5253 26252.3
 27 04 2013  08 13  -21.0376 26026.1 -03438.1 -07.5253 26252.2
 27 04 2013  08 14  -21.0375 26026.0 -03438.1 -07.5253 26252.1
 27 04 2013  08 15  -21.0375 26026.0 -03438.0 -07.5252 26252.1
 27 04 2013  08 16  -21.0372 26026.0 -03438.0 -07.5251 26252.1
 27 04 2013  08 17  -21.0370 26025.9 -03438.0 -07.5251 26252.0
 27 04 2013  08 18  -21.0370 26025.9 -03438.0 -07.5252 26252.0
 27 04 2013  08 19  -21.0373 26026.2 -03438.2 -07.5255 26252.3
 27 04 2013  08 20  -21.0373 26026.0 -03438.2 -07.5256 26252.2
 27 04 2013  08 21  -21.0373 26026.1 -03438.3 -07.5256 26252.3
 27 04 2013  08 22  -21.0378 26026.3 -03438.3 -07.5257 26252.4
 27 04 2013  08 23  -21.0383 26026.7 -03438.5 -07.5260 26252.8
 27 04 2013  08 24  -21.0386 26026.9 -03438.6 -07.5261 26253.0
 27 04 2013  08 25  -21.0387 26026.7 -03438.4 -07.5258 26252.9
 27 04 2013  08 26  -21.0384 26026.4 -03438.2 -07.5254 26252.6
 27 04 2013  08 27  -21.0381 26026.6 -03438.1 -07.5252 26252.7
 27 04 2013  08 28  -21.0375 26026.6 -03438.0 -07.5250 26252.7
 27 04 2013  08 29  -21.0367 26026.5 -03437.9 -07.5248 26252.6
 27 04 2013  08 30  -21.0363 26026.3 -03437.8 -07.5246 26252.4
 27 04 2013  08 31  -21.0358 26026.3 -03437.9 -07.5247 26252.4
 27 04 2013  08 32  -21.0354 26026.4 -03437.9 -07.5249 26252.5
 27 04 2013  08 33  -21.0349 26026.4 -03438.0 -07.5250 26252.5
 27 04 2013  08 34  -21.0344 26026.3 -03438.0 -07.5250 26252.3
 27 04 2013  08 35  -21.0346 26026.5 -03438.2 -07.5253 26252.6
 27 04 2013  08 36  -21.0343 26026.5 -03438.2 -07.5255 26252.7
 27 04 2013  08 37  -21.0341 26026.9 -03438.4 -07.5257 26253.0
 27 04 2013  08 38  -21.0335 26026.9 -03438.4 -07.5258 26253.0
 27 04 2013  08 39  -21.0327 26026.9 -03438.4 -07.5258 26253.0
 27 04 2013  08 40  -21.0320 26027.0 -03438.5 -07.5258 26253.1
 27 04 2013  08 41  -21.0314 26027.0 -03438.5 -07.5259 26253.1
 27 04 2013  08 42  -21.0311 26027.1 -03438.6 -07.5261 26253.3
 27 04 2013  08 43  -21.0309 26027.0 -03438.7 -07.5263 26253.2
 27 04 2013  08 44  -21.0306 26027.0 -03438.8 -07.5265 26253.2
 27 04 2013  08 45  -21.0304 26026.9 -03438.8 -07.5266 26253.1
 27 04 2013  08 46  -21.0305 26026.9 -03438.9 -07.5267 26253.1
 27 04 2013  08 47  -21.0303 26026.8 -03438.9 -07.5268 26253.0
 27 04 2013  08 48  -21.0307 26026.9 -03439.0 -07.5270 26253.1
 27 04 2013  08 49  -21.0311 26026.9 -03439.1 -07.5273 26253.1
 27 04 2013  08 50  -21.0314 26027.0 -03439.3 -07.5276 26253.2
 27 04 2013  08 51  -21.0313 26027.0 -03439.3 -07.5276 26253.2
 27 04 2013  08 52  -21.0311 26026.9 -03439.3 -07.5276 26253.2
 27 04 2013  08 53  -21.0310 26027.0 -03439.3 -07.5277 26253.3
 27 04 2013  08 54  -21.0309 26027.0 -03439.3 -07.5277 26253.3
 27 04 2013  08 55  -21.0306 26027.1 -03439.4 -07.5278 26253.3
 27 04 2013  08 56  -21.0306 26027.1 -03439.4 -07.5279 26253.4
 27 04 2013  08 57  -21.0307 26027.2 -03439.4 -07.5279 26253.5
 27 04 2013  08 58  -21.0308 26027.1 -03439.4 -07.5279 26253.3
 27 04 2013  08 59  -21.0308 26027.4 -03439.6 -07.5282 26253.7
 27 04 2013  09 00  -21.0310 26027.2 -03439.6 -07.5282 26253.5
 27 04 2013  09 01  -21.0313 26027.2 -03439.6 -07.5283 26253.5
 27 04 2013  09 02  -21.0311 26027.4 -03439.7 -07.5284 26253.7
 27 04 2013  09 03  -21.0312 26027.5 -03439.8 -07.5286 26253.8
 27 04 2013  09 04  -21.0314 26027.7 -03440.0 -07.5289 26254.1
 27 04 2013  09 05  -21.0311 26027.7 -03439.9 -07.5288 26254.0
 27 04 2013  09 06  -21.0308 26027.7 -03439.9 -07.5288 26254.1
 27 04 2013  09 07  -21.0310 26027.7 -03439.9 -07.5288 26254.1
 27 04 2013  09 08  -21.0306 26027.7 -03440.0 -07.5290 26254.0
 27 04 2013  09 09  -21.0301 26027.7 -03440.0 -07.5289 26254.0
 27 04 2013  09 10  -21.0296 26027.8 -03440.0 -07.5290 26254.1
 27 04 2013  09 11  -21.0297 26027.9 -03440.1 -07.5292 26254.3
 27 04 2013  09 12  -21.0297 26027.8 -03440.2 -07.5293 26254.2
 27 04 2013  09 13  -21.0294 26027.7 -03440.2 -07.5294 26254.1
 27 04 2013  09 14  -21.0293 26027.8 -03440.3 -07.5296 26254.2
 27 04 2013  09 15  -21.0291 26027.9 -03440.5 -07.5299 26254.3
 27 04 2013  09 16  -21.0288 26028.1 -03440.6 -07.5302 26254.5
 27 04 2013  09 17  -21.0286 26028.2 -03440.7 -07.5304 26254.6
 27 04 2013  09 18  -21.0286 26028.3 -03440.9 -07.5307 26254.7
 27 04 2013  09 19  -21.0289 26028.5 -03441.0 -07.5309 26254.9
 27 04 2013  09 20  -21.0288 26028.7 -03441.2 -07.5312 26255.2
 27 04 2013  09 21  -21.0286 26028.8 -03441.2 -07.5312 26255.3
 27 04 2013  09 22  -21.0286 26028.9 -03441.2 -07.5313 26255.4
 27 04 2013  09 23  -21.0282 26028.7 -03441.1 -07.5311 26255.2
 27 04 2013  09 24  -21.0280 26028.5 -03441.1 -07.5311 26255.0
 27 04 2013  09 25  -21.0280 26028.5 -03441.1 -07.5311 26255.0
 27 04 2013  09 26  -21.0295 26028.6 -03441.4 -07.5317 26255.1
 27 04 2013  09 27  -21.0312 26028.8 -03441.7 -07.5322 26255.3
 27 04 2013  09 28  -21.0335 26029.3 -03442.0 -07.5329 26255.9
 27 04 2013  09 29  -21.0351 26029.6 -03442.3 -07.5334 26256.2
 27 04 2013  09 30  -21.0358 26029.6 -03442.4 -07.5335 26256.3
 27 04 2013  09 31  -21.0355 26029.6 -03442.3 -07.5333 26256.2
 27 04 2013  09 32  -21.0351 26029.5 -03442.2 -07.5331 26256.1
 27 04 2013  09 33  -21.0352 26029.5 -03442.1 -07.5330 26256.1
 27 04 2013  09 34  -21.0356 26029.5 -03442.1 -07.5330 26256.1
 27 04 2013  09 35  -21.0361 26029.6 -03442.1 -07.5330 26256.2
 27 04 2013  09 36  -21.0361 26029.5 -03442.1 -07.5329 26256.1
 27 04 2013  09 37  -21.0364 26029.5 -03442.0 -07.5327 26256.1
 27 04 2013  09 38  -21.0368 26029.5 -03442.0 -07.5327 26256.1
 27 04 2013  09 39  -21.0379 26029.5 -03442.0 -07.5328 26256.1
 27 04 2013  09 40  -21.0384 26029.6 -03442.0 -07.5327 26256.2
 27 04 2013  09 41  -21.0389 26029.6 -03442.0 -07.5327 26256.2
 27 04 2013  09 42  -21.0392 26029.6 -03441.9 -07.5325 26256.2
 27 04 2013  09 43  -21.0395 26029.5 -03441.8 -07.5324 26256.1
 27 04 2013  09 44  -21.0397 26029.6 -03441.8 -07.5323 26256.2
 27 04 2013  09 45  -21.0402 26029.7 -03441.8 -07.5323 26256.2
 27 04 2013  09 46  -21.0407 26029.7 -03441.8 -07.5323 26256.3
 27 04 2013  09 47  -21.0409 26029.8 -03441.8 -07.5323 26256.4
 27 04 2013  09 48  -21.0415 26029.9 -03441.8 -07.5322 26256.5
 27 04 2013  09 49  -21.0419 26030.1 -03441.8 -07.5321 26256.6
 27 04 2013  09 50  -21.0425 26030.0 -03441.7 -07.5320 26256.5
 27 04 2013  09 51  -21.0433 26030.1 -03441.7 -07.5319 26256.6
 27 04 2013  09 52  -21.0434 26030.4 -03441.7 -07.5318 26257.0
 27 04 2013  09 53  -21.0435 26030.5 -03441.6 -07.5316 26257.0
 27 04 2013  09 54  -21.0442 26030.5 -03441.5 -07.5314 26257.0
 27 04 2013  09 55  -21.0453 26030.9 -03441.6 -07.5315 26257.4
 27 04 2013  09 56  -21.0456 26030.9 -03441.5 -07.5313 26257.4
 27 04 2013  09 57  -21.0454 26031.0 -03441.3 -07.5309 26257.5
 27 04 2013  09 58  -21.0462 26031.2 -03441.3 -07.5307 26257.7
 27 04 2013  09 59  -21.0455 26031.4 -03441.3 -07.5306 26257.9
 27 04 2013  10 00  -21.0458 26031.7 -03441.3 -07.5306 26258.2
 27 04 2013  10 01  -21.0463 26031.7 -03441.2 -07.5305 26258.2
 27 04 2013  10 02  -21.0461 26032.0 -03441.1 -07.5302 26258.4
 27 04 2013  10 03  -21.0461 26032.3 -03441.1 -07.5299 26258.7
 27 04 2013  10 04  -21.0459 26032.5 -03440.9 -07.5296 26258.9
 27 04 2013  10 05  -21.0457 26033.1 -03441.0 -07.5295 26259.5
 27 04 2013  10 06  -21.0459 26032.9 -03440.7 -07.5290 26259.3
 27 04 2013  10 07  -21.0468 26033.2 -03440.7 -07.5289 26259.6
 27 04 2013  10 08  -21.0472 26033.3 -03440.6 -07.5288 26259.7
 27 04 2013  10 09  -21.0477 26033.6 -03440.6 -07.5286 26260.0
 27 04 2013  10 10  -21.0484 26033.9 -03440.6 -07.5285 26260.2
 27 04 2013  10 11  -21.0491 26034.3 -03440.6 -07.5285 26260.7
 27 04 2013  10 12  -21.0490 26034.4 -03440.5 -07.5281 26260.7
 27 04 2013  10 13  -21.0493 26034.6 -03440.3 -07.5277 26260.9
 27 04 2013  10 14  -21.0494 26034.8 -03440.2 -07.5273 26261.1
 27 04 2013  10 15  -21.0497 26035.0 -03440.1 -07.5271 26261.2
 27 04 2013  10 16  -21.0499 26035.0 -03439.9 -07.5267 26261.3
 27 04 2013  10 17  -21.0495 26035.2 -03439.8 -07.5264 26261.5
 27 04 2013  10 18  -21.0492 26035.4 -03439.7 -07.5261 26261.6
 27 04 2013  10 19  -21.0495 26035.3 -03439.5 -07.5257 26261.5
 27 04 2013  10 20  -21.0495 26035.8 -03439.5 -07.5256 26262.0
 27 04 2013  10 21  -21.0499 26035.8 -03439.4 -07.5253 26262.0
 27 04 2013  10 22  -21.0506 26035.9 -03439.2 -07.5249 26262.1
 27 04 2013  10 23  -21.0515 26036.0 -03439.2 -07.5248 26262.1
 27 04 2013  10 24  -21.0527 26036.0 -03439.1 -07.5246 26262.2
 27 04 2013  10 25  -21.0527 26036.1 -03439.0 -07.5243 26262.2
 27 04 2013  10 26  -21.0522 26036.6 -03439.0 -07.5243 26262.7
 27 04 2013  10 27  -21.0523 26036.4 -03438.8 -07.5239 26262.5
 27 04 2013  10 28  -21.0530 26036.5 -03438.9 -07.5240 26262.7
 27 04 2013  10 29  -21.0534 26036.8 -03438.9 -07.5239 26262.9
 27 04 2013  10 30  -21.0534 26037.2 -03438.9 -07.5239 26263.3
 27 04 2013  10 31  -21.0540 26037.5 -03438.9 -07.5238 26263.6
 27 04 2013  10 32  -21.0545 26037.9 -03438.8 -07.5236 26264.0
 27 04 2013  10 33  -21.0542 26038.1 -03438.7 -07.5231 26264.2
 27 04 2013  10 34  -21.0541 26038.3 -03438.6 -07.5228 26264.3
 27 04 2013  10 35  -21.0549 26038.2 -03438.4 -07.5226 26264.2
 27 04 2013  10 36  -21.0559 26038.5 -03438.5 -07.5226 26264.6
 27 04 2013  10 37  -21.0566 26038.6 -03438.4 -07.5224 26264.6
 27 04 2013  10 38  -21.0575 26039.2 -03438.5 -07.5224 26265.2
 27 04 2013  10 39  -21.0571 26039.8 -03438.5 -07.5223 26265.8
 27 04 2013  10 40  -21.0568 26040.1 -03438.4 -07.5220 26266.2
 27 04 2013  10 41  -21.0564 26040.4 -03438.3 -07.5217 26266.5
 27 04 2013  10 42  -21.0568 26040.8 -03438.2 -07.5214 26266.8
 27 04 2013  10 43  -21.0571 26040.9 -03438.1 -07.5210 26266.9
 27 04 2013  10 44  -21.0569 26041.4 -03438.0 -07.5208 26267.4
 27 04 2013  10 45  -21.0560 26041.7 -03437.9 -07.5204 26267.6
 27 04 2013  10 46  -21.0559 26041.7 -03437.8 -07.5201 26267.7
 27 04 2013  10 47  -21.0558 26041.8 -03437.6 -07.5198 26267.7
 27 04 2013  10 48  -21.0563 26041.9 -03437.6 -07.5198 26267.8
 27 04 2013  10 49  -21.0561 26042.3 -03437.7 -07.5198 26268.2
 27 04 2013  10 50  -21.0569 26042.7 -03437.8 -07.5198 26268.6
 27 04 2013  10 51  -21.0568 26043.3 -03437.9 -07.5200 26269.3
 27 04 2013  10 52  -21.0573 26043.9 -03438.0 -07.5200 26269.9
 27 04 2013  10 53  -21.0572 26044.7 -03438.1 -07.5200 26270.7
 27 04 2013  10 54  -21.0580 26045.4 -03438.1 -07.5198 26271.3
 27 04 2013  10 55  -21.0579 26046.0 -03438.1 -07.5196 26272.0
 27 04 2013  10 56  -21.0580 26046.2 -03437.8 -07.5190 26272.1
 27 04 2013  10 57  -21.0586 26046.3 -03437.6 -07.5185 26272.2
 27 04 2013  10 58  -21.0588 26046.4 -03437.5 -07.5181 26272.3
 27 04 2013  10 59  -21.0599 26046.3 -03437.3 -07.5177 26272.1
 27 04 2013  11 00  -21.0606 26046.6 -03437.3 -07.5176 26272.4
 27 04 2013  11 01  -21.0611 26047.2 -03437.3 -07.5176 26273.0
 27 04 2013  11 02  -21.0616 26047.2 -03437.1 -07.5172 26273.0
 27 04 2013  11 03  -21.0621 26047.4 -03437.1 -07.5170 26273.2
 27 04 2013  11 04  -21.0622 26047.8 -03437.1 -07.5168 26273.5
 27 04 2013  11 05  -21.0631 26047.8 -03436.9 -07.5165 26273.6
 27 04 2013  11 06  -21.0640 26048.3 -03437.0 -07.5165 26274.0
 27 04 2013  11 07  -21.0645 26048.6 -03436.9 -07.5163 26274.3
 27 04 2013  11 08  -21.0648 26049.2 -03437.0 -07.5162 26275.0
 27 04 2013  11 09  -21.0647 26050.1 -03437.1 -07.5162 26275.9
 27 04 2013  11 10  -21.0644 26050.7 -03437.0 -07.5159 26276.4
 27 04 2013  11 11  -21.0640 26051.1 -03436.9 -07.5155 26276.8
 27 04 2013  11 12  -21.0638 26051.5 -03436.7 -07.5151 26277.2
 27 04 2013  11 13  -21.0640 26051.6 -03436.5 -07.5146 26277.3
 27 04 2013  11 14  -21.0642 26052.2 -03436.5 -07.5145 26277.9
 27 04 2013  11 15  -21.0649 26052.7 -03436.5 -07.5143 26278.4
 27 04 2013  11 16  -21.0652 26053.3 -03436.5 -07.5141 26279.0
 27 04 2013  11 17  -21.0655 26053.8 -03436.4 -07.5138 26279.4
 27 04 2013  11 18  -21.0657 26054.4 -03436.3 -07.5134 26280.0
 27 04 2013  11 19  -21.0659 26055.0 -03436.3 -07.5131 26280.7
 27 04 2013  11 20  -21.0662 26055.3 -03436.1 -07.5125 26280.9
 27 04 2013  11 21  -21.0666 26055.8 -03435.9 -07.5122 26281.4
 27 04 2013  11 22  -21.0673 26056.1 -03435.8 -07.5117 26281.7
 27 04 2013  11 23  -21.0674 26056.7 -03435.7 -07.5113 26282.3
 27 04 2013  11 24  -21.0675 26057.2 -03435.5 -07.5108 26282.7
 27 04 2013  11 25  -21.0673 26057.7 -03435.3 -07.5103 26283.1
 27 04 2013  11 26  -21.0671 26058.0 -03435.1 -07.5098 26283.5
 27 04 2013  11 27  -21.0671 26058.2 -03434.9 -07.5093 26283.6
 27 04 2013  11 28  -21.0674 26058.3 -03434.7 -07.5088 26283.7
 27 04 2013  11 29  -21.0691 26057.8 -03434.3 -07.5081 26283.1
 27 04 2013  11 30  -21.0703 26057.8 -03434.1 -07.5077 26283.1
 27 04 2013  11 31  -21.0709 26058.5 -03434.2 -07.5076 26283.8
 27 04 2013  11 32  -21.0714 26059.3 -03434.2 -07.5075 26284.6
 27 04 2013  11 33  -21.0718 26059.6 -03434.1 -07.5071 26284.9
 27 04 2013  11 34  -21.0730 26060.1 -03434.1 -07.5069 26285.4
 27 04 2013  11 35  -21.0739 26060.4 -03433.9 -07.5065 26285.7
 27 04 2013  11 36  -21.0748 26060.7 -03433.8 -07.5060 26286.0
 27 04 2013  11 37  -21.0760 26061.0 -03433.6 -07.5055 26286.2
 27 04 2013  11 38  -21.0775 26061.0 -03433.3 -07.5050 26286.2
 27 04 2013  11 39  -21.0787 26061.3 -03433.2 -07.5048 26286.5
 27 04 2013  11 40  -21.0788 26061.9 -03433.2 -07.5045 26287.1
 27 04 2013  11 41  -21.0784 26062.7 -03433.2 -07.5043 26287.9
 27 04 2013  11 42  -21.0780 26063.1 -03433.1 -07.5038 26288.2
 27 04 2013  11 43  -21.0781 26063.2 -03432.9 -07.5034 26288.3
 27 04 2013  11 44  -21.0783 26063.6 -03432.8 -07.5031 26288.7
 27 04 2013  11 45  -21.0790 26063.5 -03432.5 -07.5025 26288.5
 27 04 2013  11 46  -21.0796 26064.3 -03432.6 -07.5025 26289.4
 27 04 2013  11 47  -21.0797 26065.0 -03432.6 -07.5024 26290.1
 27 04 2013  11 48  -21.0801 26065.4 -03432.5 -07.5020 26290.4
 27 04 2013  11 49  -21.0807 26066.0 -03432.5 -07.5017 26291.0
 27 04 2013  11 50  -21.0817 26066.1 -03432.2 -07.5012 26291.1
 27 04 2013  11 51  -21.0827 26066.5 -03432.0 -07.5007 26291.5
 27 04 2013  11 52  -21.0831 26066.9 -03431.8 -07.5001 26291.9
 27 04 2013  11 53  -21.0840 26067.2 -03431.6 -07.4995 26292.1
 27 04 2013  11 54  -21.0848 26066.9 -03431.1 -07.4985 26291.7
 27 04 2013  11 55  -21.0858 26066.6 -03430.7 -07.4977 26291.4
 27 04 2013  11 56  -21.0865 26066.4 -03430.4 -07.4971 26291.1
 27 04 2013  11 57  -21.0877 26066.1 -03430.1 -07.4966 26290.8
 27 04 2013  11 58  -21.0883 26066.4 -03430.1 -07.4964 26291.2
 27 04 2013  11 59  -21.0888 26067.4 -03430.2 -07.4965 26292.1
 27 04 2013  12 00  -21.0891 26068.6 -03430.4 -07.4966 26293.3
 27 04 2013  12 01  -21.0892 26070.0 -03430.6 -07.4965 26294.7
 27 04 2013  12 02  -21.0892 26071.2 -03430.6 -07.4961 26296.0
 27 04 2013  12 03  -21.0887 26072.0 -03430.3 -07.4953 26296.7
 27 04 2013  12 04  -21.0884 26072.2 -03429.8 -07.4942 26296.9
 27 04 2013  12 05  -21.0884 26072.3 -03429.3 -07.4932 26296.8
 27 04 2013  12 06  -21.0883 26072.6 -03429.0 -07.4924 26297.1
 27 04 2013  12 07  -21.0881 26073.1 -03428.8 -07.4918 26297.6
 27 04 2013  12 08  -21.0876 26073.2 -03428.4 -07.4909 26297.6
 27 04 2013  12 09  -21.0872 26073.2 -03428.0 -07.4901 26297.5
 27 04 2013  12 10  -21.0871 26073.4 -03427.8 -07.4895 26297.7
 27 04 2013  12 11  -21.0871 26073.7 -03427.6 -07.4891 26298.0
 27 04 2013  12 12  -21.0869 26074.1 -03427.5 -07.4887 26298.4
 27 04 2013  12 13  -21.0867 26074.6 -03427.4 -07.4883 26298.9
 27 04 2013  12 14  -21.0866 26075.1 -03427.3 -07.4880 26299.4
 27 04 2013  12 15  -21.0862 26075.7 -03427.2 -07.4877 26299.9
 27 04 2013  12 16  -21.0858 26076.1 -03427.1 -07.4873 26300.3
 27 04 2013  12 17  -21.0854 26076.4 -03427.0 -07.4870 26300.6
 27 04 2013  12 18  -21.0849 26077.0 -03427.0 -07.4867 26301.2
 27 04 2013  12 19  -21.0845 26077.8 -03427.0 -07.4867 26302.0
 27 04 2013  12 20  -21.0841 26078.6 -03427.0 -07.4864 26302.8
 27 04 2013  12 21  -21.0830 26079.9 -03427.1 -07.4862 26304.2
 27 04 2013  12 22  -21.0824 26080.0 -03426.7 -07.4852 26304.1
 27 04 2013  12 23  -21.0821 26079.7 -03426.3 -07.4844 26303.8
 27 04 2013  12 24  -21.0820 26078.9 -03425.7 -07.4834 26302.9
 27 04 2013  12 25  -21.0821 26078.8 -03425.6 -07.4833 26302.8
 27 04 2013  12 26  -21.0819 26079.3 -03425.6 -07.4832 26303.3
 27 04 2013  12 27  -21.0822 26079.3 -03425.4 -07.4827 26303.3
 27 04 2013  12 28  -21.0820 26079.2 -03425.1 -07.4821 26303.1
 27 04 2013  12 29  -21.0816 26078.7 -03424.8 -07.4817 26302.6
 27 04 2013  12 30  -21.0817 26078.1 -03424.6 -07.4813 26302.0
 27 04 2013  12 31  -21.0813 26077.7 -03424.4 -07.4810 26301.6
 27 04 2013  12 32  -21.0802 26077.9 -03424.5 -07.4810 26301.8
 27 04 2013  12 33  -21.0792 26078.8 -03424.8 -07.4815 26302.7
 27 04 2013  12 34  -21.0785 26080.0 -03425.2 -07.4821 26303.9
 27 04 2013  12 35  -21.0783 26080.5 -03425.3 -07.4821 26304.5
 27 04 2013  12 36  -21.0778 26081.1 -03425.3 -07.4821 26305.1
 27 04 2013  12 37  -21.0771 26081.3 -03425.2 -07.4817 26305.2
 27 04 2013  12 38  -21.0762 26081.0 -03424.9 -07.4812 26304.9
 27 04 2013  12 39  -21.0754 26080.9 -03424.8 -07.4810 26304.8
 27 04 2013  12 40  -21.0748 26080.6 -03424.8 -07.4809 26304.5
 27 04 2013  12 41  -21.0742 26080.4 -03424.8 -07.4810 26304.3
 27 04 2013  12 42  -21.0736 26080.5 -03424.9 -07.4812 26304.4
 27 04 2013  12 43  -21.0731 26081.1 -03425.2 -07.4817 26305.0
 27 04 2013  12 44  -21.0725 26081.4 -03425.3 -07.4820 26305.3
 27 04 2013  12 45  -21.0717 26081.8 -03425.6 -07.4823 26305.8
 27 04 2013  12 46  -21.0709 26082.3 -03425.8 -07.4828 26306.3
 27 04 2013  12 47  -21.0703 26082.9 -03426.1 -07.4833 26307.0
 27 04 2013  12 48  -21.0692 26083.4 -03426.4 -07.4836 26307.5
 27 04 2013  12 49  -21.0685 26083.7 -03426.5 -07.4838 26307.8
 27 04 2013  12 50  -21.0675 26083.8 -03426.5 -07.4838 26307.9
 27 04 2013  12 51  -21.0665 26084.5 -03426.9 -07.4844 26308.6
 27 04 2013  12 52  -21.0657 26084.3 -03426.9 -07.4845 26308.5
 27 04 2013  12 53  -21.0654 26084.2 -03427.0 -07.4847 26308.4
 27 04 2013  12 54  -21.0648 26084.5 -03427.3 -07.4853 26308.7
 27 04 2013  12 55  -21.0644 26084.9 -03427.6 -07.4859 26309.1
 27 04 2013  12 56  -21.0638 26085.3 -03427.9 -07.4865 26309.6
 27 04 2013  12 57  -21.0632 26086.3 -03428.5 -07.4873 26310.6
 27 04 2013  12 58  -21.0626 26086.9 -03428.9 -07.4880 26311.3
 27 04 2013  12 59  -21.0617 26087.1 -03429.0 -07.4883 26311.5
 27 04 2013  13 00  -21.0604 26087.4 -03429.2 -07.4887 26311.8
 27 04 2013  13 01  -21.0597 26087.3 -03429.3 -07.4889 26311.8
 27 04 2013  13 02  -21.0586 26087.1 -03429.4 -07.4891 26311.5
 27 04 2013  13 03  -21.0574 26088.2 -03430.1 -07.4903 26312.7
 27 04 2013  13 04  -21.0567 26089.7 -03431.0 -07.4919 26314.3
 27 04 2013  13 05  -21.0561 26090.1 -03431.4 -07.4926 26314.8
 27 04 2013  13 06  -21.0559 26090.7 -03431.8 -07.4933 26315.5
 27 04 2013  13 07  -21.0558 26091.2 -03432.1 -07.4939 26316.0
 27 04 2013  13 08  -21.0562 26091.2 -03432.3 -07.4942 26316.0
 27 04 2013  13 09  -21.0561 26091.5 -03432.5 -07.4945 26316.3
 27 04 2013  13 10  -21.0552 26091.9 -03432.7 -07.4948 26316.8
 27 04 2013  13 11  -21.0537 26091.9 -03432.6 -07.4947 26316.7
 27 04 2013  13 12  -21.0525 26090.9 -03432.2 -07.4941 26315.7
 27 04 2013  13 13  -21.0518 26090.9 -03432.4 -07.4945 26315.7
 27 04 2013  13 14  -21.0511 26091.2 -03432.6 -07.4949 26316.0
 27 04 2013  13 15  -21.0508 26091.4 -03432.9 -07.4954 26316.2
 27 04 2013  13 16  -21.0509 26092.0 -03433.3 -07.4962 26316.9
 27 04 2013  13 17  -21.0512 26092.8 -03433.8 -07.4970 26317.8
 27 04 2013  13 18  -21.0514 26093.4 -03434.2 -07.4976 26318.4
 27 04 2013  13 19  -21.0517 26093.9 -03434.5 -07.4981 26319.0
 27 04 2013  13 20  -21.0521 26094.2 -03434.6 -07.4984 26319.3
 27 04 2013  13 21  -21.0526 26094.8 -03434.9 -07.4989 26319.9
 27 04 2013  13 22  -21.0527 26094.8 -03435.0 -07.4991 26319.9
 27 04 2013  13 23  -21.0528 26095.0 -03435.2 -07.4995 26320.1
 27 04 2013  13 24  -21.0530 26095.2 -03435.4 -07.4999 26320.4
 27 04 2013  13 25  -21.0531 26095.4 -03435.6 -07.5002 26320.6
 27 04 2013  13 26  -21.0532 26095.5 -03435.6 -07.5002 26320.7
 27 04 2013  13 27  -21.0531 26095.8 -03435.9 -07.5007 26321.1
 27 04 2013  13 28  -21.0527 26096.3 -03436.1 -07.5011 26321.5
 27 04 2013  13 29  -21.0525 26096.4 -03436.2 -07.5012 26321.6
 27 04 2013  13 30  -21.0526 26096.6 -03436.3 -07.5014 26321.8
 27 04 2013  13 31  -21.0527 26096.4 -03436.3 -07.5014 26321.7
 27 04 2013  13 32  -21.0531 26096.5 -03436.4 -07.5017 26321.8
 27 04 2013  13 33  -21.0536 26096.5 -03436.6 -07.5019 26321.8
 27 04 2013  13 34  -21.0541 26096.7 -03436.7 -07.5022 26322.0
 27 04 2013  13 35  -21.0547 26096.8 -03436.9 -07.5025 26322.2
 27 04 2013  13 36  -21.0551 26097.2 -03437.0 -07.5028 26322.5
 27 04 2013  13 37  -21.0557 26096.6 -03436.8 -07.5024 26321.9
 27 04 2013  13 38  -21.0559 26095.7 -03436.5 -07.5020 26321.0
 27 04 2013  13 39  -21.0559 26095.9 -03436.7 -07.5024 26321.2
 27 04 2013  13 40  -21.0559 26095.9 -03436.8 -07.5025 26321.2
 27 04 2013  13 41  -21.0559 26096.2 -03436.9 -07.5028 26321.6
 27 04 2013  13 42  -21.0567 26097.0 -03437.4 -07.5036 26322.4
 27 04 2013  13 43  -21.0570 26097.0 -03437.5 -07.5037 26322.4
 27 04 2013  13 44  -21.0574 26096.9 -03437.4 -07.5036 26322.4
 27 04 2013  13 45  -21.0574 26097.1 -03437.5 -07.5037 26322.5
 27 04 2013  13 46  -21.0570 26097.5 -03437.6 -07.5039 26322.9
 27 04 2013  13 47  -21.0561 26097.4 -03437.4 -07.5035 26322.8
 27 04 2013  13 48  -21.0555 26096.7 -03437.1 -07.5030 26322.0
 27 04 2013  13 49  -21.0556 26095.9 -03436.9 -07.5028 26321.2
 27 04 2013  13 50  -21.0559 26095.2 -03436.8 -07.5028 26320.6
 27 04 2013  13 51  -21.0565 26095.1 -03437.0 -07.5033 26320.5
 27 04 2013  13 52  -21.0571 26094.7 -03437.0 -07.5034 26320.1
 27 04 2013  13 53  -21.0575 26094.7 -03437.2 -07.5038 26320.1
 27 04 2013  13 54  -21.0579 26095.1 -03437.5 -07.5043 26320.5
 27 04 2013  13 55  -21.0577 26094.3 -03437.2 -07.5040 26319.7
 27 04 2013  13 56  -21.0578 26093.8 -03437.1 -07.5038 26319.2
 27 04 2013  13 57  -21.0587 26093.7 -03437.2 -07.5041 26319.1
 27 04 2013  13 58  -21.0598 26093.3 -03437.2 -07.5041 26318.8
 27 04 2013  13 59  -21.0605 26093.2 -03437.1 -07.5041 26318.6
 27 04 2013  14 00  -21.0613 26094.2 -03437.6 -07.5047 26319.7
 27 04 2013  14 01  -21.0617 26093.5 -03437.2 -07.5040 26318.9
 27 04 2013  14 02  -21.0628 26093.1 -03437.0 -07.5039 26318.5
 27 04 2013  14 03  -21.0642 26092.3 -03436.9 -07.5038 26317.7
 27 04 2013  14 04  -21.0654 26091.9 -03437.0 -07.5042 26317.3
 27 04 2013  14 05  -21.0657 26092.5 -03437.6 -07.5052 26318.0
 27 04 2013  14 06  -21.0659 26093.0 -03438.1 -07.5061 26318.5
 27 04 2013  14 07  -21.0660 26093.2 -03438.3 -07.5066 26318.7
 27 04 2013  14 08  -21.0662 26093.2 -03438.4 -07.5069 26318.8
 27 04 2013  14 09  -21.0661 26092.7 -03438.3 -07.5068 26318.3
 27 04 2013  14 10  -21.0655 26092.1 -03438.1 -07.5064 26317.6
 27 04 2013  14 11  -21.0648 26091.7 -03438.0 -07.5063 26317.2
 27 04 2013  14 12  -21.0645 26090.9 -03437.7 -07.5060 26316.4
 27 04 2013  14 13  -21.0646 26090.0 -03437.6 -07.5060 26315.5
 27 04 2013  14 14  -21.0655 26090.8 -03438.2 -07.5070 26316.3
 27 04 2013  14 15  -21.0662 26091.5 -03438.6 -07.5076 26317.2
 27 04 2013  14 16  -21.0660 26091.7 -03438.6 -07.5077 26317.3
 27 04 2013  14 17  -21.0655 26091.5 -03438.6 -07.5078 26317.1
 27 04 2013  14 18  -21.0643 26090.8 -03438.5 -07.5078 26316.4
 27 04 2013  14 19  -21.0638 26091.2 -03438.9 -07.5086 26316.8
 27 04 2013  14 20  -21.0638 26092.0 -03439.6 -07.5098 26317.7
 27 04 2013  14 21  -21.0645 26093.3 -03440.3 -07.5109 26319.1
 27 04 2013  14 22  -21.0648 26094.1 -03440.7 -07.5115 26320.0
 27 04 2013  14 23  -21.0642 26094.8 -03440.8 -07.5116 26320.7
 27 04 2013  14 24  -21.0631 26094.6 -03440.4 -07.5107 26320.4
 27 04 2013  14 25  -21.0619 26094.6 -03440.0 -07.5099 26320.4
 27 04 2013  14 26  -21.0601 26094.0 -03439.4 -07.5088 26319.7
 27 04 2013  14 27  -21.0592 26093.0 -03439.0 -07.5081 26318.7
 27 04 2013  14 28  -21.0587 26092.4 -03438.8 -07.5079 26318.0
 27 04 2013  14 29  -21.0583 26092.1 -03438.9 -07.5082 26317.7
 27 04 2013  14 30  -21.0586 26091.8 -03439.0 -07.5085 26317.4
 27 04 2013  14 31  -21.0593 26092.5 -03439.5 -07.5094 26318.2
 27 04 2013  14 32  -21.0601 26093.4 -03439.9 -07.5101 26319.1
 27 04 2013  14 33  -21.0606 26094.2 -03440.3 -07.5106 26320.0
 27 04 2013  14 34  -21.0614 26094.9 -03440.5 -07.5108 26320.7
 27 04 2013  14 35  -21.0619 26095.1 -03440.4 -07.5105 26320.9
 27 04 2013  14 36  -21.0621 26095.0 -03440.2 -07.5103 26320.8
 27 04 2013  14 37  -21.0621 26094.6 -03440.0 -07.5099 26320.3
 27 04 2013  14 38  -21.0620 26094.3 -03439.9 -07.5098 26320.1
 27 04 2013  14 39  -21.0622 26094.1 -03440.0 -07.5100 26319.8
 27 04 2013  14 40  -21.0627 26094.2 -03440.2 -07.5103 26320.0
 27 04 2013  14 41  -21.0632 26094.2 -03440.2 -07.5104 26320.0
 27 04 2013  14 42  -21.0636 26094.2 -03440.2 -07.5104 26320.0
 27 04 2013  14 43  -21.0639 26093.9 -03440.1 -07.5102 26319.7
 27 04 2013  14 44  -21.0639 26093.7 -03440.0 -07.5101 26319.4
 27 04 2013  14 45  -21.0641 26093.3 -03439.9 -07.5100 26319.1
 27 04 2013  14 46  -21.0643 26093.1 -03439.8 -07.5099 26318.9
 27 04 2013  14 47  -21.0648 26092.6 -03439.7 -07.5097 26318.4
 27 04 2013  14 48  -21.0652 26092.0 -03439.4 -07.5093 26317.7
 27 04 2013  14 49  -21.0654 26091.6 -03439.2 -07.5091 26317.3
 27 04 2013  14 50  -21.0653 26090.8 -03438.9 -07.5085 26316.5
 27 04 2013  14 51  -21.0653 26090.1 -03438.6 -07.5081 26315.8
 27 04 2013  14 52  -21.0655 26089.9 -03438.5 -07.5080 26315.5
 27 04 2013  14 53  -21.0655 26089.4 -03438.3 -07.5078 26315.0
 27 04 2013  14 54  -21.0656 26088.9 -03438.1 -07.5074 26314.4
 27 04 2013  14 55  -21.0657 26088.4 -03437.9 -07.5072 26313.9
 27 04 2013  14 56  -21.0657 26088.3 -03437.9 -07.5071 26313.8
 27 04 2013  14 57  -21.0657 26087.9 -03437.8 -07.5069 26313.4
 27 04 2013  14 58  -21.0650 26087.3 -03437.4 -07.5064 26312.8
 27 04 2013  14 59  -21.0649 26087.3 -03437.4 -07.5063 26312.8
 27 04 2013  15 00  -21.0648 26087.1 -03437.3 -07.5062 26312.6
 27 04 2013  15 01  -21.0641 26086.9 -03437.2 -07.5060 26312.4
 27 04 2013  15 02  -21.0630 26086.1 -03436.8 -07.5053 26311.5
 27 04 2013  15 03  -21.0617 26085.8 -03436.6 -07.5050 26311.1
 27 04 2013  15 04  -21.0610 26086.1 -03436.7 -07.5052 26311.5
 27 04 2013  15 05  -21.0604 26085.9 -03436.6 -07.5050 26311.3
 27 04 2013  15 06  -21.0592 26084.6 -03436.0 -07.5041 26310.0
 27 04 2013  15 07  -21.0586 26084.3 -03436.0 -07.5042 26309.6
 27 04 2013  15 08  -21.0584 26084.1 -03436.2 -07.5046 26309.5
 27 04 2013  15 09  -21.0583 26084.3 -03436.3 -07.5049 26309.6
 27 04 2013  15 10  -21.0585 26084.4 -03436.5 -07.5052 26309.8
 27 04 2013  15 11  -21.0583 26084.6 -03436.5 -07.5053 26310.0
 27 04 2013  15 12  -21.0581 26084.8 -03436.6 -07.5053 26310.2
 27 04 2013  15 13  -21.0580 26085.3 -03436.7 -07.5055 26310.7
 27 04 2013  15 14  -21.0575 26085.5 -03436.7 -07.5054 26310.9
 27 04 2013  15 15  -21.0578 26085.9 -03436.9 -07.5056 26311.4
 27 04 2013  15 16  -21.0580 26086.2 -03436.9 -07.5056 26311.6
 27 04 2013  15 17  -21.0577 26086.2 -03436.8 -07.5054 26311.6
 27 04 2013  15 18  -21.0574 26086.3 -03436.8 -07.5054 26311.7
 27 04 2013  15 19  -21.0571 26086.5 -03436.9 -07.5054 26311.9
 27 04 2013  15 20  -21.0565 26086.3 -03436.8 -07.5053 26311.7
 27 04 2013  15 21  -21.0558 26086.0 -03436.6 -07.5051 26311.4
 27 04 2013  15 22  -21.0550 26085.7 -03436.6 -07.5051 26311.1
 27 04 2013  15 23  -21.0544 26085.4 -03436.6 -07.5051 26310.8
 27 04 2013  15 24  -21.0538 26085.0 -03436.5 -07.5051 26310.4
 27 04 2013  15 25  -21.0531 26084.5 -03436.5 -07.5052 26309.9
 27 04 2013  15 26  -21.0526 26083.8 -03436.4 -07.5051 26309.2
 27 04 2013  15 27  -21.0522 26083.5 -03436.5 -07.5054 26308.9
 27 04 2013  15 28  -21.0521 26083.4 -03436.6 -07.5058 26308.8
 27 04 2013  15 29  -21.0522 26083.0 -03436.7 -07.5060 26308.5
 27 04 2013  15 30  -21.0522 26082.8 -03436.8 -07.5063 26308.2
 27 04 2013  15 31  -21.0527 26082.8 -03436.9 -07.5065 26308.3
 27 04 2013  15 32  -21.0525 26082.4 -03436.9 -07.5065 26307.9
 27 04 2013  15 33  -21.0522 26082.2 -03436.9 -07.5067 26307.6
 27 04 2013  15 34  -21.0523 26082.1 -03437.0 -07.5069 26307.6
 27 04 2013  15 35  -21.0525 26081.9 -03437.0 -07.5070 26307.4
 27 04 2013  15 36  -21.0525 26081.6 -03437.0 -07.5070 26307.1
 27 04 2013  15 37  -21.0524 26081.4 -03436.9 -07.5070 26306.8
 27 04 2013  15 38  -21.0528 26081.2 -03436.9 -07.5070 26306.7
 27 04 2013  15 39  -21.0531 26081.3 -03436.9 -07.5071 26306.8
 27 04 2013  15 40  -21.0528 26080.9 -03436.7 -07.5067 26306.4
 27 04 2013  15 41  -21.0525 26080.7 -03436.7 -07.5066 26306.1
 27 04 2013  15 42  -21.0522 26080.4 -03436.6 -07.5065 26305.8
 27 04 2013  15 43  -21.0520 26080.3 -03436.5 -07.5065 26305.7
 27 04 2013  15 44  -21.0523 26080.2 -03436.6 -07.5066 26305.6
 27 04 2013  15 45  -21.0520 26080.0 -03436.5 -07.5065 26305.5
 27 04 2013  15 46  -21.0517 26079.8 -03436.4 -07.5063 26305.3
 27 04 2013  15 47  -21.0515 26079.4 -03436.2 -07.5060 26304.8
 27 04 2013  15 48  -21.0510 26079.0 -03436.0 -07.5057 26304.4
 27 04 2013  15 49  -21.0504 26078.7 -03435.9 -07.5055 26304.1
 27 04 2013  15 50  -21.0503 26078.4 -03435.8 -07.5055 26303.8
 27 04 2013  15 51  -21.0504 26078.4 -03435.8 -07.5054 26303.7
 27 04 2013  15 52  -21.0499 26077.7 -03435.5 -07.5049 26303.0
 27 04 2013  15 53  -21.0490 26077.2 -03435.3 -07.5046 26302.5
 27 04 2013  15 54  -21.0482 26077.2 -03435.3 -07.5046 26302.5
 27 04 2013  15 55  -21.0477 26077.1 -03435.3 -07.5046 26302.4
 27 04 2013  15 56  -21.0472 26076.7 -03435.2 -07.5045 26302.0
 27 04 2013  15 57  -21.0466 26076.5 -03435.1 -07.5045 26301.8
 27 04 2013  15 58  -21.0457 26076.2 -03435.0 -07.5043 26301.4
 27 04 2013  15 59  -21.0446 26076.0 -03434.9 -07.5042 26301.3
 27 04 2013  16 00  -21.0439 26075.9 -03434.9 -07.5043 26301.1
 27 04 2013  16 01  -21.0428 26075.6 -03434.8 -07.5041 26300.8
 27 04 2013  16 02  -21.0417 26075.5 -03434.9 -07.5042 26300.7
 27 04 2013  16 03  -21.0411 26075.4 -03434.9 -07.5044 26300.7
 27 04 2013  16 04  -21.0404 26075.5 -03435.0 -07.5046 26300.8
 27 04 2013  16 05  -21.0393 26075.1 -03434.9 -07.5044 26300.3
 27 04 2013  16 06  -21.0379 26074.7 -03434.9 -07.5045 26299.9
 27 04 2013  16 07  -21.0367 26074.0 -03434.8 -07.5046 26299.2
 27 04 2013  16 08  -21.0355 26072.9 -03434.7 -07.5045 26298.1
 27 04 2013  16 09  -21.0343 26072.0 -03434.7 -07.5048 26297.2
 27 04 2013  16 10  -21.0337 26071.4 -03434.9 -07.5054 26296.7
 27 04 2013  16 11  -21.0336 26071.0 -03435.2 -07.5062 26296.3
 27 04 2013  16 12  -21.0327 26070.1 -03435.2 -07.5065 26295.5
 27 04 2013  16 13  -21.0321 26069.5 -03435.4 -07.5071 26294.9
 27 04 2013  16 14  -21.0318 26069.2 -03435.8 -07.5079 26294.6
 27 04 2013  16 15  -21.0318 26069.3 -03436.2 -07.5090 26294.8
 27 04 2013  16 16  -21.0321 26069.3 -03436.7 -07.5099 26294.9
 27 04 2013  16 17  -21.0320 26069.4 -03437.1 -07.5109 26295.0
 27 04 2013  16 18  -21.0319 26069.4 -03437.5 -07.5117 26295.1
 27 04 2013  16 19  -21.0323 26069.8 -03438.1 -07.5128 26295.5
 27 04 2013  16 20  -21.0330 26070.4 -03438.6 -07.5137 26296.2
 27 04 2013  16 21  -21.0330 26070.4 -03438.7 -07.5140 26296.2
 27 04 2013  16 22  -21.0322 26069.6 -03438.5 -07.5138 26295.4
 27 04 2013  16 23  -21.0317 26069.5 -03438.7 -07.5142 26295.3
 27 04 2013  16 24  -21.0311 26069.0 -03438.7 -07.5144 26294.8
 27 04 2013  16 25  -21.0307 26069.1 -03439.1 -07.5152 26295.0
 27 04 2013  16 26  -21.0308 26069.9 -03439.8 -07.5164 26295.8
 27 04 2013  16 27  -21.0312 26070.6 -03440.3 -07.5174 26296.6
 27 04 2013  16 28  -21.0314 26070.8 -03440.6 -07.5179 26296.9
 27 04 2013  16 29  -21.0312 26070.4 -03440.5 -07.5178 26296.5
 27 04 2013  16 30  -21.0308 26069.8 -03440.4 -07.5177 26295.8
 27 04 2013  16 31  -21.0307 26069.1 -03440.3 -07.5178 26295.1
 27 04 2013  16 32  -21.0304 26068.2 -03440.2 -07.5178 26294.2
 27 04 2013  16 33  -21.0303 26067.4 -03440.2 -07.5180 26293.4
 27 04 2013  16 34  -21.0304 26067.0 -03440.4 -07.5185 26293.0
 27 04 2013  16 35  -21.0306 26066.7 -03440.6 -07.5190 26292.8
 27 04 2013  16 36  -21.0308 26066.5 -03440.8 -07.5195 26292.6
 27 04 2013  16 37  -21.0311 26066.3 -03441.0 -07.5200 26292.4
 27 04 2013  16 38  -21.0315 26065.9 -03441.0 -07.5203 26292.0
 27 04 2013  16 39  -21.0316 26065.4 -03441.0 -07.5204 26291.5
 27 04 2013  16 40  -21.0319 26064.9 -03441.1 -07.5206 26291.1
 27 04 2013  16 41  -21.0322 26064.3 -03441.1 -07.5209 26290.5
 27 04 2013  16 42  -21.0323 26063.4 -03441.0 -07.5208 26289.6
 27 04 2013  16 43  -21.0321 26062.8 -03441.0 -07.5210 26289.0
 27 04 2013  16 44  -21.0324 26062.7 -03441.2 -07.5216 26288.9
 27 04 2013  16 45  -21.0327 26062.8 -03441.5 -07.5222 26289.0
 27 04 2013  16 46  -21.0330 26062.9 -03441.8 -07.5228 26289.2
 27 04 2013  16 47  -21.0331 26062.9 -03442.0 -07.5232 26289.2
 27 04 2013  16 48  -21.0334 26062.8 -03442.1 -07.5234 26289.1
 27 04 2013  16 49  -21.0344 26063.0 -03442.3 -07.5238 26289.3
 27 04 2013  16 50  -21.0351 26062.7 -03442.1 -07.5236 26289.0
 27 04 2013  16 51  -21.0354 26062.3 -03442.0 -07.5235 26288.6
 27 04 2013  16 52  -21.0360 26062.1 -03442.0 -07.5234 26288.4
 27 04 2013  16 53  -21.0365 26062.2 -03442.1 -07.5236 26288.5
 27 04 2013  16 54  -21.0371 26062.4 -03442.1 -07.5237 26288.7
 27 04 2013  16 55  -21.0374 26062.5 -03442.1 -07.5236 26288.9
 27 04 2013  16 56  -21.0378 26062.7 -03442.1 -07.5235 26289.0
 27 04 2013  16 57  -21.0385 26062.6 -03442.0 -07.5232 26288.9
 27 04 2013  16 58  -21.0388 26062.4 -03441.7 -07.5228 26288.7
 27 04 2013  16 59  -21.0389 26062.3 -03441.5 -07.5224 26288.5
 27 04 2013  17 00  -21.0390 26062.1 -03441.3 -07.5220 26288.3
 27 04 2013  17 01  -21.0390 26061.6 -03441.0 -07.5215 26287.8
 27 04 2013  17 02  -21.0392 26061.5 -03440.9 -07.5212 26287.6
 27 04 2013  17 03  -21.0393 26061.2 -03440.7 -07.5210 26287.4
 27 04 2013  17 04  -21.0391 26060.9 -03440.6 -07.5207 26287.0
 27 04 2013  17 05  -21.0389 26060.5 -03440.4 -07.5204 26286.6
 27 04 2013  17 06  -21.0388 26059.9 -03440.2 -07.5201 26286.0
 27 04 2013  17 07  -21.0386 26059.5 -03440.0 -07.5199 26285.5
 27 04 2013  17 08  -21.0383 26059.0 -03439.9 -07.5198 26285.0
 27 04 2013  17 09  -21.0381 26058.5 -03439.8 -07.5197 26284.6
 27 04 2013  17 10  -21.0380 26058.1 -03439.7 -07.5196 26284.2
 27 04 2013  17 11  -21.0379 26057.9 -03439.7 -07.5197 26283.9
 27 04 2013  17 12  -21.0376 26057.5 -03439.7 -07.5197 26283.6
 27 04 2013  17 13  -21.0373 26057.4 -03439.7 -07.5198 26283.5
 27 04 2013  17 14  -21.0370 26057.3 -03439.7 -07.5199 26283.3
 27 04 2013  17 15  -21.0368 26057.1 -03439.7 -07.5200 26283.2
 27 04 2013  17 16  -21.0367 26056.8 -03439.7 -07.5199 26282.9
 27 04 2013  17 17  -21.0364 26055.9 -03439.3 -07.5194 26281.9
 27 04 2013  17 18  -21.0364 26055.4 -03439.4 -07.5196 26281.5
 27 04 2013  17 19  -21.0363 26055.4 -03439.4 -07.5198 26281.4
 27 04 2013  17 20  -21.0360 26054.9 -03439.4 -07.5199 26280.9
 27 04 2013  17 21  -21.0361 26054.0 -03439.3 -07.5199 26280.0
 27 04 2013  17 22  -21.0360 26053.6 -03439.4 -07.5202 26279.6
 27 04 2013  17 23  -21.0360 26053.3 -03439.5 -07.5206 26279.4
 27 04 2013  17 24  -21.0362 26053.2 -03439.7 -07.5210 26279.3
 27 04 2013  17 25  -21.0362 26052.6 -03439.7 -07.5211 26278.6
 27 04 2013  17 26  -21.0367 26052.4 -03439.9 -07.5216 26278.5
 27 04 2013  17 27  -21.0374 26052.3 -03440.0 -07.5220 26278.5
 27 04 2013  17 28  -21.0380 26052.7 -03440.3 -07.5224 26278.8
 27 04 2013  17 29  -21.0382 26052.8 -03440.4 -07.5225 26279.0
 27 04 2013  17 30  -21.0385 26052.8 -03440.4 -07.5226 26279.0
 27 04 2013  17 31  -21.0391 26053.2 -03440.6 -07.5229 26279.4
 27 04 2013  17 32  -21.0395 26053.4 -03440.7 -07.5230 26279.6
 27 04 2013  17 33  -21.0398 26053.5 -03440.6 -07.5229 26279.7
 27 04 2013  17 34  -21.0402 26053.4 -03440.6 -07.5230 26279.6
 27 04 2013  17 35  -21.0409 26053.7 -03440.8 -07.5232 26280.0
 27 04 2013  17 36  -21.0413 26054.1 -03440.8 -07.5232 26280.3
 27 04 2013  17 37  -21.0411 26053.8 -03440.6 -07.5228 26280.0
 27 04 2013  17 38  -21.0414 26053.5 -03440.5 -07.5227 26279.7
 27 04 2013  17 39  -21.0421 26053.2 -03440.6 -07.5229 26279.4
 27 04 2013  17 40  -21.0420 26053.2 -03440.5 -07.5228 26279.3
 27 04 2013  17 41  -21.0429 26053.3 -03440.6 -07.5230 26279.5
 27 04 2013  17 42  -21.0430 26052.4 -03440.2 -07.5224 26278.6
 27 04 2013  17 43  -21.0430 26052.4 -03440.2 -07.5223 26278.6
 27 04 2013  17 44  -21.0435 26052.4 -03440.3 -07.5225 26278.6
 27 04 2013  17 45  -21.0433 26051.9 -03440.0 -07.5221 26278.0
 27 04 2013  17 46  -21.0433 26051.6 -03439.9 -07.5219 26277.7
 27 04 2013  17 47  -21.0435 26051.5 -03439.9 -07.5219 26277.6
 27 04 2013  17 48  -21.0436 26051.2 -03439.7 -07.5217 26277.3
 27 04 2013  17 49  -21.0435 26050.8 -03439.6 -07.5215 26276.9
 27 04 2013  17 50  -21.0436 26050.8 -03439.7 -07.5217 26276.9
 27 04 2013  17 51  -21.0436 26050.6 -03439.7 -07.5217 26276.7
 27 04 2013  17 52  -21.0436 26050.2 -03439.6 -07.5216 26276.3
 27 04 2013  17 53  -21.0434 26049.6 -03439.4 -07.5214 26275.7
 27 04 2013  17 54  -21.0433 26048.9 -03439.3 -07.5214 26275.0
 27 04 2013  17 55  -21.0431 26048.3 -03439.2 -07.5213 26274.3
 27 04 2013  17 56  -21.0431 26047.9 -03439.2 -07.5215 26273.9
 27 04 2013  17 57  -21.0434 26047.6 -03439.3 -07.5217 26273.6
 27 04 2013  17 58  -21.0438 26047.4 -03439.4 -07.5220 26273.5
 27 04 2013  17 59  -21.0441 26047.1 -03439.3 -07.5220 26273.2
 27 04 2013  18 00  -21.0441 26047.0 -03439.4 -07.5221 26273.1
 27 04 2013  18 01  -21.0444 26047.0 -03439.4 -07.5222 26273.1
 27 04 2013  18 02  -21.0446 26046.9 -03439.4 -07.5222 26273.0
 27 04 2013  18 03  -21.0448 26046.9 -03439.5 -07.5223 26273.0
 27 04 2013  18 04  -21.0449 26046.8 -03439.5 -07.5223 26272.9
 27 04 2013  18 05  -21.0450 26046.5 -03439.4 -07.5223 26272.6
 27 04 2013  18 06  -21.0450 26046.2 -03439.4 -07.5223 26272.3
 27 04 2013  18 07  -21.0450 26046.0 -03439.4 -07.5224 26272.1
 27 04 2013  18 08  -21.0451 26045.7 -03439.4 -07.5225 26271.8
 27 04 2013  18 09  -21.0453 26045.2 -03439.3 -07.5224 26271.3
 27 04 2013  18 10  -21.0451 26044.6 -03439.2 -07.5225 26270.7
 27 04 2013  18 11  -21.0453 26044.2 -03439.3 -07.5227 26270.3
 27 04 2013  18 12  -21.0459 26044.0 -03439.4 -07.5230 26270.1
 27 04 2013  18 13  -21.0462 26043.7 -03439.4 -07.5231 26269.9
 27 04 2013  18 14  -21.0465 26043.6 -03439.5 -07.5233 26269.7
 27 04 2013  18 15  -21.0469 26043.5 -03439.5 -07.5233 26269.6
 27 04 2013  18 16  -21.0472 26043.2 -03439.4 -07.5232 26269.3
 27 04 2013  18 17  -21.0475 26042.7 -03439.3 -07.5231 26268.8
 27 04 2013  18 18  -21.0479 26042.4 -03439.3 -07.5232 26268.6
 27 04 2013  18 19  -21.0485 26042.2 -03439.3 -07.5232 26268.3
 27 04 2013  18 20  -21.0486 26041.9 -03439.2 -07.5231 26268.0
 27 04 2013  18 21  -21.0489 26041.7 -03439.2 -07.5232 26267.8
 27 04 2013  18 22  -21.0491 26041.5 -03439.2 -07.5233 26267.7
 27 04 2013  18 23  -21.0490 26041.2 -03439.2 -07.5233 26267.3
 27 04 2013  18 24  -21.0492 26040.9 -03439.2 -07.5235 26267.0
 27 04 2013  18 25  -21.0498 26040.9 -03439.4 -07.5238 26267.1
 27 04 2013  18 26  -21.0501 26040.8 -03439.4 -07.5239 26267.0
 27 04 2013  18 27  -21.0504 26040.7 -03439.4 -07.5239 26266.8
 27 04 2013  18 28  -21.0509 26040.7 -03439.5 -07.5241 26266.9
 27 04 2013  18 29  -21.0512 26040.7 -03439.6 -07.5243 26266.9
 27 04 2013  18 30  -21.0514 26040.7 -03439.6 -07.5243 26266.9
 27 04 2013  18 31  -21.0519 26040.7 -03439.6 -07.5243 26266.8
 27 04 2013  18 32  -21.0523 26040.5 -03439.5 -07.5242 26266.7
 27 04 2013  18 33  -21.0524 26040.3 -03439.4 -07.5240 26266.5
 27 04 2013  18 34  -21.0526 26040.2 -03439.3 -07.5239 26266.4
 27 04 2013  18 35  -21.0529 26040.0 -03439.2 -07.5237 26266.1
 27 04 2013  18 36  -21.0529 26039.8 -03439.1 -07.5235 26265.9
 27 04 2013  18 37  -21.0529 26039.6 -03439.0 -07.5233 26265.7
 27 04 2013  18 38  -21.0530 26039.3 -03438.8 -07.5231 26265.4
 27 04 2013  18 39  -21.0532 26039.0 -03438.7 -07.5230 26265.1
 27 04 2013  18 40  -21.0533 26038.8 -03438.7 -07.5229 26264.9
 27 04 2013  18 41  -21.0534 26038.5 -03438.6 -07.5228 26264.6
 27 04 2013  18 42  -21.0533 26038.3 -03438.5 -07.5227 26264.4
 27 04 2013  18 43  -21.0537 26038.3 -03438.5 -07.5226 26264.3
 27 04 2013  18 44  -21.0542 26038.4 -03438.5 -07.5227 26264.5
 27 04 2013  18 45  -21.0544 26038.5 -03438.5 -07.5226 26264.5
 27 04 2013  18 46  -21.0545 26038.5 -03438.4 -07.5225 26264.5
 27 04 2013  18 47  -21.0548 26038.6 -03438.4 -07.5224 26264.6
 27 04 2013  18 48  -21.0551 26038.7 -03438.4 -07.5223 26264.7
 27 04 2013  18 49  -21.0551 26038.4 -03438.2 -07.5220 26264.4
 27 04 2013  18 50  -21.0552 26038.0 -03438.0 -07.5216 26264.0
 27 04 2013  18 51  -21.0552 26037.6 -03437.7 -07.5212 26263.5
 27 04 2013  18 52  -21.0553 26037.4 -03437.7 -07.5211 26263.3
 27 04 2013  18 53  -21.0555 26037.3 -03437.6 -07.5211 26263.2
 27 04 2013  18 54  -21.0557 26037.2 -03437.6 -07.5210 26263.1
 27 04 2013  18 55  -21.0556 26036.9 -03437.4 -07.5207 26262.9
 27 04 2013  18 56  -21.0554 26036.8 -03437.3 -07.5205 26262.7
 27 04 2013  18 57  -21.0554 26036.8 -03437.3 -07.5204 26262.7
 27 04 2013  18 58  -21.0554 26036.6 -03437.1 -07.5202 26262.5
 27 04 2013  18 59  -21.0553 26036.4 -03437.0 -07.5199 26262.2
 27 04 2013  19 00  -21.0551 26036.2 -03436.9 -07.5198 26262.0
 27 04 2013  19 01  -21.0550 26036.1 -03436.9 -07.5198 26261.9
 27 04 2013  19 02  -21.0550 26036.0 -03436.8 -07.5197 26261.9
 27 04 2013  19 03  -21.0549 26035.9 -03436.8 -07.5196 26261.8
 27 04 2013  19 04  -21.0549 26035.8 -03436.6 -07.5194 26261.6
 27 04 2013  19 05  -21.0546 26035.5 -03436.5 -07.5192 26261.4
 27 04 2013  19 06  -21.0540 26035.4 -03436.5 -07.5192 26261.3
 27 04 2013  19 07  -21.0542 26035.5 -03436.5 -07.5192 26261.3
 27 04 2013  19 08  -21.0541 26035.5 -03436.5 -07.5192 26261.3
 27 04 2013  19 09  -21.0540 26035.3 -03436.4 -07.5190 26261.1
 27 04 2013  19 10  -21.0535 26035.0 -03436.3 -07.5189 26260.8
 27 04 2013  19 11  -21.0532 26034.8 -03436.2 -07.5187 26260.6
 27 04 2013  19 12  -21.0531 26034.9 -03436.2 -07.5187 26260.7
 27 04 2013  19 13  -21.0528 26034.9 -03436.2 -07.5186 26260.7
 27 04 2013  19 14  -21.0526 26034.9 -03436.2 -07.5186 26260.7
 27 04 2013  19 15  -21.0522 26034.7 -03436.1 -07.5184 26260.4
 27 04 2013  19 16  -21.0519 26034.5 -03436.0 -07.5183 26260.3
 27 04 2013  19 17  -21.0516 26034.4 -03435.9 -07.5182 26260.1
 27 04 2013  19 18  -21.0513 26034.2 -03435.8 -07.5181 26260.0
 27 04 2013  19 19  -21.0508 26034.0 -03435.7 -07.5178 26259.7
 27 04 2013  19 20  -21.0504 26033.6 -03435.5 -07.5176 26259.3
 27 04 2013  19 21  -21.0500 26033.4 -03435.5 -07.5175 26259.1
 27 04 2013  19 22  -21.0497 26033.1 -03435.4 -07.5174 26258.8
 27 04 2013  19 23  -21.0495 26032.9 -03435.3 -07.5174 26258.6
 27 04 2013  19 24  -21.0492 26032.9 -03435.3 -07.5174 26258.6
 27 04 2013  19 25  -21.0488 26032.7 -03435.3 -07.5173 26258.4
 27 04 2013  19 26  -21.0485 26032.6 -03435.2 -07.5172 26258.2
 27 04 2013  19 27  -21.0480 26032.6 -03435.2 -07.5173 26258.3
 27 04 2013  19 28  -21.0478 26032.5 -03435.2 -07.5173 26258.2
 27 04 2013  19 29  -21.0478 26032.6 -03435.3 -07.5173 26258.3
 27 04 2013  19 30  -21.0477 26032.7 -03435.3 -07.5173 26258.4
 27 04 2013  19 31  -21.0476 26032.7 -03435.2 -07.5172 26258.4
 27 04 2013  19 32  -21.0473 26032.7 -03435.1 -07.5170 26258.3
 27 04 2013  19 33  -21.0472 26032.7 -03435.1 -07.5169 26258.3
 27 04 2013  19 34  -21.0467 26032.5 -03434.9 -07.5165 26258.2
 27 04 2013  19 35  -21.0467 26032.4 -03434.8 -07.5163 26258.0
 27 04 2013  19 36  -21.0464 26032.3 -03434.7 -07.5161 26258.0
 27 04 2013  19 37  -21.0459 26032.3 -03434.6 -07.5160 26257.9
 27 04 2013  19 38  -21.0454 26032.2 -03434.5 -07.5158 26257.8
 27 04 2013  19 39  -21.0450 26032.3 -03434.4 -07.5156 26257.8
 27 04 2013  19 40  -21.0446 26032.5 -03434.5 -07.5156 26258.1
 27 04 2013  19 41  -21.0447 26032.8 -03434.5 -07.5155 26258.3
 27 04 2013  19 42  -21.0446 26032.8 -03434.4 -07.5153 26258.4
 27 04 2013  19 43  -21.0443 26032.5 -03434.1 -07.5149 26258.1
 27 04 2013  19 44  -21.0439 26032.2 -03433.9 -07.5145 26257.7
 27 04 2013  19 45  -21.0437 26032.1 -03433.8 -07.5143 26257.6
 27 04 2013  19 46  -21.0435 26031.9 -03433.7 -07.5141 26257.4
 27 04 2013  19 47  -21.0432 26031.8 -03433.6 -07.5139 26257.2
 27 04 2013  19 48  -21.0430 26031.8 -03433.6 -07.5139 26257.2
 27 04 2013  19 49  -21.0428 26032.0 -03433.6 -07.5140 26257.4
 27 04 2013  19 50  -21.0426 26032.1 -03433.6 -07.5139 26257.6
 27 04 2013  19 51  -21.0424 26032.0 -03433.5 -07.5137 26257.5
 27 04 2013  19 52  -21.0423 26031.9 -03433.4 -07.5136 26257.4
 27 04 2013  19 53  -21.0422 26031.8 -03433.3 -07.5134 26257.2
 27 04 2013  19 54  -21.0419 26031.7 -03433.2 -07.5132 26257.1
 27 04 2013  19 55  -21.0417 26031.6 -03433.2 -07.5131 26257.0
 27 04 2013  19 56  -21.0414 26031.6 -03433.2 -07.5131 26257.0
 27 04 2013  19 57  -21.0412 26031.7 -03433.2 -07.5131 26257.1
 27 04 2013  19 58  -21.0411 26031.7 -03433.2 -07.5130 26257.1
 27 04 2013  19 59  -21.0410 26031.6 -03433.2 -07.5130 26257.0
 27 04 2013  20 00  -21.0410 26031.4 -03433.0 -07.5128 26256.8
 27 04 2013  20 01  -21.0407 26031.1 -03432.9 -07.5126 26256.5
 27 04 2013  20 02  -21.0403 26030.9 -03432.8 -07.5125 26256.3
 27 04 2013  20 03  -21.0400 26030.9 -03432.8 -07.5125 26256.3
 27 04 2013  20 04  -21.0398 26031.1 -03432.9 -07.5126 26256.5
 27 04 2013  20 05  -21.0408 26031.3 -03433.0 -07.5129 26256.7
 27 04 2013  20 06  -21.0397 26031.6 -03433.1 -07.5130 26257.0
 27 04 2013  20 07  -21.0398 26031.7 -03433.2 -07.5132 26257.1
 27 04 2013  20 08  -21.0400 26031.9 -03433.3 -07.5132 26257.3
 27 04 2013  20 09  -21.0400 26031.9 -03433.3 -07.5132 26257.4
 27 04 2013  20 10  -21.0398 26031.9 -03433.3 -07.5132 26257.4
 27 04 2013  20 11  -21.0398 26032.0 -03433.3 -07.5132 26257.5
 27 04 2013  20 12  -21.0397 26032.1 -03433.3 -07.5132 26257.5
 27 04 2013  20 13  -21.0397 26032.1 -03433.3 -07.5133 26257.6
 27 04 2013  20 14  -21.0396 26032.1 -03433.3 -07.5133 26257.5
 27 04 2013  20 15  -21.0395 26032.1 -03433.3 -07.5133 26257.5
 27 04 2013  20 16  -21.0393 26032.1 -03433.3 -07.5133 26257.5
 27 04 2013  20 17  -21.0392 26032.1 -03433.4 -07.5133 26257.5
 27 04 2013  20 18  -21.0392 26032.1 -03433.4 -07.5134 26257.6
 27 04 2013  20 19  -21.0393 26032.3 -03433.5 -07.5136 26257.7
 27 04 2013  20 20  -21.0392 26032.2 -03433.5 -07.5136 26257.6
 27 04 2013  20 21  -21.0392 26032.1 -03433.5 -07.5136 26257.6
 27 04 2013  20 22  -21.0392 26032.3 -03433.6 -07.5138 26257.8
 27 04 2013  20 23  -21.0392 26032.4 -03433.7 -07.5139 26257.9
 27 04 2013  20 24  -21.0392 26032.5 -03433.7 -07.5140 26258.0
 27 04 2013  20 25  -21.0391 26032.4 -03433.7 -07.5139 26257.9
 27 04 2013  20 26  -21.0388 26032.3 -03433.6 -07.5138 26257.7
 27 04 2013  20 27  -21.0386 26032.4 -03433.6 -07.5139 26257.9
 27 04 2013  20 28  -21.0385 26032.6 -03433.8 -07.5141 26258.1
 27 04 2013  20 29  -21.0386 26032.8 -03433.9 -07.5143 26258.3
 27 04 2013  20 30  -21.0385 26032.9 -03433.9 -07.5143 26258.4
 27 04 2013  20 31  -21.0385 26032.9 -03433.9 -07.5143 26258.4
 27 04 2013  20 32  -21.0383 26033.0 -03433.9 -07.5143 26258.5
 27 04 2013  20 33  -21.0381 26032.9 -03433.9 -07.5142 26258.4
 27 04 2013  20 34  -21.0380 26032.7 -03433.7 -07.5140 26258.2
 27 04 2013  20 35  -21.0378 26032.5 -03433.7 -07.5139 26258.0
 27 04 2013  20 36  -21.0377 26032.6 -03433.7 -07.5140 26258.0
 27 04 2013  20 37  -21.0376 26032.7 -03433.8 -07.5141 26258.2
 27 04 2013  20 38  -21.0376 26033.0 -03434.0 -07.5144 26258.6
 27 04 2013  20 39  -21.0375 26033.2 -03434.1 -07.5145 26258.7
 27 04 2013  20 40  -21.0376 26033.3 -03434.1 -07.5146 26258.9
 27 04 2013  20 41  -21.0375 26033.3 -03434.1 -07.5145 26258.8
 27 04 2013  20 42  -21.0374 26033.2 -03434.0 -07.5144 26258.7
 27 04 2013  20 43  -21.0375 26033.1 -03433.9 -07.5143 26258.6
 27 04 2013  20 44  -21.0376 26033.0 -03433.9 -07.5143 26258.5
 27 04 2013  20 45  -21.0376 26033.1 -03433.9 -07.5143 26258.6
 27 04 2013  20 46  -21.0378 26033.1 -03433.9 -07.5143 26258.6
 27 04 2013  20 47  -21.0380 26033.1 -03433.9 -07.5143 26258.6
 27 04 2013  20 48  -21.0383 26032.9 -03433.8 -07.5141 26258.4
 27 04 2013  20 49  -21.0384 26032.8 -03433.8 -07.5140 26258.3
 27 04 2013  20 50  -21.0384 26032.7 -03433.8 -07.5140 26258.2
 27 04 2013  20 51  -21.0384 26032.6 -03433.7 -07.5138 26258.1
 27 04 2013  20 52  -21.0383 26032.5 -03433.7 -07.5138 26258.0
 27 04 2013  20 53  -21.0382 26032.7 -03433.7 -07.5139 26258.2
 27 04 2013  20 54  -21.0382 26033.0 -03433.8 -07.5140 26258.5
 27 04 2013  20 55  -21.0383 26033.1 -03433.8 -07.5141 26258.6
 27 04 2013  20 56  -21.0385 26033.2 -03433.9 -07.5141 26258.6
 27 04 2013  20 57  -21.0388 26033.4 -03434.0 -07.5142 26258.9
 27 04 2013  20 58  -21.0392 26033.4 -03434.0 -07.5143 26258.9
 27 04 2013  20 59  -21.0395 26033.2 -03433.8 -07.5140 26258.7
 27 04 2013  21 00  -21.0396 26032.9 -03433.6 -07.5137 26258.3
 27 04 2013  21 01  -21.0397 26032.6 -03433.5 -07.5135 26258.1
 27 04 2013  21 02  -21.0397 26032.6 -03433.5 -07.5134 26258.0
 27 04 2013  21 03  -21.0398 26032.5 -03433.4 -07.5134 26257.9
 27 04 2013  21 04  -21.0399 26032.4 -03433.3 -07.5132 26257.8
 27 04 2013  21 05  -21.0399 26032.1 -03433.2 -07.5130 26257.5
 27 04 2013  21 06  -21.0400 26031.8 -03433.1 -07.5128 26257.2
 27 04 2013  21 07  -21.0403 26031.9 -03433.2 -07.5130 26257.3
 27 04 2013  21 08  -21.0403 26032.3 -03433.4 -07.5134 26257.8
 27 04 2013  21 09  -21.0403 26033.0 -03433.8 -07.5139 26258.5
 27 04 2013  21 10  -21.0404 26033.3 -03433.9 -07.5142 26258.8
 27 04 2013  21 11  -21.0406 26033.4 -03434.0 -07.5143 26258.9
 27 04 2013  21 12  -21.0406 26033.5 -03434.0 -07.5142 26259.0
 27 04 2013  21 13  -21.0407 26033.5 -03433.9 -07.5142 26259.0
 27 04 2013  21 14  -21.0408 26033.3 -03433.8 -07.5140 26258.7
 27 04 2013  21 15  -21.0410 26033.1 -03433.7 -07.5138 26258.5
 27 04 2013  21 16  -21.0411 26032.9 -03433.6 -07.5137 26258.4
 27 04 2013  21 17  -21.0411 26032.9 -03433.6 -07.5137 26258.4
 27 04 2013  21 18  -21.0411 26032.8 -03433.6 -07.5137 26258.3
 27 04 2013  21 19  -21.0412 26032.7 -03433.6 -07.5136 26258.1
 27 04 2013  21 20  -21.0412 26032.7 -03433.6 -07.5136 26258.1
 27 04 2013  21 21  -21.0412 26032.7 -03433.6 -07.5137 26258.2
 27 04 2013  21 22  -21.0413 26032.8 -03433.7 -07.5138 26258.3
 27 04 2013  21 23  -21.0413 26032.7 -03433.7 -07.5138 26258.2
 27 04 2013  21 24  -21.0415 26032.6 -03433.7 -07.5138 26258.1
 27 04 2013  21 25  -21.0417 26032.5 -03433.7 -07.5138 26258.0
 27 04 2013  21 26  -21.0419 26032.4 -03433.6 -07.5137 26257.8
 27 04 2013  21 27  -21.0421 26032.1 -03433.5 -07.5136 26257.6
 27 04 2013  21 28  -21.0423 26032.0 -03433.4 -07.5135 26257.4
 27 04 2013  21 29  -21.0424 26031.9 -03433.4 -07.5134 26257.3
 27 04 2013  21 30  -21.0425 26031.8 -03433.3 -07.5134 26257.2
 27 04 2013  21 31  -21.0427 26031.8 -03433.4 -07.5134 26257.3
 27 04 2013  21 32  -21.0429 26031.9 -03433.4 -07.5136 26257.3
 27 04 2013  21 33  -21.0433 26031.9 -03433.5 -07.5136 26257.4
 27 04 2013  21 34  -21.0436 26032.0 -03433.6 -07.5138 26257.5
 27 04 2013  21 35  -21.0439 26032.1 -03433.6 -07.5139 26257.6
 27 04 2013  21 36  -21.0440 26032.3 -03433.7 -07.5140 26257.8
 27 04 2013  21 37  -21.0442 26032.5 -03433.8 -07.5141 26258.0
 27 04 2013  21 38  -21.0443 26032.6 -03433.8 -07.5141 26258.1
 27 04 2013  21 39  -21.0444 26032.6 -03433.8 -07.5141 26258.1
 27 04 2013  21 40  -21.0445 26032.5 -03433.7 -07.5139 26258.0
 27 04 2013  21 41  -21.0446 26032.5 -03433.7 -07.5139 26258.0
 27 04 2013  21 42  -21.0448 26032.4 -03433.6 -07.5137 26257.9
 27 04 2013  21 43  -21.0450 26032.4 -03433.5 -07.5136 26257.8
 27 04 2013  21 44  -21.0453 26032.3 -03433.5 -07.5135 26257.8
 27 04 2013  21 45  -21.0455 26032.2 -03433.4 -07.5134 26257.7
 27 04 2013  21 46  -21.0456 26032.2 -03433.4 -07.5133 26257.6
 27 04 2013  21 47  -21.0457 26032.2 -03433.4 -07.5133 26257.6
 27 04 2013  21 48  -21.0461 26032.3 -03433.4 -07.5134 26257.7
 27 04 2013  21 49  -21.0465 26032.3 -03433.4 -07.5134 26257.8
 27 04 2013  21 50  -21.0467 26032.4 -03433.5 -07.5135 26257.9
 27 04 2013  21 51  -21.0469 26032.4 -03433.5 -07.5135 26257.9
 27 04 2013  21 52  -21.0472 26032.3 -03433.4 -07.5133 26257.7
 27 04 2013  21 53  -21.0476 26032.2 -03433.3 -07.5133 26257.7
 27 04 2013  21 54  -21.0479 26032.3 -03433.3 -07.5132 26257.7
 27 04 2013  21 55  -21.0483 26032.2 -03433.3 -07.5132 26257.6
 27 04 2013  21 56  -21.0485 26032.0 -03433.2 -07.5130 26257.4
 27 04 2013  21 57  -21.0490 26031.7 -03433.1 -07.5128 26257.1
 27 04 2013  21 58  -21.0491 26031.7 -03433.0 -07.5127 26257.1
 27 04 2013  21 59  -21.0496 26031.3 -03432.8 -07.5125 26256.7
 27 04 2013  22 00  -21.0498 26031.0 -03432.7 -07.5122 26256.4
 27 04 2013  22 01  -21.0499 26030.7 -03432.6 -07.5120 26256.1
 27 04 2013  22 02  -21.0500 26030.5 -03432.5 -07.5119 26255.9
 27 04 2013  22 03  -21.0501 26030.4 -03432.4 -07.5118 26255.7
 27 04 2013  22 04  -21.0503 26030.2 -03432.4 -07.5117 26255.5
 27 04 2013  22 05  -21.0504 26030.1 -03432.4 -07.5118 26255.4
 27 04 2013  22 06  -21.0505 26030.1 -03432.4 -07.5119 26255.5
 27 04 2013  22 07  -21.0507 26030.0 -03432.5 -07.5120 26255.4
 27 04 2013  22 08  -21.0508 26030.0 -03432.5 -07.5120 26255.3
 27 04 2013  22 09  -21.0509 26029.9 -03432.4 -07.5120 26255.2
 27 04 2013  22 10  -21.0509 26029.8 -03432.4 -07.5120 26255.1
 27 04 2013  22 11  -21.0509 26029.8 -03432.4 -07.5120 26255.1
 27 04 2013  22 12  -21.0510 26029.7 -03432.4 -07.5120 26255.0
 27 04 2013  22 13  -21.0511 26029.7 -03432.5 -07.5121 26255.1
 27 04 2013  22 14  -21.0511 26030.0 -03432.6 -07.5123 26255.3
 27 04 2013  22 15  -21.0512 26029.9 -03432.7 -07.5125 26255.3
 27 04 2013  22 16  -21.0513 26029.8 -03432.6 -07.5124 26255.2
 27 04 2013  22 17  -21.0512 26030.0 -03432.7 -07.5125 26255.3
 27 04 2013  22 18  -21.0512 26030.2 -03432.8 -07.5128 26255.6
 27 04 2013  22 19  -21.0512 26030.3 -03432.9 -07.5129 26255.7
 27 04 2013  22 20  -21.0510 26030.3 -03432.9 -07.5129 26255.7
 27 04 2013  22 21  -21.0507 26030.8 -03433.1 -07.5132 26256.2
 27 04 2013  22 22  -21.0505 26031.2 -03433.4 -07.5136 26256.7
 27 04 2013  22 23  -21.0506 26031.4 -03433.5 -07.5139 26256.9
 27 04 2013  22 24  -21.0508 26031.6 -03433.7 -07.5141 26257.1
 27 04 2013  22 25  -21.0509 26031.6 -03433.7 -07.5141 26257.1
 27 04 2013  22 26  -21.0512 26031.3 -03433.5 -07.5139 26256.7
 27 04 2013  22 27  -21.0515 26031.1 -03433.4 -07.5137 26256.6
 27 04 2013  22 28  -21.0517 26031.0 -03433.3 -07.5136 26256.4
 27 04 2013  22 29  -21.0516 26030.8 -03433.2 -07.5134 26256.2
 27 04 2013  22 30  -21.0515 26030.7 -03433.2 -07.5134 26256.2
 27 04 2013  22 31  -21.0515 26030.8 -03433.3 -07.5135 26256.2
 27 04 2013  22 32  -21.0516 26030.8 -03433.2 -07.5135 26256.2
 27 04 2013  22 33  -21.0518 26030.7 -03433.3 -07.5135 26256.2
 27 04 2013  22 34  -21.0519 26030.6 -03433.3 -07.5135 26256.1
 27 04 2013  22 35  -21.0518 26030.8 -03433.3 -07.5137 26256.2
 27 04 2013  22 36  -21.0518 26031.2 -03433.5 -07.5140 26256.6
 27 04 2013  22 37  -21.0520 26031.3 -03433.6 -07.5142 26256.7
 27 04 2013  22 38  -21.0522 26031.3 -03433.7 -07.5143 26256.8
 27 04 2013  22 39  -21.0525 26031.4 -03433.8 -07.5144 26256.9
 27 04 2013  22 40  -21.0527 26031.4 -03433.8 -07.5144 26256.9
 27 04 2013  22 41  -21.0530 26031.4 -03433.8 -07.5144 26256.9
 27 04 2013  22 42  -21.0532 26031.6 -03433.8 -07.5145 26257.1
 27 04 2013  22 43  -21.0534 26031.6 -03433.9 -07.5145 26257.1
 27 04 2013  22 44  -21.0537 26031.6 -03433.9 -07.5146 26257.2
 27 04 2013  22 45  -21.0539 26031.7 -03433.9 -07.5146 26257.2
 27 04 2013  22 46  -21.0543 26031.6 -03433.9 -07.5146 26257.2
 27 04 2013  22 47  -21.0547 26031.7 -03433.9 -07.5146 26257.2
 27 04 2013  22 48  -21.0548 26031.7 -03433.9 -07.5146 26257.2
 27 04 2013  22 49  -21.0551 26031.8 -03433.9 -07.5146 26257.3
 27 04 2013  22 50  -21.0552 26031.8 -03433.9 -07.5146 26257.4
 27 04 2013  22 51  -21.0551 26031.9 -03433.9 -07.5146 26257.4
 27 04 2013  22 52  -21.0549 26031.8 -03433.9 -07.5145 26257.3
 27 04 2013  22 53  -21.0549 26031.8 -03433.8 -07.5145 26257.3
 27 04 2013  22 54  -21.0551 26031.7 -03433.8 -07.5144 26257.2
 27 04 2013  22 55  -21.0554 26031.6 -03433.8 -07.5144 26257.1
 27 04 2013  22 56  -21.0555 26031.7 -03433.8 -07.5144 26257.2
 27 04 2013  22 57  -21.0556 26031.7 -03433.8 -07.5144 26257.2
 27 04 2013  22 58  -21.0555 26031.6 -03433.8 -07.5144 26257.1
 27 04 2013  22 59  -21.0554 26031.7 -03433.8 -07.5144 26257.2
 27 04 2013  23 00  -21.0551 26031.7 -03433.8 -07.5144 26257.2
 27 04 2013  23 01  -21.0548 26031.6 -03433.8 -07.5143 26257.1
 27 04 2013  23 02  -21.0546 26031.5 -03433.7 -07.5143 26257.0
 27 04 2013  23 03  -21.0543 26031.5 -03433.7 -07.5143 26257.0
 27 04 2013  23 04  -21.0537 26031.5 -03433.8 -07.5144 26257.0
 27 04 2013  23 05  -21.0533 26031.4 -03433.8 -07.5144 26256.9
 27 04 2013  23 06  -21.0529 26031.4 -03433.8 -07.5145 26256.9
 27 04 2013  23 07  -21.0528 26031.4 -03433.8 -07.5145 26256.9
 27 04 2013  23 08  -21.0528 26031.3 -03433.8 -07.5146 26256.8
 27 04 2013  23 09  -21.0529 26031.2 -03433.8 -07.5146 26256.7
 27 04 2013  23 10  -21.0529 26031.0 -03433.8 -07.5146 26256.5
 27 04 2013  23 11  -21.0529 26030.9 -03433.7 -07.5145 26256.4
 27 04 2013  23 12  -21.0529 26030.8 -03433.7 -07.5145 26256.3
 27 04 2013  23 13  -21.0529 26030.7 -03433.7 -07.5145 26256.2
 27 04 2013  23 14  -21.0529 26030.6 -03433.7 -07.5146 26256.1
 27 04 2013  23 15  -21.0529 26030.5 -03433.7 -07.5146 26256.0
 27 04 2013  23 16  -21.0528 26030.4 -03433.8 -07.5147 26256.0
 27 04 2013  23 17  -21.0527 26030.5 -03433.9 -07.5148 26256.0
 27 04 2013  23 18  -21.0528 26030.5 -03433.9 -07.5149 26256.0
 27 04 2013  23 19  -21.0526 26030.5 -03433.9 -07.5150 26256.0
 27 04 2013  23 20  -21.0525 26030.5 -03433.9 -07.5150 26256.0
 27 04 2013  23 21  -21.0525 26030.4 -03433.9 -07.5150 26255.9
 27 04 2013  23 22  -21.0525 26030.4 -03433.9 -07.5150 26255.9
 27 04 2013  23 23  -21.0527 26030.2 -03433.9 -07.5151 26255.8
 27 04 2013  23 24  -21.0528 26030.1 -03433.9 -07.5151 26255.6
 27 04 2013  23 25  -21.0527 26030.0 -03433.9 -07.5151 26255.6
 27 04 2013  23 26  -21.0527 26030.0 -03433.9 -07.5151 26255.5
 27 04 2013  23 27  -21.0527 26029.9 -03433.9 -07.5151 26255.4
 27 04 2013  23 28  -21.0526 26029.8 -03433.9 -07.5151 26255.4
 27 04 2013  23 29  -21.0526 26029.8 -03433.9 -07.5152 26255.3
 27 04 2013  23 30  -21.0525 26029.8 -03433.9 -07.5152 26255.3
 27 04 2013  23 31  -21.0524 26029.8 -03434.0 -07.5153 26255.3
 27 04 2013  23 32  -21.0522 26029.9 -03434.0 -07.5154 26255.4
 27 04 2013  23 33  -21.0520 26029.9 -03434.0 -07.5154 26255.4
 27 04 2013  23 34  -21.0518 26030.0 -03434.1 -07.5155 26255.5
 27 04 2013  23 35  -21.0518 26030.1 -03434.2 -07.5157 26255.6
 27 04 2013  23 36  -21.0517 26030.2 -03434.3 -07.5159 26255.8
 27 04 2013  23 37  -21.0519 26030.3 -03434.4 -07.5160 26255.9
 27 04 2013  23 38  -21.0521 26030.3 -03434.4 -07.5161 26255.9
 27 04 2013  23 39  -21.0522 26030.4 -03434.4 -07.5162 26256.0
 27 04 2013  23 40  -21.0523 26030.3 -03434.4 -07.5161 26255.9
 27 04 2013  23 41  -21.0524 26030.2 -03434.4 -07.5161 26255.8
 27 04 2013  23 42  -21.0523 26030.0 -03434.3 -07.5159 26255.6
 27 04 2013  23 43  -21.0523 26029.8 -03434.2 -07.5158 26255.4
 27 04 2013  23 44  -21.0523 26029.7 -03434.1 -07.5157 26255.2
 27 04 2013  23 45  -21.0525 26029.5 -03434.0 -07.5155 26255.0
 27 04 2013  23 46  -21.0526 26029.4 -03434.0 -07.5155 26254.9
 27 04 2013  23 47  -21.0527 26029.3 -03434.0 -07.5155 26254.9
 27 04 2013  23 48  -21.0529 26029.4 -03434.1 -07.5156 26254.9
 27 04 2013  23 49  -21.0529 26029.4 -03434.1 -07.5157 26255.0
 27 04 2013  23 50  -21.0529 26029.5 -03434.1 -07.5157 26255.0
 27 04 2013  23 51  -21.0528 26029.5 -03434.1 -07.5157 26255.0
 27 04 2013  23 52  -21.0527 26029.5 -03434.2 -07.5159 26255.1
 27 04 2013  23 53  -21.0525 26029.7 -03434.3 -07.5160 26255.3
 27 04 2013  23 54  -21.0523 26030.0 -03434.4 -07.5163 26255.5
 27 04 2013  23 55  -21.0522 26030.1 -03434.4 -07.5163 26255.7
 27 04 2013  23 56  -21.0521 26030.1 -03434.5 -07.5163 26255.7
 27 04 2013  23 57  -21.0519 26030.1 -03434.5 -07.5163 26255.7
 27 04 2013  23 58  -21.0520 26030.1 -03434.5 -07.5163 26255.7
