SAO LUIS EMBRACE-03 <171> 1 Min. Reported data

 DD MM YYYY  HH MM   D(Deg)  H(nT)   Z(nT)   I(Deg)   F(nT)

 20 06 2013  00 00  -21.0414 26022.6 -03447.1 -07.5458 26249.9
 20 06 2013  00 01  -21.0411 26022.3 -03447.1 -07.5458 26249.7
 20 06 2013  00 02  -21.0411 26022.1 -03447.0 -07.5457 26249.5
 20 06 2013  00 03  -21.0413 26021.7 -03446.9 -07.5456 26249.0
 20 06 2013  00 04  -21.0412 26021.3 -03446.8 -07.5454 26248.6
 20 06 2013  00 05  -21.0412 26020.7 -03446.6 -07.5452 26248.0
 20 06 2013  00 06  -21.0411 26020.2 -03446.4 -07.5449 26247.5
 20 06 2013  00 07  -21.0410 26019.8 -03446.3 -07.5448 26247.1
 20 06 2013  00 08  -21.0411 26019.5 -03446.2 -07.5448 26246.7
 20 06 2013  00 09  -21.0412 26019.2 -03446.2 -07.5447 26246.4
 20 06 2013  00 10  -21.0413 26018.9 -03446.1 -07.5448 26246.1
 20 06 2013  00 11  -21.0414 26018.5 -03446.1 -07.5447 26245.7
 20 06 2013  00 12  -21.0413 26018.2 -03446.0 -07.5447 26245.4
 20 06 2013  00 13  -21.0414 26018.0 -03446.1 -07.5448 26245.2
 20 06 2013  00 14  -21.0416 26017.9 -03446.1 -07.5451 26245.1
 20 06 2013  00 15  -21.0416 26017.7 -03446.2 -07.5452 26245.0
 20 06 2013  00 16  -21.0415 26017.5 -03446.2 -07.5452 26244.7
 20 06 2013  00 17  -21.0415 26017.4 -03446.2 -07.5453 26244.6
 20 06 2013  00 18  -21.0415 26017.1 -03446.2 -07.5453 26244.4
 20 06 2013  00 19  -21.0419 26016.9 -03446.2 -07.5454 26244.2
 20 06 2013  00 20  -21.0421 26016.8 -03446.2 -07.5455 26244.1
 20 06 2013  00 21  -21.0422 26016.6 -03446.2 -07.5455 26243.9
 20 06 2013  00 22  -21.0420 26016.5 -03446.2 -07.5456 26243.7
 20 06 2013  00 23  -21.0415 26016.4 -03446.2 -07.5456 26243.6
 20 06 2013  00 24  -21.0413 26016.2 -03446.2 -07.5457 26243.5
 20 06 2013  00 25  -21.0413 26016.2 -03446.3 -07.5459 26243.5
 20 06 2013  00 26  -21.0415 26016.2 -03446.4 -07.5461 26243.4
 20 06 2013  00 27  -21.0415 26016.1 -03446.4 -07.5462 26243.3
 20 06 2013  00 28  -21.0417 26015.9 -03446.4 -07.5462 26243.2
 20 06 2013  00 29  -21.0418 26015.8 -03446.4 -07.5463 26243.1
 20 06 2013  00 30  -21.0418 26015.6 -03446.4 -07.5463 26242.8
 20 06 2013  00 31  -21.0414 26015.2 -03446.3 -07.5462 26242.5
 20 06 2013  00 32  -21.0411 26015.2 -03446.3 -07.5461 26242.4
 20 06 2013  00 33  -21.0410 26014.9 -03446.3 -07.5462 26242.2
 20 06 2013  00 34  -21.0410 26014.7 -03446.3 -07.5462 26242.0
 20 06 2013  00 35  -21.0410 26014.5 -03446.2 -07.5462 26241.7
 20 06 2013  00 36  -21.0412 26014.2 -03446.2 -07.5462 26241.5
 20 06 2013  00 37  -21.0414 26013.9 -03446.1 -07.5462 26241.2
 20 06 2013  00 38  -21.0416 26013.7 -03446.1 -07.5462 26240.9
 20 06 2013  00 39  -21.0417 26013.3 -03446.0 -07.5461 26240.6
 20 06 2013  00 40  -21.0418 26012.9 -03445.9 -07.5460 26240.2
 20 06 2013  00 41  -21.0417 26012.6 -03445.9 -07.5460 26239.8
 20 06 2013  00 42  -21.0418 26012.4 -03445.9 -07.5460 26239.6
 20 06 2013  00 43  -21.0420 26012.1 -03445.8 -07.5460 26239.3
 20 06 2013  00 44  -21.0423 26011.8 -03445.8 -07.5461 26239.0
 20 06 2013  00 45  -21.0424 26011.4 -03445.7 -07.5460 26238.6
 20 06 2013  00 46  -21.0422 26011.1 -03445.6 -07.5459 26238.4
 20 06 2013  00 47  -21.0421 26011.0 -03445.7 -07.5460 26238.2
 20 06 2013  00 48  -21.0421 26010.7 -03445.6 -07.5460 26237.9
 20 06 2013  00 49  -21.0421 26010.5 -03445.7 -07.5462 26237.7
 20 06 2013  00 50  -21.0420 26010.4 -03445.7 -07.5463 26237.7
 20 06 2013  00 51  -21.0419 26010.4 -03445.8 -07.5466 26237.7
 20 06 2013  00 52  -21.0420 26010.4 -03446.0 -07.5468 26237.6
 20 06 2013  00 53  -21.0423 26010.0 -03445.9 -07.5468 26237.3
 20 06 2013  00 54  -21.0426 26009.6 -03445.8 -07.5467 26236.8
 20 06 2013  00 55  -21.0428 26009.2 -03445.7 -07.5465 26236.4
 20 06 2013  00 56  -21.0429 26008.6 -03445.6 -07.5464 26235.9
 20 06 2013  00 57  -21.0428 26008.2 -03445.4 -07.5462 26235.4
 20 06 2013  00 58  -21.0426 26007.7 -03445.3 -07.5462 26234.9
 20 06 2013  00 59  -21.0423 26007.4 -03445.2 -07.5461 26234.6
 20 06 2013  01 00  -21.0417 26007.2 -03445.3 -07.5463 26234.5
 20 06 2013  01 01  -21.0416 26007.1 -03445.4 -07.5465 26234.3
 20 06 2013  01 02  -21.0417 26007.1 -03445.6 -07.5469 26234.4
 20 06 2013  01 03  -21.0418 26007.2 -03445.7 -07.5472 26234.4
 20 06 2013  01 04  -21.0417 26006.9 -03445.8 -07.5474 26234.2
 20 06 2013  01 05  -21.0418 26006.7 -03445.8 -07.5474 26234.0
 20 06 2013  01 06  -21.0420 26006.5 -03445.8 -07.5475 26233.8
 20 06 2013  01 07  -21.0421 26006.2 -03445.8 -07.5476 26233.5
 20 06 2013  01 08  -21.0420 26006.1 -03445.8 -07.5478 26233.4
 20 06 2013  01 09  -21.0421 26006.2 -03446.0 -07.5480 26233.5
 20 06 2013  01 10  -21.0421 26006.3 -03446.1 -07.5484 26233.7
 20 06 2013  01 11  -21.0422 26006.4 -03446.3 -07.5486 26233.7
 20 06 2013  01 12  -21.0422 26006.5 -03446.4 -07.5490 26233.9
 20 06 2013  01 13  -21.0422 26006.9 -03446.6 -07.5493 26234.3
 20 06 2013  01 14  -21.0422 26007.0 -03446.8 -07.5496 26234.4
 20 06 2013  01 15  -21.0422 26007.2 -03447.0 -07.5499 26234.6
 20 06 2013  01 16  -21.0422 26007.4 -03447.1 -07.5502 26234.9
 20 06 2013  01 17  -21.0420 26007.9 -03447.3 -07.5505 26235.3
 20 06 2013  01 18  -21.0422 26008.4 -03447.7 -07.5511 26236.0
 20 06 2013  01 19  -21.0424 26009.4 -03448.2 -07.5519 26236.9
 20 06 2013  01 20  -21.0425 26009.8 -03448.4 -07.5523 26237.4
 20 06 2013  01 21  -21.0423 26010.6 -03448.7 -07.5528 26238.2
 20 06 2013  01 22  -21.0426 26010.5 -03448.7 -07.5528 26238.2
 20 06 2013  01 23  -21.0426 26010.2 -03448.5 -07.5525 26237.8
 20 06 2013  01 24  -21.0426 26009.7 -03448.2 -07.5518 26237.3
 20 06 2013  01 25  -21.0427 26009.1 -03447.9 -07.5513 26236.6
 20 06 2013  01 26  -21.0425 26008.6 -03447.6 -07.5509 26236.1
 20 06 2013  01 27  -21.0424 26008.2 -03447.5 -07.5507 26235.7
 20 06 2013  01 28  -21.0424 26008.0 -03447.4 -07.5505 26235.5
 20 06 2013  01 29  -21.0426 26007.6 -03447.2 -07.5504 26235.1
 20 06 2013  01 30  -21.0429 26007.4 -03447.2 -07.5504 26234.8
 20 06 2013  01 31  -21.0436 26007.2 -03447.2 -07.5504 26234.6
 20 06 2013  01 32  -21.0443 26007.0 -03447.2 -07.5505 26234.4
 20 06 2013  01 33  -21.0446 26006.8 -03447.1 -07.5503 26234.2
 20 06 2013  01 34  -21.0446 26006.6 -03447.1 -07.5503 26234.1
 20 06 2013  01 35  -21.0447 26006.7 -03447.1 -07.5504 26234.1
 20 06 2013  01 36  -21.0449 26006.6 -03447.2 -07.5506 26234.1
 20 06 2013  01 37  -21.0452 26006.5 -03447.2 -07.5506 26234.0
 20 06 2013  01 38  -21.0454 26006.5 -03447.2 -07.5506 26234.0
 20 06 2013  01 39  -21.0457 26006.2 -03447.1 -07.5505 26233.7
 20 06 2013  01 40  -21.0459 26006.1 -03447.1 -07.5505 26233.6
 20 06 2013  01 41  -21.0460 26006.0 -03447.0 -07.5504 26233.5
 20 06 2013  01 42  -21.0462 26005.9 -03447.0 -07.5504 26233.4
 20 06 2013  01 43  -21.0465 26006.0 -03447.1 -07.5506 26233.5
 20 06 2013  01 44  -21.0465 26006.0 -03447.2 -07.5507 26233.5
 20 06 2013  01 45  -21.0466 26005.9 -03447.2 -07.5507 26233.4
 20 06 2013  01 46  -21.0467 26005.8 -03447.1 -07.5507 26233.2
 20 06 2013  01 47  -21.0466 26005.9 -03447.2 -07.5508 26233.4
 20 06 2013  01 48  -21.0468 26006.0 -03447.4 -07.5511 26233.5
 20 06 2013  01 49  -21.0469 26006.0 -03447.4 -07.5512 26233.5
 20 06 2013  01 50  -21.0467 26006.0 -03447.4 -07.5512 26233.5
 20 06 2013  01 51  -21.0464 26006.1 -03447.5 -07.5513 26233.6
 20 06 2013  01 52  -21.0461 26006.3 -03447.6 -07.5515 26233.8
 20 06 2013  01 53  -21.0458 26006.7 -03447.8 -07.5518 26234.3
 20 06 2013  01 54  -21.0452 26007.4 -03448.1 -07.5524 26235.0
 20 06 2013  01 55  -21.0447 26007.1 -03448.1 -07.5524 26234.7
 20 06 2013  01 56  -21.0444 26006.9 -03448.0 -07.5522 26234.5
 20 06 2013  01 57  -21.0442 26007.1 -03448.1 -07.5524 26234.7
 20 06 2013  01 58  -21.0437 26007.7 -03448.3 -07.5527 26235.3
 20 06 2013  01 59  -21.0433 26008.1 -03448.6 -07.5533 26235.7
 20 06 2013  02 00  -21.0432 26008.4 -03448.9 -07.5537 26236.1
 20 06 2013  02 01  -21.0432 26008.8 -03449.1 -07.5541 26236.5
 20 06 2013  02 02  -21.0431 26009.0 -03449.2 -07.5542 26236.7
 20 06 2013  02 03  -21.0429 26009.0 -03449.2 -07.5542 26236.7
 20 06 2013  02 04  -21.0428 26008.8 -03449.2 -07.5542 26236.6
 20 06 2013  02 05  -21.0427 26008.9 -03449.1 -07.5541 26236.6
 20 06 2013  02 06  -21.0429 26009.0 -03449.2 -07.5542 26236.7
 20 06 2013  02 07  -21.0428 26009.3 -03449.4 -07.5545 26237.1
 20 06 2013  02 08  -21.0429 26009.1 -03449.3 -07.5543 26236.8
 20 06 2013  02 09  -21.0425 26009.4 -03449.4 -07.5546 26237.2
 20 06 2013  02 10  -21.0419 26010.0 -03449.6 -07.5548 26237.8
 20 06 2013  02 11  -21.0422 26009.7 -03449.6 -07.5549 26237.5
 20 06 2013  02 12  -21.0423 26009.9 -03449.7 -07.5551 26237.7
 20 06 2013  02 13  -21.0423 26010.1 -03449.8 -07.5553 26237.9
 20 06 2013  02 14  -21.0428 26010.4 -03450.0 -07.5555 26238.2
 20 06 2013  02 15  -21.0434 26010.6 -03450.1 -07.5557 26238.5
 20 06 2013  02 16  -21.0438 26011.0 -03450.3 -07.5559 26238.9
 20 06 2013  02 17  -21.0440 26011.3 -03450.4 -07.5562 26239.2
 20 06 2013  02 18  -21.0441 26011.5 -03450.4 -07.5562 26239.4
 20 06 2013  02 19  -21.0440 26011.7 -03450.5 -07.5563 26239.6
 20 06 2013  02 20  -21.0439 26011.9 -03450.5 -07.5562 26239.8
 20 06 2013  02 21  -21.0438 26012.1 -03450.5 -07.5562 26240.0
 20 06 2013  02 22  -21.0438 26012.2 -03450.6 -07.5562 26240.1
 20 06 2013  02 23  -21.0438 26012.4 -03450.6 -07.5563 26240.3
 20 06 2013  02 24  -21.0440 26012.7 -03450.7 -07.5564 26240.5
 20 06 2013  02 25  -21.0438 26013.7 -03451.1 -07.5569 26241.6
 20 06 2013  02 26  -21.0438 26013.8 -03451.2 -07.5571 26241.8
 20 06 2013  02 27  -21.0430 26015.3 -03451.8 -07.5581 26243.3
 20 06 2013  02 28  -21.0428 26015.9 -03452.1 -07.5584 26244.0
 20 06 2013  02 29  -21.0428 26016.3 -03452.2 -07.5586 26244.3
 20 06 2013  02 30  -21.0427 26016.9 -03452.4 -07.5588 26244.9
 20 06 2013  02 31  -21.0428 26017.0 -03452.4 -07.5588 26245.1
 20 06 2013  02 32  -21.0428 26017.3 -03452.4 -07.5587 26245.4
 20 06 2013  02 33  -21.0432 26017.5 -03452.4 -07.5587 26245.6
 20 06 2013  02 34  -21.0439 26017.1 -03452.2 -07.5584 26245.2
 20 06 2013  02 35  -21.0442 26017.0 -03452.0 -07.5580 26245.0
 20 06 2013  02 36  -21.0440 26016.8 -03451.7 -07.5575 26244.8
 20 06 2013  02 37  -21.0439 26016.4 -03451.4 -07.5569 26244.4
 20 06 2013  02 38  -21.0435 26016.5 -03451.4 -07.5567 26244.5
 20 06 2013  02 39  -21.0432 26016.4 -03451.3 -07.5566 26244.3
 20 06 2013  02 40  -21.0428 26016.6 -03451.3 -07.5566 26244.6
 20 06 2013  02 41  -21.0427 26016.8 -03451.4 -07.5568 26244.8
 20 06 2013  02 42  -21.0427 26016.8 -03451.3 -07.5566 26244.7
 20 06 2013  02 43  -21.0425 26016.8 -03451.3 -07.5566 26244.7
 20 06 2013  02 44  -21.0421 26016.6 -03451.2 -07.5563 26244.5
 20 06 2013  02 45  -21.0421 26016.4 -03451.1 -07.5562 26244.3
 20 06 2013  02 46  -21.0418 26016.2 -03451.0 -07.5560 26244.1
 20 06 2013  02 47  -21.0413 26016.0 -03450.9 -07.5559 26243.9
 20 06 2013  02 48  -21.0408 26015.8 -03450.8 -07.5557 26243.7
 20 06 2013  02 49  -21.0405 26015.7 -03450.8 -07.5557 26243.5
 20 06 2013  02 50  -21.0404 26015.6 -03450.7 -07.5556 26243.4
 20 06 2013  02 51  -21.0405 26015.5 -03450.7 -07.5557 26243.3
 20 06 2013  02 52  -21.0405 26015.3 -03450.7 -07.5557 26243.2
 20 06 2013  02 53  -21.0403 26015.1 -03450.6 -07.5556 26243.0
 20 06 2013  02 54  -21.0403 26014.9 -03450.6 -07.5556 26242.7
 20 06 2013  02 55  -21.0405 26014.7 -03450.5 -07.5555 26242.5
 20 06 2013  02 56  -21.0409 26014.6 -03450.5 -07.5555 26242.4
 20 06 2013  02 57  -21.0411 26014.4 -03450.5 -07.5555 26242.3
 20 06 2013  02 58  -21.0414 26014.4 -03450.5 -07.5556 26242.2
 20 06 2013  02 59  -21.0418 26014.2 -03450.5 -07.5555 26242.0
 20 06 2013  03 00  -21.0422 26013.9 -03450.4 -07.5554 26241.8
 20 06 2013  03 01  -21.0427 26013.8 -03450.4 -07.5554 26241.6
 20 06 2013  03 02  -21.0433 26013.7 -03450.4 -07.5554 26241.5
 20 06 2013  03 03  -21.0440 26013.6 -03450.4 -07.5554 26241.4
 20 06 2013  03 04  -21.0446 26013.5 -03450.4 -07.5554 26241.4
 20 06 2013  03 05  -21.0449 26013.5 -03450.3 -07.5554 26241.3
 20 06 2013  03 06  -21.0453 26013.4 -03450.3 -07.5553 26241.2
 20 06 2013  03 07  -21.0458 26013.3 -03450.3 -07.5553 26241.1
 20 06 2013  03 08  -21.0462 26013.2 -03450.3 -07.5553 26241.1
 20 06 2013  03 09  -21.0463 26013.3 -03450.3 -07.5553 26241.1
 20 06 2013  03 10  -21.0463 26013.2 -03450.2 -07.5553 26241.0
 20 06 2013  03 11  -21.0461 26013.2 -03450.2 -07.5553 26241.0
 20 06 2013  03 12  -21.0461 26013.2 -03450.3 -07.5553 26241.0
 20 06 2013  03 13  -21.0458 26013.3 -03450.3 -07.5554 26241.1
 20 06 2013  03 14  -21.0455 26013.1 -03450.3 -07.5553 26240.9
 20 06 2013  03 15  -21.0450 26013.1 -03450.3 -07.5553 26240.9
 20 06 2013  03 16  -21.0448 26012.9 -03450.2 -07.5553 26240.8
 20 06 2013  03 17  -21.0448 26012.9 -03450.3 -07.5554 26240.7
 20 06 2013  03 18  -21.0448 26012.9 -03450.3 -07.5555 26240.7
 20 06 2013  03 19  -21.0449 26012.8 -03450.4 -07.5556 26240.6
 20 06 2013  03 20  -21.0450 26012.7 -03450.4 -07.5557 26240.6
 20 06 2013  03 21  -21.0449 26012.6 -03450.4 -07.5557 26240.5
 20 06 2013  03 22  -21.0449 26012.7 -03450.4 -07.5558 26240.5
 20 06 2013  03 23  -21.0450 26012.8 -03450.5 -07.5560 26240.7
 20 06 2013  03 24  -21.0448 26013.1 -03450.7 -07.5563 26240.9
 20 06 2013  03 25  -21.0447 26013.2 -03450.8 -07.5564 26241.1
 20 06 2013  03 26  -21.0446 26013.4 -03450.9 -07.5566 26241.3
 20 06 2013  03 27  -21.0445 26013.6 -03450.9 -07.5567 26241.5
 20 06 2013  03 28  -21.0442 26013.7 -03451.0 -07.5567 26241.6
 20 06 2013  03 29  -21.0436 26013.7 -03451.0 -07.5567 26241.6
 20 06 2013  03 30  -21.0431 26013.7 -03451.0 -07.5567 26241.6
 20 06 2013  03 31  -21.0427 26013.7 -03450.9 -07.5566 26241.6
 20 06 2013  03 32  -21.0424 26013.7 -03451.0 -07.5567 26241.6
 20 06 2013  03 33  -21.0421 26013.8 -03451.0 -07.5567 26241.7
 20 06 2013  03 34  -21.0418 26013.8 -03451.1 -07.5569 26241.8
 20 06 2013  03 35  -21.0414 26013.9 -03451.1 -07.5569 26241.8
 20 06 2013  03 36  -21.0409 26014.0 -03451.1 -07.5570 26241.9
 20 06 2013  03 37  -21.0405 26014.2 -03451.3 -07.5572 26242.1
 20 06 2013  03 38  -21.0402 26014.3 -03451.4 -07.5574 26242.3
 20 06 2013  03 39  -21.0402 26014.5 -03451.5 -07.5576 26242.5
 20 06 2013  03 40  -21.0401 26014.5 -03451.5 -07.5577 26242.5
 20 06 2013  03 41  -21.0400 26014.5 -03451.5 -07.5577 26242.5
 20 06 2013  03 42  -21.0400 26014.5 -03451.5 -07.5577 26242.5
 20 06 2013  03 43  -21.0400 26014.6 -03451.6 -07.5578 26242.6
 20 06 2013  03 44  -21.0402 26014.7 -03451.7 -07.5579 26242.7
 20 06 2013  03 45  -21.0406 26014.7 -03451.7 -07.5580 26242.7
 20 06 2013  03 46  -21.0412 26014.7 -03451.7 -07.5581 26242.7
 20 06 2013  03 47  -21.0415 26014.9 -03451.8 -07.5581 26242.8
 20 06 2013  03 48  -21.0415 26014.8 -03451.7 -07.5580 26242.8
 20 06 2013  03 49  -21.0412 26014.9 -03451.7 -07.5580 26242.9
 20 06 2013  03 50  -21.0409 26015.0 -03451.8 -07.5580 26243.0
 20 06 2013  03 51  -21.0408 26015.1 -03451.8 -07.5580 26243.1
 20 06 2013  03 52  -21.0406 26015.3 -03451.8 -07.5581 26243.3
 20 06 2013  03 53  -21.0406 26015.4 -03451.8 -07.5581 26243.4
 20 06 2013  03 54  -21.0407 26015.6 -03452.0 -07.5583 26243.6
 20 06 2013  03 55  -21.0409 26015.6 -03452.0 -07.5584 26243.7
 20 06 2013  03 56  -21.0409 26015.8 -03452.1 -07.5585 26243.8
 20 06 2013  03 57  -21.0409 26015.9 -03452.1 -07.5585 26243.9
 20 06 2013  03 58  -21.0409 26015.9 -03452.1 -07.5585 26243.9
 20 06 2013  03 59  -21.0408 26016.0 -03452.2 -07.5586 26244.1
 20 06 2013  04 00  -21.0407 26016.1 -03452.2 -07.5586 26244.1
 20 06 2013  04 01  -21.0408 26016.2 -03452.2 -07.5587 26244.2
 20 06 2013  04 02  -21.0407 26016.3 -03452.3 -07.5588 26244.3
 20 06 2013  04 03  -21.0405 26016.3 -03452.2 -07.5587 26244.3
 20 06 2013  04 04  -21.0402 26016.3 -03452.2 -07.5587 26244.3
 20 06 2013  04 05  -21.0401 26016.3 -03452.2 -07.5587 26244.4
 20 06 2013  04 06  -21.0400 26016.5 -03452.3 -07.5588 26244.6
 20 06 2013  04 07  -21.0398 26016.7 -03452.4 -07.5589 26244.7
 20 06 2013  04 08  -21.0397 26016.8 -03452.4 -07.5590 26244.8
 20 06 2013  04 09  -21.0399 26016.9 -03452.5 -07.5592 26245.0
 20 06 2013  04 10  -21.0400 26017.0 -03452.6 -07.5592 26245.1
 20 06 2013  04 11  -21.0401 26017.2 -03452.6 -07.5593 26245.3
 20 06 2013  04 12  -21.0402 26017.3 -03452.7 -07.5594 26245.4
 20 06 2013  04 13  -21.0402 26017.4 -03452.7 -07.5594 26245.5
 20 06 2013  04 14  -21.0402 26017.4 -03452.7 -07.5594 26245.5
 20 06 2013  04 15  -21.0403 26017.4 -03452.7 -07.5593 26245.5
 20 06 2013  04 16  -21.0405 26017.3 -03452.6 -07.5592 26245.4
 20 06 2013  04 17  -21.0404 26017.2 -03452.6 -07.5592 26245.3
 20 06 2013  04 18  -21.0402 26017.4 -03452.6 -07.5592 26245.5
 20 06 2013  04 19  -21.0400 26017.6 -03452.7 -07.5593 26245.7
 20 06 2013  04 20  -21.0400 26017.7 -03452.8 -07.5594 26245.8
 20 06 2013  04 21  -21.0399 26017.7 -03452.8 -07.5594 26245.8
 20 06 2013  04 22  -21.0400 26017.5 -03452.6 -07.5592 26245.6
 20 06 2013  04 23  -21.0400 26017.4 -03452.6 -07.5591 26245.5
 20 06 2013  04 24  -21.0400 26017.4 -03452.5 -07.5590 26245.5
 20 06 2013  04 25  -21.0397 26017.4 -03452.5 -07.5589 26245.4
 20 06 2013  04 26  -21.0397 26017.3 -03452.4 -07.5588 26245.4
 20 06 2013  04 27  -21.0397 26017.2 -03452.4 -07.5588 26245.3
 20 06 2013  04 28  -21.0400 26017.2 -03452.4 -07.5587 26245.3
 20 06 2013  04 29  -21.0400 26017.2 -03452.3 -07.5587 26245.3
 20 06 2013  04 30  -21.0400 26017.4 -03452.4 -07.5587 26245.5
 20 06 2013  04 31  -21.0398 26017.6 -03452.5 -07.5588 26245.7
 20 06 2013  04 32  -21.0396 26017.9 -03452.5 -07.5588 26246.0
 20 06 2013  04 33  -21.0394 26018.3 -03452.7 -07.5590 26246.4
 20 06 2013  04 34  -21.0393 26018.6 -03452.8 -07.5592 26246.7
 20 06 2013  04 35  -21.0391 26018.9 -03452.8 -07.5593 26247.0
 20 06 2013  04 36  -21.0390 26019.1 -03452.8 -07.5591 26247.2
 20 06 2013  04 37  -21.0388 26019.2 -03452.8 -07.5591 26247.3
 20 06 2013  04 38  -21.0388 26019.3 -03452.7 -07.5589 26247.4
 20 06 2013  04 39  -21.0388 26019.3 -03452.7 -07.5588 26247.4
 20 06 2013  04 40  -21.0388 26019.3 -03452.6 -07.5587 26247.4
 20 06 2013  04 41  -21.0388 26019.4 -03452.5 -07.5585 26247.4
 20 06 2013  04 42  -21.0389 26019.4 -03452.5 -07.5584 26247.5
 20 06 2013  04 43  -21.0390 26019.4 -03452.4 -07.5582 26247.4
 20 06 2013  04 44  -21.0390 26019.4 -03452.3 -07.5580 26247.4
 20 06 2013  04 45  -21.0390 26019.5 -03452.3 -07.5578 26247.5
 20 06 2013  04 46  -21.0391 26019.6 -03452.2 -07.5577 26247.6
 20 06 2013  04 47  -21.0391 26019.6 -03452.2 -07.5576 26247.6
 20 06 2013  04 48  -21.0390 26019.5 -03452.1 -07.5575 26247.5
 20 06 2013  04 49  -21.0390 26019.3 -03452.0 -07.5573 26247.3
 20 06 2013  04 50  -21.0388 26019.2 -03451.8 -07.5570 26247.1
 20 06 2013  04 51  -21.0385 26019.1 -03451.8 -07.5569 26247.1
 20 06 2013  04 52  -21.0383 26019.1 -03451.7 -07.5568 26247.1
 20 06 2013  04 53  -21.0380 26019.1 -03451.7 -07.5568 26247.1
 20 06 2013  04 54  -21.0377 26019.2 -03451.8 -07.5568 26247.2
 20 06 2013  04 55  -21.0376 26019.4 -03451.8 -07.5569 26247.3
 20 06 2013  04 56  -21.0376 26019.5 -03451.8 -07.5569 26247.5
 20 06 2013  04 57  -21.0374 26019.6 -03451.9 -07.5570 26247.6
 20 06 2013  04 58  -21.0372 26019.8 -03451.9 -07.5570 26247.8
 20 06 2013  04 59  -21.0370 26020.0 -03452.0 -07.5571 26247.9
 20 06 2013  05 00  -21.0369 26020.1 -03452.0 -07.5571 26248.1
 20 06 2013  05 01  -21.0367 26020.3 -03452.1 -07.5572 26248.3
 20 06 2013  05 02  -21.0367 26020.5 -03452.1 -07.5572 26248.5
 20 06 2013  05 03  -21.0366 26020.8 -03452.2 -07.5574 26248.9
 20 06 2013  05 04  -21.0365 26021.0 -03452.3 -07.5575 26249.0
 20 06 2013  05 05  -21.0365 26021.2 -03452.4 -07.5576 26249.3
 20 06 2013  05 06  -21.0367 26021.4 -03452.4 -07.5576 26249.4
 20 06 2013  05 07  -21.0369 26021.6 -03452.5 -07.5577 26249.6
 20 06 2013  05 08  -21.0370 26021.7 -03452.5 -07.5576 26249.7
 20 06 2013  05 09  -21.0371 26021.8 -03452.5 -07.5576 26249.9
 20 06 2013  05 10  -21.0371 26022.1 -03452.5 -07.5576 26250.1
 20 06 2013  05 11  -21.0369 26022.4 -03452.6 -07.5576 26250.4
 20 06 2013  05 12  -21.0368 26022.7 -03452.7 -07.5579 26250.8
 20 06 2013  05 13  -21.0366 26023.1 -03452.9 -07.5581 26251.2
 20 06 2013  05 14  -21.0365 26023.5 -03453.0 -07.5582 26251.6
 20 06 2013  05 15  -21.0366 26023.6 -03453.0 -07.5582 26251.7
 20 06 2013  05 16  -21.0367 26023.6 -03452.9 -07.5579 26251.7
 20 06 2013  05 17  -21.0368 26023.8 -03452.9 -07.5579 26251.9
 20 06 2013  05 18  -21.0366 26024.3 -03453.0 -07.5581 26252.4
 20 06 2013  05 19  -21.0365 26024.2 -03453.0 -07.5580 26252.3
 20 06 2013  05 20  -21.0364 26024.5 -03453.0 -07.5579 26252.5
 20 06 2013  05 21  -21.0363 26024.7 -03453.0 -07.5580 26252.7
 20 06 2013  05 22  -21.0360 26024.9 -03453.0 -07.5579 26252.9
 20 06 2013  05 23  -21.0356 26025.1 -03453.1 -07.5580 26253.2
 20 06 2013  05 24  -21.0352 26025.2 -03453.0 -07.5579 26253.3
 20 06 2013  05 25  -21.0350 26025.1 -03452.9 -07.5577 26253.2
 20 06 2013  05 26  -21.0350 26024.8 -03452.8 -07.5574 26252.9
 20 06 2013  05 27  -21.0351 26024.5 -03452.5 -07.5570 26252.5
 20 06 2013  05 28  -21.0352 26024.1 -03452.3 -07.5566 26252.1
 20 06 2013  05 29  -21.0350 26023.8 -03452.2 -07.5563 26251.8
 20 06 2013  05 30  -21.0348 26023.5 -03452.0 -07.5562 26251.4
 20 06 2013  05 31  -21.0347 26023.4 -03452.0 -07.5561 26251.3
 20 06 2013  05 32  -21.0344 26023.3 -03451.9 -07.5561 26251.2
 20 06 2013  05 33  -21.0339 26023.2 -03451.9 -07.5560 26251.1
 20 06 2013  05 34  -21.0334 26023.1 -03451.9 -07.5560 26251.1
 20 06 2013  05 35  -21.0328 26023.2 -03452.0 -07.5561 26251.1
 20 06 2013  05 36  -21.0325 26023.3 -03452.0 -07.5563 26251.2
 20 06 2013  05 37  -21.0321 26023.2 -03452.1 -07.5564 26251.2
 20 06 2013  05 38  -21.0316 26023.3 -03452.2 -07.5565 26251.3
 20 06 2013  05 39  -21.0312 26023.2 -03452.2 -07.5566 26251.2
 20 06 2013  05 40  -21.0308 26023.2 -03452.2 -07.5566 26251.2
 20 06 2013  05 41  -21.0306 26023.2 -03452.3 -07.5568 26251.2
 20 06 2013  05 42  -21.0306 26023.1 -03452.3 -07.5569 26251.1
 20 06 2013  05 43  -21.0303 26023.2 -03452.3 -07.5570 26251.2
 20 06 2013  05 44  -21.0304 26023.2 -03452.4 -07.5570 26251.2
 20 06 2013  05 45  -21.0306 26023.3 -03452.5 -07.5572 26251.3
 20 06 2013  05 46  -21.0306 26023.5 -03452.5 -07.5573 26251.5
 20 06 2013  05 47  -21.0305 26023.7 -03452.6 -07.5574 26251.7
 20 06 2013  05 48  -21.0304 26023.9 -03452.7 -07.5575 26251.9
 20 06 2013  05 49  -21.0302 26024.1 -03452.7 -07.5575 26252.1
 20 06 2013  05 50  -21.0302 26024.3 -03452.9 -07.5578 26252.4
 20 06 2013  05 51  -21.0301 26024.6 -03453.0 -07.5579 26252.7
 20 06 2013  05 52  -21.0301 26024.8 -03453.1 -07.5581 26252.9
 20 06 2013  05 53  -21.0301 26025.0 -03453.2 -07.5582 26253.1
 20 06 2013  05 54  -21.0298 26025.0 -03453.0 -07.5579 26253.1
 20 06 2013  05 55  -21.0299 26025.2 -03453.0 -07.5579 26253.2
 20 06 2013  05 56  -21.0301 26025.2 -03453.0 -07.5578 26253.3
 20 06 2013  05 57  -21.0302 26025.3 -03453.0 -07.5579 26253.4
 20 06 2013  05 58  -21.0304 26025.4 -03453.0 -07.5578 26253.5
 20 06 2013  05 59  -21.0308 26025.6 -03453.0 -07.5578 26253.6
 20 06 2013  06 00  -21.0311 26025.9 -03453.1 -07.5579 26254.0
 20 06 2013  06 01  -21.0315 26026.1 -03453.2 -07.5580 26254.2
 20 06 2013  06 02  -21.0319 26026.2 -03453.2 -07.5579 26254.3
 20 06 2013  06 03  -21.0321 26026.1 -03453.1 -07.5577 26254.2
 20 06 2013  06 04  -21.0320 26026.2 -03453.0 -07.5575 26254.2
 20 06 2013  06 05  -21.0318 26026.1 -03452.9 -07.5573 26254.2
 20 06 2013  06 06  -21.0319 26026.1 -03452.8 -07.5571 26254.2
 20 06 2013  06 07  -21.0318 26026.2 -03452.8 -07.5571 26254.2
 20 06 2013  06 08  -21.0318 26026.4 -03452.8 -07.5571 26254.4
 20 06 2013  06 09  -21.0319 26026.5 -03452.9 -07.5571 26254.5
 20 06 2013  06 10  -21.0322 26026.7 -03452.9 -07.5571 26254.7
 20 06 2013  06 11  -21.0322 26026.8 -03452.9 -07.5572 26254.8
 20 06 2013  06 12  -21.0321 26026.8 -03452.9 -07.5570 26254.8
 20 06 2013  06 13  -21.0319 26027.0 -03452.9 -07.5570 26255.0
 20 06 2013  06 14  -21.0316 26026.8 -03452.7 -07.5567 26254.8
 20 06 2013  06 15  -21.0312 26027.0 -03452.7 -07.5567 26255.0
 20 06 2013  06 16  -21.0311 26027.0 -03452.7 -07.5567 26255.0
 20 06 2013  06 17  -21.0310 26027.2 -03452.8 -07.5568 26255.2
 20 06 2013  06 18  -21.0308 26027.2 -03452.8 -07.5567 26255.2
 20 06 2013  06 19  -21.0306 26027.3 -03452.7 -07.5566 26255.3
 20 06 2013  06 20  -21.0308 26027.2 -03452.7 -07.5565 26255.2
 20 06 2013  06 21  -21.0308 26027.1 -03452.6 -07.5563 26255.1
 20 06 2013  06 22  -21.0305 26027.1 -03452.5 -07.5563 26255.1
 20 06 2013  06 23  -21.0299 26027.5 -03452.6 -07.5563 26255.5
 20 06 2013  06 24  -21.0297 26027.8 -03452.7 -07.5564 26255.8
 20 06 2013  06 25  -21.0296 26028.1 -03452.8 -07.5566 26256.1
 20 06 2013  06 26  -21.0296 26028.2 -03452.8 -07.5565 26256.3
 20 06 2013  06 27  -21.0295 26028.5 -03452.9 -07.5566 26256.5
 20 06 2013  06 28  -21.0295 26028.9 -03453.0 -07.5567 26256.9
 20 06 2013  06 29  -21.0297 26029.3 -03453.2 -07.5570 26257.4
 20 06 2013  06 30  -21.0301 26029.5 -03453.3 -07.5572 26257.6
 20 06 2013  06 31  -21.0307 26029.5 -03453.2 -07.5571 26257.6
 20 06 2013  06 32  -21.0309 26029.5 -03453.1 -07.5568 26257.5
 20 06 2013  06 33  -21.0310 26029.3 -03452.9 -07.5565 26257.3
 20 06 2013  06 34  -21.0311 26029.0 -03452.7 -07.5561 26257.0
 20 06 2013  06 35  -21.0313 26028.8 -03452.5 -07.5557 26256.8
 20 06 2013  06 36  -21.0313 26028.4 -03452.3 -07.5553 26256.4
 20 06 2013  06 37  -21.0309 26028.2 -03452.1 -07.5549 26256.1
 20 06 2013  06 38  -21.0305 26028.1 -03452.0 -07.5548 26256.0
 20 06 2013  06 39  -21.0303 26028.2 -03452.0 -07.5548 26256.1
 20 06 2013  06 40  -21.0300 26028.3 -03452.1 -07.5549 26256.3
 20 06 2013  06 41  -21.0295 26028.5 -03452.2 -07.5550 26256.4
 20 06 2013  06 42  -21.0291 26028.6 -03452.2 -07.5551 26256.5
 20 06 2013  06 43  -21.0289 26028.7 -03452.2 -07.5551 26256.6
 20 06 2013  06 44  -21.0289 26028.8 -03452.3 -07.5552 26256.7
 20 06 2013  06 45  -21.0290 26028.9 -03452.3 -07.5552 26256.8
 20 06 2013  06 46  -21.0290 26029.0 -03452.3 -07.5553 26257.0
 20 06 2013  06 47  -21.0290 26029.3 -03452.4 -07.5553 26257.2
 20 06 2013  06 48  -21.0290 26029.7 -03452.6 -07.5556 26257.7
 20 06 2013  06 49  -21.0292 26030.1 -03452.7 -07.5558 26258.1
 20 06 2013  06 50  -21.0294 26030.3 -03452.8 -07.5559 26258.3
 20 06 2013  06 51  -21.0297 26030.3 -03452.7 -07.5558 26258.2
 20 06 2013  06 52  -21.0301 26030.2 -03452.6 -07.5556 26258.2
 20 06 2013  06 53  -21.0303 26030.1 -03452.5 -07.5553 26258.0
 20 06 2013  06 54  -21.0303 26029.8 -03452.3 -07.5550 26257.8
 20 06 2013  06 55  -21.0300 26029.5 -03452.1 -07.5545 26257.4
 20 06 2013  06 56  -21.0297 26029.5 -03452.0 -07.5543 26257.4
 20 06 2013  06 57  -21.0296 26029.4 -03451.9 -07.5542 26257.3
 20 06 2013  06 58  -21.0298 26029.5 -03451.9 -07.5543 26257.4
 20 06 2013  06 59  -21.0297 26029.6 -03452.0 -07.5543 26257.5
 20 06 2013  07 00  -21.0294 26029.5 -03451.9 -07.5542 26257.3
 20 06 2013  07 01  -21.0293 26029.5 -03451.9 -07.5542 26257.4
 20 06 2013  07 02  -21.0294 26029.5 -03451.9 -07.5542 26257.4
 20 06 2013  07 03  -21.0293 26029.6 -03451.9 -07.5542 26257.5
 20 06 2013  07 04  -21.0294 26029.6 -03451.9 -07.5542 26257.5
 20 06 2013  07 05  -21.0294 26029.8 -03452.0 -07.5543 26257.7
 20 06 2013  07 06  -21.0294 26030.0 -03452.1 -07.5544 26257.9
 20 06 2013  07 07  -21.0291 26030.0 -03452.1 -07.5544 26257.9
 20 06 2013  07 08  -21.0290 26030.0 -03452.0 -07.5543 26257.9
 20 06 2013  07 09  -21.0287 26030.1 -03452.0 -07.5542 26258.0
 20 06 2013  07 10  -21.0284 26030.1 -03452.0 -07.5542 26258.0
 20 06 2013  07 11  -21.0281 26030.2 -03452.0 -07.5542 26258.1
 20 06 2013  07 12  -21.0277 26030.2 -03452.0 -07.5542 26258.1
 20 06 2013  07 13  -21.0271 26030.3 -03452.0 -07.5542 26258.2
 20 06 2013  07 14  -21.0266 26030.3 -03452.0 -07.5541 26258.2
 20 06 2013  07 15  -21.0260 26030.3 -03452.0 -07.5541 26258.2
 20 06 2013  07 16  -21.0255 26030.3 -03452.0 -07.5541 26258.2
 20 06 2013  07 17  -21.0249 26030.4 -03452.0 -07.5542 26258.3
 20 06 2013  07 18  -21.0241 26030.4 -03452.0 -07.5542 26258.3
 20 06 2013  07 19  -21.0232 26030.4 -03452.0 -07.5542 26258.3
 20 06 2013  07 20  -21.0224 26030.5 -03452.1 -07.5543 26258.4
 20 06 2013  07 21  -21.0218 26030.5 -03452.1 -07.5543 26258.4
 20 06 2013  07 22  -21.0211 26030.5 -03452.1 -07.5543 26258.4
 20 06 2013  07 23  -21.0205 26030.4 -03452.1 -07.5543 26258.3
 20 06 2013  07 24  -21.0200 26030.5 -03452.1 -07.5544 26258.4
 20 06 2013  07 25  -21.0196 26030.6 -03452.2 -07.5545 26258.5
 20 06 2013  07 26  -21.0191 26030.8 -03452.3 -07.5548 26258.8
 20 06 2013  07 27  -21.0187 26031.0 -03452.5 -07.5550 26259.0
 20 06 2013  07 28  -21.0187 26031.3 -03452.6 -07.5552 26259.2
 20 06 2013  07 29  -21.0186 26031.6 -03452.8 -07.5555 26259.6
 20 06 2013  07 30  -21.0186 26031.8 -03452.9 -07.5558 26259.8
 20 06 2013  07 31  -21.0187 26031.8 -03452.9 -07.5558 26259.8
 20 06 2013  07 32  -21.0187 26031.8 -03452.9 -07.5557 26259.8
 20 06 2013  07 33  -21.0187 26031.8 -03452.9 -07.5556 26259.8
 20 06 2013  07 34  -21.0187 26031.9 -03452.9 -07.5556 26259.9
 20 06 2013  07 35  -21.0184 26031.9 -03452.9 -07.5556 26259.9
 20 06 2013  07 36  -21.0182 26032.1 -03453.0 -07.5557 26260.1
 20 06 2013  07 37  -21.0180 26032.4 -03453.1 -07.5559 26260.5
 20 06 2013  07 38  -21.0177 26032.8 -03453.3 -07.5562 26260.8
 20 06 2013  07 39  -21.0173 26033.2 -03453.4 -07.5564 26261.2
 20 06 2013  07 40  -21.0169 26033.3 -03453.4 -07.5564 26261.4
 20 06 2013  07 41  -21.0164 26033.3 -03453.4 -07.5563 26261.3
 20 06 2013  07 42  -21.0164 26033.4 -03453.4 -07.5563 26261.4
 20 06 2013  07 43  -21.0162 26033.4 -03453.4 -07.5562 26261.4
 20 06 2013  07 44  -21.0160 26033.4 -03453.3 -07.5562 26261.5
 20 06 2013  07 45  -21.0158 26033.5 -03453.3 -07.5561 26261.5
 20 06 2013  07 46  -21.0154 26033.7 -03453.4 -07.5562 26261.7
 20 06 2013  07 47  -21.0147 26033.8 -03453.4 -07.5562 26261.9
 20 06 2013  07 48  -21.0139 26034.1 -03453.5 -07.5564 26262.2
 20 06 2013  07 49  -21.0132 26034.4 -03453.6 -07.5565 26262.5
 20 06 2013  07 50  -21.0127 26034.7 -03453.8 -07.5568 26262.8
 20 06 2013  07 51  -21.0125 26034.9 -03453.9 -07.5569 26263.0
 20 06 2013  07 52  -21.0122 26035.2 -03454.0 -07.5570 26263.3
 20 06 2013  07 53  -21.0119 26035.5 -03454.1 -07.5572 26263.6
 20 06 2013  07 54  -21.0118 26035.6 -03454.1 -07.5572 26263.8
 20 06 2013  07 55  -21.0116 26035.8 -03454.2 -07.5572 26263.9
 20 06 2013  07 56  -21.0116 26036.0 -03454.2 -07.5573 26264.1
 20 06 2013  07 57  -21.0115 26036.2 -03454.3 -07.5574 26264.3
 20 06 2013  07 58  -21.0113 26036.3 -03454.3 -07.5574 26264.4
 20 06 2013  07 59  -21.0114 26036.5 -03454.4 -07.5575 26264.6
 20 06 2013  08 00  -21.0114 26036.5 -03454.3 -07.5574 26264.6
 20 06 2013  08 01  -21.0110 26036.4 -03454.2 -07.5572 26264.5
 20 06 2013  08 02  -21.0108 26036.5 -03454.2 -07.5571 26264.6
 20 06 2013  08 03  -21.0109 26036.7 -03454.2 -07.5572 26264.8
 20 06 2013  08 04  -21.0111 26036.8 -03454.2 -07.5572 26264.9
 20 06 2013  08 05  -21.0109 26036.8 -03454.2 -07.5571 26264.9
 20 06 2013  08 06  -21.0110 26036.8 -03454.2 -07.5570 26264.9
 20 06 2013  08 07  -21.0105 26036.8 -03454.1 -07.5568 26264.9
 20 06 2013  08 08  -21.0099 26036.7 -03454.0 -07.5567 26264.8
 20 06 2013  08 09  -21.0095 26036.5 -03453.9 -07.5565 26264.6
 20 06 2013  08 10  -21.0094 26036.3 -03453.8 -07.5563 26264.4
 20 06 2013  08 11  -21.0097 26036.3 -03453.8 -07.5563 26264.4
 20 06 2013  08 12  -21.0102 26036.1 -03453.7 -07.5563 26264.2
 20 06 2013  08 13  -21.0105 26035.9 -03453.6 -07.5560 26263.9
 20 06 2013  08 14  -21.0105 26035.9 -03453.6 -07.5559 26263.9
 20 06 2013  08 15  -21.0105 26035.9 -03453.6 -07.5560 26264.0
 20 06 2013  08 16  -21.0104 26036.1 -03453.7 -07.5561 26264.2
 20 06 2013  08 17  -21.0097 26036.0 -03453.6 -07.5559 26264.1
 20 06 2013  08 18  -21.0090 26036.1 -03453.6 -07.5560 26264.2
 20 06 2013  08 19  -21.0083 26036.2 -03453.6 -07.5560 26264.3
 20 06 2013  08 20  -21.0076 26036.3 -03453.7 -07.5561 26264.4
 20 06 2013  08 21  -21.0069 26036.4 -03453.7 -07.5562 26264.4
 20 06 2013  08 22  -21.0063 26036.4 -03453.8 -07.5563 26264.5
 20 06 2013  08 23  -21.0057 26036.4 -03453.8 -07.5563 26264.5
 20 06 2013  08 24  -21.0054 26036.4 -03453.8 -07.5563 26264.5
 20 06 2013  08 25  -21.0056 26036.4 -03453.8 -07.5564 26264.5
 20 06 2013  08 26  -21.0054 26036.4 -03453.9 -07.5565 26264.5
 20 06 2013  08 27  -21.0051 26036.6 -03453.9 -07.5564 26264.7
 20 06 2013  08 28  -21.0049 26036.6 -03453.9 -07.5564 26264.7
 20 06 2013  08 29  -21.0049 26036.6 -03453.8 -07.5564 26264.7
 20 06 2013  08 30  -21.0050 26036.6 -03453.8 -07.5563 26264.7
 20 06 2013  08 31  -21.0052 26036.5 -03453.7 -07.5562 26264.6
 20 06 2013  08 32  -21.0055 26036.4 -03453.7 -07.5560 26264.5
 20 06 2013  08 33  -21.0056 26036.2 -03453.5 -07.5558 26264.3
 20 06 2013  08 34  -21.0055 26036.0 -03453.3 -07.5554 26264.0
 20 06 2013  08 35  -21.0055 26035.9 -03453.2 -07.5552 26263.9
 20 06 2013  08 36  -21.0052 26035.8 -03453.1 -07.5550 26263.7
 20 06 2013  08 37  -21.0051 26035.9 -03453.2 -07.5551 26263.9
 20 06 2013  08 38  -21.0048 26036.1 -03453.2 -07.5552 26264.1
 20 06 2013  08 39  -21.0045 26036.1 -03453.2 -07.5552 26264.1
 20 06 2013  08 40  -21.0042 26036.0 -03453.1 -07.5550 26264.0
 20 06 2013  08 41  -21.0035 26036.1 -03453.1 -07.5549 26264.1
 20 06 2013  08 42  -21.0020 26036.5 -03453.1 -07.5549 26264.5
 20 06 2013  08 43  -21.0007 26036.6 -03453.3 -07.5551 26264.6
 20 06 2013  08 44  -20.9997 26036.7 -03453.4 -07.5554 26264.8
 20 06 2013  08 45  -20.9990 26036.8 -03453.6 -07.5557 26264.8
 20 06 2013  08 46  -20.9989 26036.8 -03453.7 -07.5560 26264.8
 20 06 2013  08 47  -20.9987 26036.8 -03453.8 -07.5561 26264.9
 20 06 2013  08 48  -20.9986 26036.9 -03453.9 -07.5563 26265.0
 20 06 2013  08 49  -20.9983 26036.9 -03453.9 -07.5563 26264.9
 20 06 2013  08 50  -20.9980 26036.9 -03453.9 -07.5564 26265.0
 20 06 2013  08 51  -20.9975 26037.1 -03454.0 -07.5566 26265.2
 20 06 2013  08 52  -20.9968 26037.0 -03454.0 -07.5566 26265.1
 20 06 2013  08 53  -20.9959 26036.9 -03454.0 -07.5565 26265.0
 20 06 2013  08 54  -20.9955 26037.0 -03454.0 -07.5566 26265.1
 20 06 2013  08 55  -20.9946 26037.2 -03454.1 -07.5567 26265.3
 20 06 2013  08 56  -20.9932 26037.3 -03454.0 -07.5566 26265.4
 20 06 2013  08 57  -20.9920 26037.3 -03454.0 -07.5564 26265.4
 20 06 2013  08 58  -20.9908 26037.1 -03453.8 -07.5562 26265.2
 20 06 2013  08 59  -20.9895 26036.9 -03453.6 -07.5557 26264.9
 20 06 2013  09 00  -20.9884 26036.7 -03453.5 -07.5555 26264.7
 20 06 2013  09 01  -20.9870 26036.5 -03453.3 -07.5553 26264.5
 20 06 2013  09 02  -20.9854 26036.5 -03453.3 -07.5552 26264.5
 20 06 2013  09 03  -20.9835 26036.6 -03453.3 -07.5551 26264.6
 20 06 2013  09 04  -20.9820 26036.9 -03453.4 -07.5552 26264.9
 20 06 2013  09 05  -20.9811 26037.1 -03453.6 -07.5557 26265.1
 20 06 2013  09 06  -20.9802 26037.0 -03453.7 -07.5560 26265.0
 20 06 2013  09 07  -20.9794 26036.6 -03453.7 -07.5560 26264.7
 20 06 2013  09 08  -20.9786 26036.4 -03453.7 -07.5560 26264.4
 20 06 2013  09 09  -20.9781 26036.0 -03453.5 -07.5559 26264.0
 20 06 2013  09 10  -20.9780 26035.8 -03453.6 -07.5560 26263.8
 20 06 2013  09 11  -20.9784 26035.9 -03453.8 -07.5565 26263.9
 20 06 2013  09 12  -20.9779 26036.0 -03454.1 -07.5570 26264.2
 20 06 2013  09 13  -20.9768 26036.2 -03454.2 -07.5573 26264.4
 20 06 2013  09 14  -20.9762 26036.5 -03454.5 -07.5577 26264.7
 20 06 2013  09 15  -20.9756 26036.8 -03454.8 -07.5583 26265.0
 20 06 2013  09 16  -20.9747 26037.1 -03455.1 -07.5588 26265.4
 20 06 2013  09 17  -20.9743 26037.4 -03455.4 -07.5594 26265.7
 20 06 2013  09 18  -20.9736 26037.7 -03455.6 -07.5599 26266.1
 20 06 2013  09 19  -20.9722 26038.0 -03455.8 -07.5602 26266.4
 20 06 2013  09 20  -20.9716 26038.1 -03455.9 -07.5604 26266.4
 20 06 2013  09 21  -20.9713 26037.6 -03455.9 -07.5605 26265.9
 20 06 2013  09 22  -20.9708 26037.2 -03455.7 -07.5603 26265.5
 20 06 2013  09 23  -20.9708 26036.7 -03455.7 -07.5602 26265.1
 20 06 2013  09 24  -20.9712 26036.5 -03455.8 -07.5605 26264.8
 20 06 2013  09 25  -20.9716 26036.4 -03455.9 -07.5609 26264.7
 20 06 2013  09 26  -20.9717 26036.4 -03456.2 -07.5614 26264.8
 20 06 2013  09 27  -20.9719 26036.4 -03456.4 -07.5619 26264.9
 20 06 2013  09 28  -20.9718 26036.5 -03456.6 -07.5624 26264.9
 20 06 2013  09 29  -20.9720 26036.6 -03456.8 -07.5628 26265.1
 20 06 2013  09 30  -20.9715 26036.9 -03457.2 -07.5635 26265.5
 20 06 2013  09 31  -20.9709 26037.2 -03457.5 -07.5640 26265.8
 20 06 2013  09 32  -20.9706 26037.5 -03457.8 -07.5645 26266.1
 20 06 2013  09 33  -20.9703 26037.6 -03458.0 -07.5650 26266.2
 20 06 2013  09 34  -20.9699 26037.8 -03458.2 -07.5653 26266.4
 20 06 2013  09 35  -20.9691 26038.0 -03458.4 -07.5657 26266.7
 20 06 2013  09 36  -20.9683 26038.5 -03458.7 -07.5662 26267.2
 20 06 2013  09 37  -20.9666 26039.1 -03459.1 -07.5669 26267.8
 20 06 2013  09 38  -20.9653 26039.8 -03459.5 -07.5678 26268.6
 20 06 2013  09 39  -20.9641 26040.4 -03460.0 -07.5685 26269.3
 20 06 2013  09 40  -20.9630 26040.8 -03460.2 -07.5690 26269.6
 20 06 2013  09 41  -20.9618 26041.2 -03460.5 -07.5694 26270.1
 20 06 2013  09 42  -20.9609 26041.6 -03460.7 -07.5698 26270.5
 20 06 2013  09 43  -20.9598 26041.9 -03460.9 -07.5700 26270.8
 20 06 2013  09 44  -20.9589 26042.1 -03461.0 -07.5702 26271.1
 20 06 2013  09 45  -20.9580 26042.2 -03461.1 -07.5703 26271.2
 20 06 2013  09 46  -20.9575 26042.3 -03461.1 -07.5704 26271.2
 20 06 2013  09 47  -20.9582 26042.0 -03461.1 -07.5705 26271.0
 20 06 2013  09 48  -20.9583 26041.5 -03460.9 -07.5702 26270.5
 20 06 2013  09 49  -20.9582 26041.0 -03460.6 -07.5698 26270.0
 20 06 2013  09 50  -20.9580 26040.8 -03460.6 -07.5697 26269.8
 20 06 2013  09 51  -20.9582 26040.8 -03460.6 -07.5698 26269.7
 20 06 2013  09 52  -20.9578 26041.1 -03460.9 -07.5703 26270.0
 20 06 2013  09 53  -20.9573 26041.4 -03461.2 -07.5708 26270.4
 20 06 2013  09 54  -20.9575 26041.4 -03461.4 -07.5714 26270.5
 20 06 2013  09 55  -20.9575 26041.0 -03461.4 -07.5713 26270.0
 20 06 2013  09 56  -20.9575 26040.1 -03461.0 -07.5708 26269.1
 20 06 2013  09 57  -20.9589 26039.0 -03460.6 -07.5703 26268.0
 20 06 2013  09 58  -20.9603 26038.5 -03460.4 -07.5700 26267.5
 20 06 2013  09 59  -20.9609 26038.3 -03460.4 -07.5700 26267.2
 20 06 2013  10 00  -20.9614 26037.9 -03460.3 -07.5700 26266.8
 20 06 2013  10 01  -20.9625 26037.1 -03460.2 -07.5700 26266.0
 20 06 2013  10 02  -20.9651 26035.6 -03459.9 -07.5696 26264.5
 20 06 2013  10 03  -20.9665 26034.3 -03459.4 -07.5690 26263.1
 20 06 2013  10 04  -20.9682 26033.2 -03459.0 -07.5684 26262.0
 20 06 2013  10 05  -20.9702 26032.4 -03458.8 -07.5683 26261.1
 20 06 2013  10 06  -20.9719 26031.7 -03458.7 -07.5683 26260.5
 20 06 2013  10 07  -20.9728 26031.0 -03458.7 -07.5685 26259.8
 20 06 2013  10 08  -20.9724 26030.6 -03458.8 -07.5689 26259.4
 20 06 2013  10 09  -20.9717 26030.7 -03459.2 -07.5696 26259.5
 20 06 2013  10 10  -20.9716 26030.8 -03459.6 -07.5704 26259.7
 20 06 2013  10 11  -20.9713 26031.1 -03460.1 -07.5714 26260.0
 20 06 2013  10 12  -20.9703 26031.5 -03460.6 -07.5724 26260.5
 20 06 2013  10 13  -20.9693 26032.0 -03461.0 -07.5732 26261.0
 20 06 2013  10 14  -20.9687 26032.3 -03461.4 -07.5739 26261.5
 20 06 2013  10 15  -20.9676 26032.8 -03461.7 -07.5745 26261.9
 20 06 2013  10 16  -20.9673 26033.1 -03462.0 -07.5750 26262.3
 20 06 2013  10 17  -20.9679 26033.2 -03462.3 -07.5755 26262.5
 20 06 2013  10 18  -20.9682 26033.3 -03462.4 -07.5759 26262.5
 20 06 2013  10 19  -20.9684 26033.4 -03462.6 -07.5762 26262.7
 20 06 2013  10 20  -20.9685 26033.4 -03462.7 -07.5763 26262.7
 20 06 2013  10 21  -20.9687 26033.5 -03462.8 -07.5766 26262.7
 20 06 2013  10 22  -20.9690 26033.5 -03462.9 -07.5768 26262.8
 20 06 2013  10 23  -20.9697 26033.5 -03463.0 -07.5771 26262.8
 20 06 2013  10 24  -20.9704 26033.5 -03463.2 -07.5775 26262.8
 20 06 2013  10 25  -20.9710 26033.7 -03463.4 -07.5778 26263.1
 20 06 2013  10 26  -20.9714 26033.9 -03463.5 -07.5781 26263.2
 20 06 2013  10 27  -20.9718 26034.0 -03463.7 -07.5784 26263.4
 20 06 2013  10 28  -20.9724 26034.1 -03463.8 -07.5787 26263.5
 20 06 2013  10 29  -20.9735 26034.0 -03463.9 -07.5789 26263.4
 20 06 2013  10 30  -20.9746 26033.8 -03464.0 -07.5790 26263.3
 20 06 2013  10 31  -20.9752 26033.8 -03464.0 -07.5792 26263.2
 20 06 2013  10 32  -20.9756 26033.7 -03464.1 -07.5793 26263.2
 20 06 2013  10 33  -20.9764 26033.6 -03464.0 -07.5793 26263.0
 20 06 2013  10 34  -20.9772 26033.5 -03464.0 -07.5792 26262.9
 20 06 2013  10 35  -20.9776 26033.5 -03464.1 -07.5793 26263.0
 20 06 2013  10 36  -20.9780 26033.7 -03464.1 -07.5795 26263.2
 20 06 2013  10 37  -20.9789 26033.7 -03464.2 -07.5796 26263.2
 20 06 2013  10 38  -20.9798 26033.7 -03464.3 -07.5797 26263.2
 20 06 2013  10 39  -20.9802 26033.9 -03464.4 -07.5799 26263.4
 20 06 2013  10 40  -20.9806 26034.0 -03464.5 -07.5801 26263.5
 20 06 2013  10 41  -20.9809 26034.1 -03464.6 -07.5804 26263.6
 20 06 2013  10 42  -20.9815 26034.0 -03464.7 -07.5806 26263.5
 20 06 2013  10 43  -20.9821 26033.8 -03464.8 -07.5807 26263.3
 20 06 2013  10 44  -20.9825 26033.7 -03464.9 -07.5810 26263.3
 20 06 2013  10 45  -20.9829 26033.8 -03465.0 -07.5813 26263.4
 20 06 2013  10 46  -20.9832 26033.9 -03465.2 -07.5816 26263.5
 20 06 2013  10 47  -20.9836 26034.0 -03465.2 -07.5817 26263.6
 20 06 2013  10 48  -20.9840 26034.2 -03465.3 -07.5819 26263.8
 20 06 2013  10 49  -20.9844 26034.5 -03465.5 -07.5821 26264.1
 20 06 2013  10 50  -20.9847 26034.8 -03465.6 -07.5823 26264.4
 20 06 2013  10 51  -20.9848 26034.8 -03465.6 -07.5823 26264.5
 20 06 2013  10 52  -20.9853 26035.0 -03465.7 -07.5824 26264.7
 20 06 2013  10 53  -20.9858 26035.2 -03465.8 -07.5826 26264.8
 20 06 2013  10 54  -20.9862 26035.2 -03465.8 -07.5827 26264.9
 20 06 2013  10 55  -20.9865 26035.4 -03465.9 -07.5828 26265.1
 20 06 2013  10 56  -20.9867 26035.6 -03466.0 -07.5830 26265.3
 20 06 2013  10 57  -20.9871 26035.9 -03466.1 -07.5832 26265.6
 20 06 2013  10 58  -20.9878 26036.1 -03466.3 -07.5833 26265.8
 20 06 2013  10 59  -20.9884 26036.4 -03466.3 -07.5834 26266.1
 20 06 2013  11 00  -20.9888 26036.5 -03466.3 -07.5834 26266.2
 20 06 2013  11 01  -20.9891 26036.6 -03466.3 -07.5833 26266.3
 20 06 2013  11 02  -20.9895 26036.6 -03466.3 -07.5832 26266.3
 20 06 2013  11 03  -20.9898 26036.6 -03466.2 -07.5832 26266.3
 20 06 2013  11 04  -20.9902 26036.8 -03466.3 -07.5832 26266.5
 20 06 2013  11 05  -20.9911 26036.9 -03466.3 -07.5832 26266.6
 20 06 2013  11 06  -20.9918 26036.9 -03466.3 -07.5832 26266.7
 20 06 2013  11 07  -20.9921 26037.1 -03466.3 -07.5831 26266.8
 20 06 2013  11 08  -20.9924 26037.1 -03466.2 -07.5830 26266.8
 20 06 2013  11 09  -20.9927 26037.1 -03466.2 -07.5830 26266.8
 20 06 2013  11 10  -20.9930 26037.2 -03466.3 -07.5830 26266.9
 20 06 2013  11 11  -20.9931 26037.3 -03466.3 -07.5831 26267.1
 20 06 2013  11 12  -20.9935 26037.5 -03466.4 -07.5831 26267.2
 20 06 2013  11 13  -20.9942 26037.7 -03466.4 -07.5832 26267.4
 20 06 2013  11 14  -20.9951 26037.8 -03466.5 -07.5833 26267.6
 20 06 2013  11 15  -20.9958 26038.2 -03466.6 -07.5835 26267.9
 20 06 2013  11 16  -20.9963 26038.4 -03466.7 -07.5835 26268.2
 20 06 2013  11 17  -20.9971 26038.5 -03466.7 -07.5836 26268.3
 20 06 2013  11 18  -20.9979 26038.7 -03466.7 -07.5836 26268.5
 20 06 2013  11 19  -20.9984 26039.1 -03466.8 -07.5837 26268.9
 20 06 2013  11 20  -20.9988 26039.4 -03466.8 -07.5835 26269.2
 20 06 2013  11 21  -20.9989 26039.8 -03466.7 -07.5833 26269.6
 20 06 2013  11 22  -20.9992 26039.9 -03466.6 -07.5830 26269.7
 20 06 2013  11 23  -20.9995 26040.2 -03466.6 -07.5829 26270.0
 20 06 2013  11 24  -20.9999 26040.7 -03466.7 -07.5830 26270.5
 20 06 2013  11 25  -21.0006 26041.1 -03466.8 -07.5830 26270.9
 20 06 2013  11 26  -21.0011 26041.4 -03466.8 -07.5829 26271.2
 20 06 2013  11 27  -21.0013 26042.1 -03466.9 -07.5830 26271.8
 20 06 2013  11 28  -21.0013 26042.8 -03467.0 -07.5830 26272.6
 20 06 2013  11 29  -21.0015 26043.4 -03467.0 -07.5829 26273.2
 20 06 2013  11 30  -21.0016 26044.0 -03467.0 -07.5827 26273.7
 20 06 2013  11 31  -21.0019 26044.6 -03466.9 -07.5824 26274.3
 20 06 2013  11 32  -21.0022 26045.1 -03466.9 -07.5821 26274.9
 20 06 2013  11 33  -21.0026 26045.4 -03466.7 -07.5816 26275.1
 20 06 2013  11 34  -21.0028 26046.1 -03466.6 -07.5813 26275.7
 20 06 2013  11 35  -21.0028 26046.8 -03466.5 -07.5809 26276.4
 20 06 2013  11 36  -21.0024 26047.4 -03466.4 -07.5804 26277.1
 20 06 2013  11 37  -21.0024 26047.5 -03466.1 -07.5797 26277.1
 20 06 2013  11 38  -21.0028 26047.8 -03465.9 -07.5793 26277.4
 20 06 2013  11 39  -21.0033 26048.0 -03465.8 -07.5790 26277.6
 20 06 2013  11 40  -21.0035 26048.0 -03465.7 -07.5786 26277.6
 20 06 2013  11 41  -21.0038 26048.0 -03465.5 -07.5783 26277.5
 20 06 2013  11 42  -21.0039 26048.3 -03465.5 -07.5783 26277.8
 20 06 2013  11 43  -21.0040 26048.7 -03465.5 -07.5782 26278.2
 20 06 2013  11 44  -21.0046 26048.8 -03465.5 -07.5781 26278.3
 20 06 2013  11 45  -21.0054 26049.0 -03465.5 -07.5780 26278.5
 20 06 2013  11 46  -21.0066 26048.9 -03465.4 -07.5779 26278.4
 20 06 2013  11 47  -21.0073 26049.1 -03465.5 -07.5779 26278.6
 20 06 2013  11 48  -21.0078 26048.9 -03465.3 -07.5777 26278.4
 20 06 2013  11 49  -21.0085 26049.4 -03465.6 -07.5781 26278.9
 20 06 2013  11 50  -21.0090 26049.4 -03465.6 -07.5781 26278.9
 20 06 2013  11 51  -21.0096 26049.5 -03465.7 -07.5782 26279.0
 20 06 2013  11 52  -21.0101 26049.7 -03465.8 -07.5784 26279.3
 20 06 2013  11 53  -21.0106 26050.2 -03466.0 -07.5787 26279.8
 20 06 2013  11 54  -21.0112 26050.9 -03466.2 -07.5790 26280.4
 20 06 2013  11 55  -21.0119 26051.3 -03466.3 -07.5791 26280.9
 20 06 2013  11 56  -21.0126 26051.6 -03466.3 -07.5790 26281.2
 20 06 2013  11 57  -21.0130 26052.1 -03466.5 -07.5791 26281.7
 20 06 2013  11 58  -21.0130 26052.6 -03466.5 -07.5792 26282.2
 20 06 2013  11 59  -21.0135 26052.8 -03466.5 -07.5790 26282.4
 20 06 2013  12 00  -21.0136 26053.0 -03466.5 -07.5790 26282.6
 20 06 2013  12 01  -21.0139 26052.8 -03466.4 -07.5789 26282.4
 20 06 2013  12 02  -21.0141 26053.1 -03466.6 -07.5791 26282.7
 20 06 2013  12 03  -21.0143 26053.3 -03466.7 -07.5794 26282.9
 20 06 2013  12 04  -21.0147 26053.7 -03467.0 -07.5798 26283.4
 20 06 2013  12 05  -21.0155 26054.0 -03467.2 -07.5801 26283.7
 20 06 2013  12 06  -21.0165 26053.9 -03467.1 -07.5800 26283.6
 20 06 2013  12 07  -21.0170 26053.9 -03467.1 -07.5800 26283.6
 20 06 2013  12 08  -21.0171 26054.2 -03467.1 -07.5801 26283.8
 20 06 2013  12 09  -21.0177 26054.1 -03467.1 -07.5800 26283.8
 20 06 2013  12 10  -21.0183 26053.7 -03467.0 -07.5798 26283.3
 20 06 2013  12 11  -21.0187 26053.5 -03467.0 -07.5800 26283.2
 20 06 2013  12 12  -21.0195 26053.4 -03467.1 -07.5802 26283.1
 20 06 2013  12 13  -21.0207 26053.3 -03467.2 -07.5805 26283.0
 20 06 2013  12 14  -21.0217 26053.3 -03467.3 -07.5807 26283.0
 20 06 2013  12 15  -21.0224 26053.1 -03467.4 -07.5808 26282.8
 20 06 2013  12 16  -21.0230 26053.1 -03467.5 -07.5810 26282.9
 20 06 2013  12 17  -21.0236 26053.2 -03467.6 -07.5813 26283.0
 20 06 2013  12 18  -21.0243 26053.1 -03467.6 -07.5814 26282.9
 20 06 2013  12 19  -21.0251 26053.2 -03467.7 -07.5815 26282.9
 20 06 2013  12 20  -21.0255 26053.2 -03467.7 -07.5816 26282.9
 20 06 2013  12 21  -21.0260 26053.3 -03467.9 -07.5818 26283.1
 20 06 2013  12 22  -21.0266 26053.5 -03468.0 -07.5820 26283.3
 20 06 2013  12 23  -21.0273 26053.9 -03468.1 -07.5821 26283.7
 20 06 2013  12 24  -21.0282 26054.1 -03468.1 -07.5821 26283.9
 20 06 2013  12 25  -21.0289 26054.2 -03468.0 -07.5819 26284.0
 20 06 2013  12 26  -21.0296 26054.7 -03468.2 -07.5822 26284.5
 20 06 2013  12 27  -21.0303 26055.1 -03468.3 -07.5822 26284.9
 20 06 2013  12 28  -21.0310 26055.5 -03468.3 -07.5821 26285.3
 20 06 2013  12 29  -21.0316 26055.7 -03468.2 -07.5819 26285.5
 20 06 2013  12 30  -21.0318 26056.0 -03468.1 -07.5816 26285.8
 20 06 2013  12 31  -21.0321 26056.7 -03468.2 -07.5816 26286.5
 20 06 2013  12 32  -21.0324 26057.4 -03468.3 -07.5815 26287.2
 20 06 2013  12 33  -21.0329 26057.8 -03468.2 -07.5813 26287.6
 20 06 2013  12 34  -21.0334 26058.4 -03468.2 -07.5811 26288.2
 20 06 2013  12 35  -21.0340 26058.9 -03468.2 -07.5809 26288.7
 20 06 2013  12 36  -21.0346 26059.4 -03468.1 -07.5806 26289.2
 20 06 2013  12 37  -21.0352 26059.9 -03468.0 -07.5802 26289.6
 20 06 2013  12 38  -21.0356 26060.1 -03467.8 -07.5798 26289.9
 20 06 2013  12 39  -21.0360 26060.5 -03467.7 -07.5794 26290.2
 20 06 2013  12 40  -21.0365 26061.1 -03467.7 -07.5793 26290.8
 20 06 2013  12 41  -21.0376 26061.6 -03467.6 -07.5789 26291.3
 20 06 2013  12 42  -21.0382 26061.8 -03467.4 -07.5783 26291.4
 20 06 2013  12 43  -21.0389 26061.9 -03467.1 -07.5778 26291.5
 20 06 2013  12 44  -21.0398 26062.1 -03467.0 -07.5774 26291.7
 20 06 2013  12 45  -21.0409 26062.1 -03466.8 -07.5770 26291.6
 20 06 2013  12 46  -21.0413 26062.2 -03466.6 -07.5765 26291.7
 20 06 2013  12 47  -21.0416 26062.2 -03466.4 -07.5761 26291.7
 20 06 2013  12 48  -21.0422 26062.4 -03466.2 -07.5757 26291.9
 20 06 2013  12 49  -21.0429 26063.1 -03466.3 -07.5756 26292.6
 20 06 2013  12 50  -21.0438 26063.9 -03466.3 -07.5754 26293.3
 20 06 2013  12 51  -21.0445 26064.5 -03466.1 -07.5749 26293.9
 20 06 2013  12 52  -21.0453 26064.9 -03465.9 -07.5742 26294.3
 20 06 2013  12 53  -21.0463 26065.0 -03465.6 -07.5735 26294.3
 20 06 2013  12 54  -21.0470 26065.3 -03465.4 -07.5730 26294.6
 20 06 2013  12 55  -21.0477 26065.4 -03465.1 -07.5723 26294.7
 20 06 2013  12 56  -21.0485 26065.4 -03464.7 -07.5715 26294.7
 20 06 2013  12 57  -21.0490 26065.6 -03464.4 -07.5708 26294.8
 20 06 2013  12 58  -21.0500 26065.5 -03463.9 -07.5699 26294.7
 20 06 2013  12 59  -21.0509 26065.2 -03463.5 -07.5690 26294.3
 20 06 2013  13 00  -21.0519 26065.0 -03463.1 -07.5681 26294.0
 20 06 2013  13 01  -21.0528 26064.6 -03462.7 -07.5674 26293.6
 20 06 2013  13 02  -21.0539 26064.0 -03462.2 -07.5665 26293.0
 20 06 2013  13 03  -21.0551 26063.5 -03461.7 -07.5656 26292.3
 20 06 2013  13 04  -21.0561 26063.6 -03461.5 -07.5651 26292.5
 20 06 2013  13 05  -21.0570 26063.9 -03461.3 -07.5646 26292.8
 20 06 2013  13 06  -21.0576 26064.6 -03461.2 -07.5642 26293.4
 20 06 2013  13 07  -21.0582 26065.1 -03461.0 -07.5637 26293.9
 20 06 2013  13 08  -21.0586 26065.5 -03460.8 -07.5631 26294.2
 20 06 2013  13 09  -21.0592 26065.3 -03460.3 -07.5622 26294.0
 20 06 2013  13 10  -21.0594 26065.2 -03459.9 -07.5612 26293.8
 20 06 2013  13 11  -21.0598 26065.1 -03459.5 -07.5603 26293.7
 20 06 2013  13 12  -21.0606 26064.8 -03459.0 -07.5594 26293.4
 20 06 2013  13 13  -21.0617 26064.1 -03458.4 -07.5583 26292.5
 20 06 2013  13 14  -21.0624 26062.9 -03457.7 -07.5571 26291.2
 20 06 2013  13 15  -21.0630 26061.9 -03457.1 -07.5561 26290.2
 20 06 2013  13 16  -21.0639 26061.3 -03456.7 -07.5554 26289.5
 20 06 2013  13 17  -21.0651 26061.4 -03456.5 -07.5550 26289.6
 20 06 2013  13 18  -21.0660 26061.7 -03456.3 -07.5546 26289.9
 20 06 2013  13 19  -21.0666 26061.3 -03455.8 -07.5536 26289.5
 20 06 2013  13 20  -21.0668 26061.9 -03455.8 -07.5532 26290.0
 20 06 2013  13 21  -21.0670 26062.5 -03455.6 -07.5528 26290.6
 20 06 2013  13 22  -21.0667 26062.8 -03455.4 -07.5523 26290.9
 20 06 2013  13 23  -21.0663 26063.0 -03455.3 -07.5519 26291.1
 20 06 2013  13 24  -21.0661 26063.6 -03455.3 -07.5518 26291.7
 20 06 2013  13 25  -21.0657 26064.3 -03455.4 -07.5517 26292.4
 20 06 2013  13 26  -21.0656 26065.4 -03455.5 -07.5517 26293.5
 20 06 2013  13 27  -21.0661 26066.4 -03455.6 -07.5516 26294.5
 20 06 2013  13 28  -21.0667 26067.1 -03455.4 -07.5509 26295.1
 20 06 2013  13 29  -21.0670 26067.4 -03454.9 -07.5498 26295.3
 20 06 2013  13 30  -21.0668 26067.4 -03454.3 -07.5484 26295.2
 20 06 2013  13 31  -21.0667 26067.6 -03453.7 -07.5472 26295.4
 20 06 2013  13 32  -21.0666 26067.5 -03453.1 -07.5459 26295.2
 20 06 2013  13 33  -21.0663 26067.3 -03452.5 -07.5446 26294.9
 20 06 2013  13 34  -21.0663 26067.7 -03452.1 -07.5437 26295.2
 20 06 2013  13 35  -21.0666 26068.1 -03451.7 -07.5427 26295.7
 20 06 2013  13 36  -21.0666 26068.6 -03451.3 -07.5416 26296.0
 20 06 2013  13 37  -21.0665 26069.0 -03450.8 -07.5405 26296.5
 20 06 2013  13 38  -21.0662 26069.5 -03450.4 -07.5395 26296.8
 20 06 2013  13 39  -21.0657 26069.1 -03449.8 -07.5382 26296.4
 20 06 2013  13 40  -21.0651 26068.7 -03449.2 -07.5371 26295.9
 20 06 2013  13 41  -21.0648 26068.9 -03449.0 -07.5366 26296.1
 20 06 2013  13 42  -21.0650 26069.4 -03448.8 -07.5361 26296.5
 20 06 2013  13 43  -21.0647 26070.2 -03448.7 -07.5356 26297.3
 20 06 2013  13 44  -21.0642 26070.8 -03448.5 -07.5350 26297.9
 20 06 2013  13 45  -21.0635 26070.7 -03448.0 -07.5339 26297.7
 20 06 2013  13 46  -21.0631 26070.5 -03447.6 -07.5331 26297.4
 20 06 2013  13 47  -21.0628 26070.4 -03447.3 -07.5325 26297.4
 20 06 2013  13 48  -21.0627 26070.5 -03447.1 -07.5321 26297.4
 20 06 2013  13 49  -21.0625 26070.1 -03446.7 -07.5314 26297.0
 20 06 2013  13 50  -21.0621 26069.5 -03446.3 -07.5306 26296.3
 20 06 2013  13 51  -21.0621 26069.4 -03446.2 -07.5304 26296.2
 20 06 2013  13 52  -21.0621 26069.4 -03446.1 -07.5302 26296.2
 20 06 2013  13 53  -21.0632 26069.4 -03445.9 -07.5298 26296.2
 20 06 2013  13 54  -21.0666 26069.0 -03445.5 -07.5291 26295.7
 20 06 2013  13 55  -21.0663 26068.8 -03445.3 -07.5286 26295.4
 20 06 2013  13 56  -21.0661 26068.2 -03445.0 -07.5281 26294.9
 20 06 2013  13 57  -21.0660 26067.9 -03444.9 -07.5280 26294.6
 20 06 2013  13 58  -21.0663 26067.6 -03444.8 -07.5279 26294.2
 20 06 2013  13 59  -21.0666 26067.7 -03444.9 -07.5281 26294.3
 20 06 2013  14 00  -21.0669 26068.4 -03445.2 -07.5286 26295.0
 20 06 2013  14 01  -21.0674 26068.5 -03445.2 -07.5286 26295.1
 20 06 2013  14 02  -21.0678 26068.9 -03445.3 -07.5287 26295.6
 20 06 2013  14 03  -21.0684 26069.2 -03445.4 -07.5288 26295.9
 20 06 2013  14 04  -21.0690 26069.1 -03445.3 -07.5287 26295.8
 20 06 2013  14 05  -21.0694 26069.5 -03445.5 -07.5290 26296.2
 20 06 2013  14 06  -21.0698 26069.6 -03445.5 -07.5289 26296.3
 20 06 2013  14 07  -21.0698 26069.4 -03445.5 -07.5289 26296.1
 20 06 2013  14 08  -21.0701 26069.3 -03445.6 -07.5291 26296.0
 20 06 2013  14 09  -21.0709 26069.6 -03445.9 -07.5296 26296.4
 20 06 2013  14 10  -21.0712 26070.0 -03446.1 -07.5300 26296.8
 20 06 2013  14 11  -21.0716 26069.8 -03446.1 -07.5301 26296.6
 20 06 2013  14 12  -21.0718 26069.8 -03446.2 -07.5303 26296.6
 20 06 2013  14 13  -21.0717 26069.6 -03446.3 -07.5306 26296.4
 20 06 2013  14 14  -21.0698 26070.0 -03446.8 -07.5316 26296.9
 20 06 2013  14 15  -21.0710 26070.4 -03447.1 -07.5322 26297.3
 20 06 2013  14 16  -21.0720 26070.4 -03447.2 -07.5323 26297.3
 20 06 2013  14 17  -21.0731 26070.5 -03447.3 -07.5326 26297.4
 20 06 2013  14 18  -21.0736 26070.3 -03447.3 -07.5326 26297.3
 20 06 2013  14 19  -21.0742 26070.1 -03447.3 -07.5327 26297.1
 20 06 2013  14 20  -21.0750 26070.4 -03447.5 -07.5330 26297.3
 20 06 2013  14 21  -21.0762 26070.8 -03447.8 -07.5334 26297.7
 20 06 2013  14 22  -21.0771 26070.9 -03447.9 -07.5337 26297.9
 20 06 2013  14 23  -21.0776 26070.9 -03447.9 -07.5337 26297.9
 20 06 2013  14 24  -21.0784 26070.9 -03447.9 -07.5337 26297.9
 20 06 2013  14 25  -21.0794 26070.9 -03448.0 -07.5338 26298.0
 20 06 2013  14 26  -21.0804 26070.9 -03447.9 -07.5338 26297.9
 20 06 2013  14 27  -21.0812 26070.9 -03447.9 -07.5338 26297.9
 20 06 2013  14 28  -21.0821 26071.0 -03448.0 -07.5339 26298.1
 20 06 2013  14 29  -21.0831 26071.0 -03448.0 -07.5339 26298.0
 20 06 2013  14 30  -21.0838 26070.9 -03447.9 -07.5338 26297.9
 20 06 2013  14 31  -21.0844 26070.8 -03447.9 -07.5336 26297.8
 20 06 2013  14 32  -21.0849 26070.8 -03447.8 -07.5335 26297.8
 20 06 2013  14 33  -21.0853 26070.8 -03447.7 -07.5334 26297.8
 20 06 2013  14 34  -21.0858 26070.9 -03447.7 -07.5333 26297.8
 20 06 2013  14 35  -21.0860 26070.6 -03447.5 -07.5330 26297.6
 20 06 2013  14 36  -21.0864 26070.2 -03447.3 -07.5325 26297.2
 20 06 2013  14 37  -21.0866 26069.8 -03447.0 -07.5321 26296.7
 20 06 2013  14 38  -21.0869 26069.5 -03446.8 -07.5317 26296.4
 20 06 2013  14 39  -21.0872 26069.4 -03446.7 -07.5315 26296.2
 20 06 2013  14 40  -21.0877 26069.4 -03446.5 -07.5312 26296.2
 20 06 2013  14 41  -21.0881 26069.2 -03446.3 -07.5308 26296.0
 20 06 2013  14 42  -21.0885 26069.0 -03446.2 -07.5306 26295.8
 20 06 2013  14 43  -21.0889 26068.7 -03446.0 -07.5301 26295.5
 20 06 2013  14 44  -21.0890 26068.6 -03445.7 -07.5297 26295.3
 20 06 2013  14 45  -21.0891 26068.6 -03445.6 -07.5294 26295.4
 20 06 2013  14 46  -21.0894 26069.0 -03445.6 -07.5293 26295.7
 20 06 2013  14 47  -21.0898 26069.2 -03445.5 -07.5290 26295.9
 20 06 2013  14 48  -21.0901 26069.4 -03445.4 -07.5287 26296.0
 20 06 2013  14 49  -21.0900 26068.9 -03445.0 -07.5280 26295.6
 20 06 2013  14 50  -21.0898 26068.3 -03444.6 -07.5273 26294.9
 20 06 2013  14 51  -21.0900 26068.3 -03444.5 -07.5272 26294.9
 20 06 2013  14 52  -21.0906 26068.6 -03444.6 -07.5272 26295.2
 20 06 2013  14 53  -21.0910 26068.6 -03444.5 -07.5269 26295.2
 20 06 2013  14 54  -21.0910 26068.5 -03444.2 -07.5264 26295.0
 20 06 2013  14 55  -21.0910 26068.2 -03444.0 -07.5259 26294.7
 20 06 2013  14 56  -21.0907 26068.0 -03443.8 -07.5256 26294.5
 20 06 2013  14 57  -21.0904 26067.6 -03443.5 -07.5252 26294.0
 20 06 2013  14 58  -21.0899 26067.3 -03443.4 -07.5249 26293.8
 20 06 2013  14 59  -21.0894 26067.0 -03443.3 -07.5247 26293.5
 20 06 2013  15 00  -21.0891 26066.5 -03443.0 -07.5244 26292.9
 20 06 2013  15 01  -21.0885 26066.0 -03442.9 -07.5242 26292.4
 20 06 2013  15 02  -21.0883 26065.5 -03442.8 -07.5242 26291.9
 20 06 2013  15 03  -21.0876 26064.8 -03442.6 -07.5240 26291.1
 20 06 2013  15 04  -21.0869 26064.2 -03442.6 -07.5241 26290.6
 20 06 2013  15 05  -21.0864 26063.8 -03442.6 -07.5242 26290.1
 20 06 2013  15 06  -21.0859 26063.4 -03442.7 -07.5245 26289.8
 20 06 2013  15 07  -21.0858 26063.0 -03442.7 -07.5248 26289.4
 20 06 2013  15 08  -21.0855 26062.4 -03442.6 -07.5247 26288.8
 20 06 2013  15 09  -21.0854 26062.1 -03442.7 -07.5250 26288.5
 20 06 2013  15 10  -21.0855 26062.0 -03442.8 -07.5252 26288.4
 20 06 2013  15 11  -21.0853 26061.9 -03442.8 -07.5253 26288.3
 20 06 2013  15 12  -21.0853 26061.8 -03442.9 -07.5255 26288.2
 20 06 2013  15 13  -21.0857 26061.7 -03442.9 -07.5256 26288.1
 20 06 2013  15 14  -21.0859 26061.6 -03443.0 -07.5258 26288.1
 20 06 2013  15 15  -21.0864 26061.8 -03443.1 -07.5259 26288.2
 20 06 2013  15 16  -21.0869 26062.0 -03443.2 -07.5260 26288.5
 20 06 2013  15 17  -21.0870 26061.8 -03443.0 -07.5256 26288.2
 20 06 2013  15 18  -21.0875 26061.6 -03442.8 -07.5254 26288.0
 20 06 2013  15 19  -21.0881 26061.6 -03442.8 -07.5253 26288.0
 20 06 2013  15 20  -21.0883 26061.3 -03442.6 -07.5250 26287.6
 20 06 2013  15 21  -21.0885 26061.1 -03442.5 -07.5248 26287.4
 20 06 2013  15 22  -21.0890 26061.3 -03442.5 -07.5248 26287.6
 20 06 2013  15 23  -21.0893 26061.6 -03442.6 -07.5248 26288.0
 20 06 2013  15 24  -21.0893 26061.4 -03442.3 -07.5244 26287.7
 20 06 2013  15 25  -21.0901 26061.7 -03442.4 -07.5243 26288.0
 20 06 2013  15 26  -21.0909 26062.0 -03442.3 -07.5242 26288.3
 20 06 2013  15 27  -21.0916 26062.1 -03442.2 -07.5239 26288.5
 20 06 2013  15 28  -21.0921 26062.2 -03442.0 -07.5235 26288.5
 20 06 2013  15 29  -21.0925 26062.0 -03441.8 -07.5229 26288.3
 20 06 2013  15 30  -21.0930 26062.0 -03441.6 -07.5226 26288.2
 20 06 2013  15 31  -21.0932 26061.9 -03441.4 -07.5222 26288.1
 20 06 2013  15 32  -21.0939 26062.0 -03441.3 -07.5220 26288.2
 20 06 2013  15 33  -21.0945 26062.1 -03441.2 -07.5217 26288.3
 20 06 2013  15 34  -21.0951 26062.4 -03441.2 -07.5216 26288.6
 20 06 2013  15 35  -21.0956 26062.5 -03441.0 -07.5211 26288.6
 20 06 2013  15 36  -21.0961 26062.7 -03440.9 -07.5208 26288.8
 20 06 2013  15 37  -21.0958 26062.4 -03440.5 -07.5201 26288.5
 20 06 2013  15 38  -21.0957 26062.5 -03440.4 -07.5198 26288.6
 20 06 2013  15 39  -21.0959 26062.3 -03440.2 -07.5194 26288.4
 20 06 2013  15 40  -21.0960 26062.0 -03439.9 -07.5189 26288.1
 20 06 2013  15 41  -21.0960 26061.8 -03439.7 -07.5186 26287.8
 20 06 2013  15 42  -21.0958 26061.6 -03439.5 -07.5182 26287.6
 20 06 2013  15 43  -21.0958 26061.7 -03439.4 -07.5180 26287.7
 20 06 2013  15 44  -21.0959 26061.7 -03439.4 -07.5179 26287.7
 20 06 2013  15 45  -21.0960 26061.6 -03439.3 -07.5178 26287.6
 20 06 2013  15 46  -21.0959 26061.1 -03439.1 -07.5175 26287.0
 20 06 2013  15 47  -21.0959 26060.7 -03439.0 -07.5174 26286.7
 20 06 2013  15 48  -21.0956 26060.6 -03439.0 -07.5174 26286.5
 20 06 2013  15 49  -21.0953 26060.3 -03438.9 -07.5173 26286.3
 20 06 2013  15 50  -21.0950 26059.8 -03438.8 -07.5171 26285.7
 20 06 2013  15 51  -21.0946 26059.5 -03438.7 -07.5171 26285.4
 20 06 2013  15 52  -21.0944 26059.3 -03438.7 -07.5171 26285.2
 20 06 2013  15 53  -21.0940 26059.0 -03438.6 -07.5170 26284.9
 20 06 2013  15 54  -21.0937 26058.5 -03438.5 -07.5169 26284.4
 20 06 2013  15 55  -21.0940 26058.3 -03438.6 -07.5171 26284.2
 20 06 2013  15 56  -21.0942 26058.5 -03438.7 -07.5174 26284.4
 20 06 2013  15 57  -21.0940 26058.4 -03438.7 -07.5174 26284.3
 20 06 2013  15 58  -21.0938 26058.6 -03438.8 -07.5176 26284.6
 20 06 2013  15 59  -21.0937 26059.0 -03439.1 -07.5180 26284.9
 20 06 2013  16 00  -21.0932 26059.1 -03439.1 -07.5181 26285.1
 20 06 2013  16 01  -21.0928 26059.3 -03439.2 -07.5182 26285.3
 20 06 2013  16 02  -21.0924 26059.2 -03439.2 -07.5183 26285.2
 20 06 2013  16 03  -21.0918 26058.8 -03439.1 -07.5180 26284.8
 20 06 2013  16 04  -21.0906 26058.0 -03438.7 -07.5175 26283.9
 20 06 2013  16 05  -21.0898 26057.1 -03438.5 -07.5172 26283.0
 20 06 2013  16 06  -21.0891 26056.0 -03438.2 -07.5169 26281.9
 20 06 2013  16 07  -21.0880 26055.0 -03438.0 -07.5167 26280.9
 20 06 2013  16 08  -21.0861 26053.6 -03437.7 -07.5166 26279.4
 20 06 2013  16 09  -21.0850 26052.6 -03437.7 -07.5169 26278.4
 20 06 2013  16 10  -21.0841 26051.6 -03437.8 -07.5173 26277.4
 20 06 2013  16 11  -21.0828 26050.5 -03437.7 -07.5176 26276.4
 20 06 2013  16 12  -21.0812 26049.3 -03437.7 -07.5177 26275.1
 20 06 2013  16 13  -21.0796 26048.3 -03437.7 -07.5180 26274.1
 20 06 2013  16 14  -21.0785 26047.3 -03437.8 -07.5186 26273.2
 20 06 2013  16 15  -21.0774 26046.6 -03438.0 -07.5192 26272.5
 20 06 2013  16 16  -21.0764 26046.3 -03438.3 -07.5200 26272.2
 20 06 2013  16 17  -21.0756 26045.9 -03438.6 -07.5206 26271.9
 20 06 2013  16 18  -21.0748 26045.6 -03438.8 -07.5212 26271.6
 20 06 2013  16 19  -21.0737 26045.1 -03438.9 -07.5216 26271.2
 20 06 2013  16 20  -21.0726 26044.8 -03439.1 -07.5222 26270.8
 20 06 2013  16 21  -21.0718 26044.4 -03439.3 -07.5227 26270.6
 20 06 2013  16 22  -21.0710 26044.0 -03439.5 -07.5231 26270.2
 20 06 2013  16 23  -21.0698 26043.5 -03439.6 -07.5235 26269.7
 20 06 2013  16 24  -21.0687 26043.0 -03439.7 -07.5239 26269.2
 20 06 2013  16 25  -21.0681 26042.9 -03440.0 -07.5246 26269.1
 20 06 2013  16 26  -21.0671 26042.3 -03440.1 -07.5250 26268.5
 20 06 2013  16 27  -21.0659 26041.5 -03440.1 -07.5252 26267.7
 20 06 2013  16 28  -21.0648 26040.8 -03440.2 -07.5257 26267.1
 20 06 2013  16 29  -21.0635 26040.3 -03440.4 -07.5263 26266.6
 20 06 2013  16 30  -21.0627 26040.2 -03440.8 -07.5272 26266.6
 20 06 2013  16 31  -21.0618 26040.0 -03441.1 -07.5278 26266.4
 20 06 2013  16 32  -21.0610 26040.0 -03441.4 -07.5285 26266.4
 20 06 2013  16 33  -21.0602 26039.9 -03441.7 -07.5292 26266.3
 20 06 2013  16 34  -21.0590 26039.5 -03441.9 -07.5296 26265.9
 20 06 2013  16 35  -21.0580 26039.1 -03442.1 -07.5301 26265.6
 20 06 2013  16 36  -21.0570 26039.0 -03442.4 -07.5308 26265.5
 20 06 2013  16 37  -21.0560 26039.2 -03442.8 -07.5317 26265.8
 20 06 2013  16 38  -21.0553 26039.4 -03443.2 -07.5325 26266.1
 20 06 2013  16 39  -21.0549 26039.9 -03443.7 -07.5335 26266.6
 20 06 2013  16 40  -21.0545 26040.1 -03444.0 -07.5341 26266.8
 20 06 2013  16 41  -21.0537 26040.5 -03444.4 -07.5349 26267.4
 20 06 2013  16 42  -21.0533 26041.2 -03444.9 -07.5357 26268.1
 20 06 2013  16 43  -21.0530 26041.7 -03445.2 -07.5363 26268.6
 20 06 2013  16 44  -21.0527 26042.3 -03445.6 -07.5369 26269.2
 20 06 2013  16 45  -21.0527 26042.8 -03445.9 -07.5374 26269.8
 20 06 2013  16 46  -21.0523 26043.2 -03446.0 -07.5376 26270.2
 20 06 2013  16 47  -21.0516 26043.0 -03446.0 -07.5375 26270.0
 20 06 2013  16 48  -21.0507 26042.7 -03445.9 -07.5374 26269.7
 20 06 2013  16 49  -21.0502 26042.6 -03446.0 -07.5377 26269.6
 20 06 2013  16 50  -21.0494 26042.0 -03445.9 -07.5377 26269.0
 20 06 2013  16 51  -21.0483 26041.6 -03445.9 -07.5377 26268.6
 20 06 2013  16 52  -21.0483 26041.1 -03445.9 -07.5378 26268.1
 20 06 2013  16 53  -21.0471 26039.9 -03445.6 -07.5375 26266.9
 20 06 2013  16 54  -21.0461 26038.8 -03445.4 -07.5374 26265.8
 20 06 2013  16 55  -21.0462 26038.1 -03445.5 -07.5380 26265.1
 20 06 2013  16 56  -21.0459 26037.9 -03445.7 -07.5385 26264.9
 20 06 2013  16 57  -21.0454 26037.7 -03446.0 -07.5391 26264.8
 20 06 2013  16 58  -21.0449 26037.2 -03446.1 -07.5394 26264.2
 20 06 2013  16 59  -21.0441 26036.6 -03446.1 -07.5396 26263.7
 20 06 2013  17 00  -21.0438 26035.6 -03445.9 -07.5396 26262.6
 20 06 2013  17 01  -21.0427 26034.4 -03445.7 -07.5393 26261.5
 20 06 2013  17 02  -21.0412 26033.2 -03445.6 -07.5395 26260.2
 20 06 2013  17 03  -21.0402 26032.1 -03445.6 -07.5398 26259.1
 20 06 2013  17 04  -21.0396 26031.1 -03445.8 -07.5405 26258.2
 20 06 2013  17 05  -21.0393 26030.9 -03446.2 -07.5414 26258.0
 20 06 2013  17 06  -21.0390 26031.4 -03446.9 -07.5428 26258.6
 20 06 2013  17 07  -21.0398 26032.3 -03447.7 -07.5442 26259.6
 20 06 2013  17 08  -21.0406 26033.3 -03448.3 -07.5452 26260.7
 20 06 2013  17 09  -21.0413 26034.4 -03448.7 -07.5459 26261.8
 20 06 2013  17 10  -21.0417 26035.4 -03449.1 -07.5464 26262.9
 20 06 2013  17 11  -21.0426 26037.3 -03449.8 -07.5475 26264.9
 20 06 2013  17 12  -21.0429 26038.1 -03450.0 -07.5477 26265.6
 20 06 2013  17 13  -21.0435 26039.2 -03450.3 -07.5479 26266.8
 20 06 2013  17 14  -21.0438 26040.3 -03450.5 -07.5480 26267.9
 20 06 2013  17 15  -21.0433 26041.0 -03450.5 -07.5479 26268.6
 20 06 2013  17 16  -21.0430 26041.3 -03450.5 -07.5477 26268.9
 20 06 2013  17 17  -21.0420 26041.3 -03450.3 -07.5473 26268.9
 20 06 2013  17 18  -21.0415 26041.1 -03450.1 -07.5470 26268.7
 20 06 2013  17 19  -21.0408 26040.6 -03449.9 -07.5466 26268.2
 20 06 2013  17 20  -21.0401 26040.1 -03449.7 -07.5464 26267.6
 20 06 2013  17 21  -21.0395 26039.4 -03449.6 -07.5463 26266.9
 20 06 2013  17 22  -21.0387 26038.6 -03449.4 -07.5463 26266.1
 20 06 2013  17 23  -21.0379 26038.0 -03449.4 -07.5465 26265.5
 20 06 2013  17 24  -21.0372 26037.3 -03449.5 -07.5468 26264.8
 20 06 2013  17 25  -21.0366 26036.9 -03449.7 -07.5472 26264.4
 20 06 2013  17 26  -21.0360 26036.7 -03449.9 -07.5479 26264.2
 20 06 2013  17 27  -21.0359 26036.9 -03450.4 -07.5489 26264.6
 20 06 2013  17 28  -21.0359 26037.2 -03450.9 -07.5497 26264.9
 20 06 2013  17 29  -21.0359 26038.0 -03451.4 -07.5507 26265.8
 20 06 2013  17 30  -21.0361 26038.5 -03451.7 -07.5512 26266.2
 20 06 2013  17 31  -21.0358 26038.8 -03451.9 -07.5515 26266.6
 20 06 2013  17 32  -21.0355 26038.9 -03452.0 -07.5517 26266.7
 20 06 2013  17 33  -21.0354 26038.6 -03451.9 -07.5516 26266.4
 20 06 2013  17 34  -21.0344 26038.0 -03451.8 -07.5514 26265.8
 20 06 2013  17 35  -21.0337 26037.3 -03451.7 -07.5515 26265.1
 20 06 2013  17 36  -21.0329 26036.6 -03451.8 -07.5518 26264.4
 20 06 2013  17 37  -21.0324 26035.7 -03451.8 -07.5521 26263.5
 20 06 2013  17 38  -21.0317 26034.9 -03451.8 -07.5525 26262.8
 20 06 2013  17 39  -21.0313 26034.2 -03452.0 -07.5530 26262.0
 20 06 2013  17 40  -21.0307 26033.5 -03452.1 -07.5536 26261.3
 20 06 2013  17 41  -21.0299 26032.8 -03452.3 -07.5542 26260.7
 20 06 2013  17 42  -21.0293 26032.0 -03452.5 -07.5548 26260.0
 20 06 2013  17 43  -21.0284 26031.3 -03452.8 -07.5555 26259.3
 20 06 2013  17 44  -21.0283 26031.2 -03453.3 -07.5567 26259.3
 20 06 2013  17 45  -21.0282 26031.0 -03453.7 -07.5575 26259.1
 20 06 2013  17 46  -21.0280 26030.9 -03454.0 -07.5583 26259.1
 20 06 2013  17 47  -21.0280 26030.8 -03454.3 -07.5590 26259.0
 20 06 2013  17 48  -21.0279 26030.6 -03454.6 -07.5597 26258.9
 20 06 2013  17 49  -21.0281 26030.7 -03455.0 -07.5605 26258.9
 20 06 2013  17 50  -21.0279 26030.7 -03455.2 -07.5611 26259.0
 20 06 2013  17 51  -21.0279 26031.0 -03455.6 -07.5618 26259.4
 20 06 2013  17 52  -21.0281 26031.4 -03456.0 -07.5625 26259.8
 20 06 2013  17 53  -21.0281 26031.3 -03456.1 -07.5628 26259.8
 20 06 2013  17 54  -21.0280 26031.4 -03456.3 -07.5631 26259.9
 20 06 2013  17 55  -21.0281 26031.5 -03456.5 -07.5635 26259.9
 20 06 2013  17 56  -21.0281 26031.6 -03456.7 -07.5638 26260.1
 20 06 2013  17 57  -21.0283 26031.9 -03456.9 -07.5643 26260.4
 20 06 2013  17 58  -21.0286 26032.2 -03457.1 -07.5646 26260.8
 20 06 2013  17 59  -21.0289 26032.6 -03457.3 -07.5650 26261.2
 20 06 2013  18 00  -21.0298 26033.1 -03457.5 -07.5652 26261.7
 20 06 2013  18 01  -21.0304 26033.5 -03457.6 -07.5653 26262.1
 20 06 2013  18 02  -21.0306 26033.8 -03457.5 -07.5651 26262.4
 20 06 2013  18 03  -21.0306 26034.1 -03457.6 -07.5651 26262.7
 20 06 2013  18 04  -21.0314 26035.2 -03457.9 -07.5656 26263.8
 20 06 2013  18 05  -21.0322 26035.7 -03458.0 -07.5656 26264.3
 20 06 2013  18 06  -21.0329 26035.8 -03457.9 -07.5653 26264.4
 20 06 2013  18 07  -21.0332 26035.8 -03457.7 -07.5648 26264.4
 20 06 2013  18 08  -21.0338 26035.9 -03457.5 -07.5645 26264.4
 20 06 2013  18 09  -21.0348 26035.9 -03457.4 -07.5642 26264.5
 20 06 2013  18 10  -21.0350 26035.5 -03457.0 -07.5635 26264.0
 20 06 2013  18 11  -21.0355 26035.3 -03456.8 -07.5632 26263.8
 20 06 2013  18 12  -21.0369 26035.6 -03456.8 -07.5630 26264.0
 20 06 2013  18 13  -21.0380 26036.3 -03456.9 -07.5629 26264.8
 20 06 2013  18 14  -21.0385 26036.7 -03456.8 -07.5627 26265.2
 20 06 2013  18 15  -21.0391 26037.2 -03456.7 -07.5623 26265.7
 20 06 2013  18 16  -21.0401 26037.7 -03456.6 -07.5620 26266.1
 20 06 2013  18 17  -21.0406 26037.6 -03456.3 -07.5613 26266.0
 20 06 2013  18 18  -21.0419 26038.3 -03456.4 -07.5613 26266.7
 20 06 2013  18 19  -21.0432 26038.8 -03456.4 -07.5612 26267.2
 20 06 2013  18 20  -21.0445 26039.5 -03456.4 -07.5610 26267.8
 20 06 2013  18 21  -21.0445 26039.1 -03455.9 -07.5601 26267.5
 20 06 2013  18 22  -21.0447 26039.4 -03455.7 -07.5596 26267.7
 20 06 2013  18 23  -21.0450 26039.8 -03455.6 -07.5593 26268.1
 20 06 2013  18 24  -21.0449 26040.3 -03455.7 -07.5593 26268.6
 20 06 2013  18 25  -21.0453 26040.4 -03455.6 -07.5591 26268.7
 20 06 2013  18 26  -21.0451 26039.9 -03455.3 -07.5586 26268.2
 20 06 2013  18 27  -21.0443 26038.8 -03454.9 -07.5579 26267.0
 20 06 2013  18 28  -21.0435 26037.1 -03454.3 -07.5571 26265.2
 20 06 2013  18 29  -21.0432 26035.9 -03454.0 -07.5569 26264.0
 20 06 2013  18 30  -21.0439 26036.0 -03454.3 -07.5575 26264.1
 20 06 2013  18 31  -21.0440 26036.2 -03454.6 -07.5581 26264.4
 20 06 2013  18 32  -21.0432 26035.6 -03454.5 -07.5581 26263.8
 20 06 2013  18 33  -21.0431 26035.3 -03454.7 -07.5585 26263.5
 20 06 2013  18 34  -21.0435 26034.6 -03454.7 -07.5588 26262.8
 20 06 2013  18 35  -21.0438 26034.3 -03454.9 -07.5593 26262.6
 20 06 2013  18 36  -21.0442 26034.3 -03455.2 -07.5600 26262.5
 20 06 2013  18 37  -21.0448 26034.3 -03455.5 -07.5605 26262.6
 20 06 2013  18 38  -21.0447 26033.3 -03455.2 -07.5603 26261.6
 20 06 2013  18 39  -21.0448 26032.7 -03455.1 -07.5603 26261.0
 20 06 2013  18 40  -21.0448 26032.4 -03455.3 -07.5607 26260.7
 20 06 2013  18 41  -21.0440 26031.5 -03455.1 -07.5604 26259.8
 20 06 2013  18 42  -21.0439 26030.9 -03455.1 -07.5607 26259.2
 20 06 2013  18 43  -21.0438 26030.8 -03455.3 -07.5612 26259.1
 20 06 2013  18 44  -21.0434 26030.3 -03455.3 -07.5614 26258.6
 20 06 2013  18 45  -21.0429 26030.0 -03455.5 -07.5617 26258.3
 20 06 2013  18 46  -21.0430 26029.8 -03455.7 -07.5622 26258.2
 20 06 2013  18 47  -21.0428 26029.5 -03455.8 -07.5626 26257.9
 20 06 2013  18 48  -21.0428 26029.0 -03455.9 -07.5629 26257.4
 20 06 2013  18 49  -21.0427 26028.4 -03455.9 -07.5632 26256.8
 20 06 2013  18 50  -21.0420 26027.5 -03455.8 -07.5632 26255.9
 20 06 2013  18 51  -21.0414 26026.8 -03455.9 -07.5636 26255.3
 20 06 2013  18 52  -21.0411 26026.1 -03456.0 -07.5641 26254.6
 20 06 2013  18 53  -21.0410 26025.8 -03456.3 -07.5648 26254.3
 20 06 2013  18 54  -21.0412 26025.7 -03456.7 -07.5655 26254.3
 20 06 2013  18 55  -21.0412 26026.0 -03457.1 -07.5664 26254.6
 20 06 2013  18 56  -21.0416 26027.0 -03457.8 -07.5677 26255.7
 20 06 2013  18 57  -21.0422 26027.3 -03458.1 -07.5682 26256.0
 20 06 2013  18 58  -21.0421 26027.1 -03458.1 -07.5683 26255.9
 20 06 2013  18 59  -21.0421 26026.6 -03458.0 -07.5682 26255.3
 20 06 2013  19 00  -21.0421 26026.0 -03457.8 -07.5680 26254.7
 20 06 2013  19 01  -21.0420 26024.9 -03457.5 -07.5676 26253.6
 20 06 2013  19 02  -21.0416 26024.2 -03457.3 -07.5674 26252.8
 20 06 2013  19 03  -21.0412 26023.4 -03457.2 -07.5675 26252.0
 20 06 2013  19 04  -21.0411 26022.8 -03457.2 -07.5676 26251.5
 20 06 2013  19 05  -21.0435 26022.4 -03457.2 -07.5676 26251.1
 20 06 2013  19 06  -21.0459 26022.1 -03457.2 -07.5678 26250.8
 20 06 2013  19 07  -21.0463 26022.1 -03457.5 -07.5684 26250.8
 20 06 2013  19 08  -21.0466 26022.3 -03457.7 -07.5687 26251.0
 20 06 2013  19 09  -21.0467 26022.3 -03457.7 -07.5689 26251.0
 20 06 2013  19 10  -21.0467 26022.7 -03457.9 -07.5690 26251.4
 20 06 2013  19 11  -21.0475 26023.1 -03458.0 -07.5692 26251.9
 20 06 2013  19 12  -21.0482 26023.6 -03458.1 -07.5693 26252.4
 20 06 2013  19 13  -21.0489 26024.0 -03458.1 -07.5691 26252.8
 20 06 2013  19 14  -21.0498 26024.6 -03458.1 -07.5690 26253.4
 20 06 2013  19 15  -21.0509 26025.1 -03458.1 -07.5689 26253.8
 20 06 2013  19 16  -21.0519 26025.7 -03458.1 -07.5686 26254.5
 20 06 2013  19 17  -21.0529 26026.0 -03457.8 -07.5679 26254.7
 20 06 2013  19 18  -21.0538 26026.8 -03457.7 -07.5675 26255.5
 20 06 2013  19 19  -21.0547 26026.4 -03457.2 -07.5665 26255.0
 20 06 2013  19 20  -21.0556 26027.4 -03457.1 -07.5659 26256.0
 20 06 2013  19 21  -21.0562 26027.1 -03456.4 -07.5647 26255.6
 20 06 2013  19 22  -21.0565 26027.2 -03456.0 -07.5637 26255.7
 20 06 2013  19 23  -21.0567 26027.0 -03455.6 -07.5628 26255.4
 20 06 2013  19 24  -21.0536 26027.0 -03455.3 -07.5622 26255.3
 20 06 2013  19 25  -21.0516 26026.4 -03454.9 -07.5615 26254.7
 20 06 2013  19 26  -21.0513 26026.0 -03454.4 -07.5607 26254.2
 20 06 2013  19 27  -21.0511 26025.5 -03454.1 -07.5602 26253.7
 20 06 2013  19 28  -21.0512 26024.6 -03453.7 -07.5594 26252.8
 20 06 2013  19 29  -21.0514 26024.2 -03453.4 -07.5589 26252.3
 20 06 2013  19 30  -21.0515 26023.7 -03453.2 -07.5586 26251.9
 20 06 2013  19 31  -21.0508 26022.7 -03452.7 -07.5578 26250.7
 20 06 2013  19 32  -21.0503 26022.1 -03452.5 -07.5576 26250.2
 20 06 2013  19 33  -21.0495 26021.6 -03452.3 -07.5574 26249.7
 20 06 2013  19 34  -21.0484 26020.7 -03452.0 -07.5569 26248.7
 20 06 2013  19 35  -21.0483 26020.3 -03451.8 -07.5566 26248.3
 20 06 2013  19 36  -21.0481 26019.9 -03451.7 -07.5564 26247.8
 20 06 2013  19 37  -21.0488 26020.4 -03451.9 -07.5569 26248.4
 20 06 2013  19 38  -21.0497 26021.4 -03452.4 -07.5575 26249.5
 20 06 2013  19 39  -21.0511 26023.1 -03452.9 -07.5582 26251.2
 20 06 2013  19 40  -21.0520 26024.0 -03453.0 -07.5581 26252.1
 20 06 2013  19 41  -21.0528 26024.5 -03452.8 -07.5576 26252.6
 20 06 2013  19 42  -21.0543 26025.7 -03453.0 -07.5576 26253.7
 20 06 2013  19 43  -21.0555 26026.4 -03452.9 -07.5573 26254.5
 20 06 2013  19 44  -21.0569 26027.3 -03452.9 -07.5569 26255.3
 20 06 2013  19 45  -21.0574 26027.3 -03452.4 -07.5559 26255.2
 20 06 2013  19 46  -21.0577 26027.5 -03451.9 -07.5548 26255.4
 20 06 2013  19 47  -21.0585 26028.5 -03451.9 -07.5545 26256.4
 20 06 2013  19 48  -21.0598 26029.8 -03452.0 -07.5543 26257.7
 20 06 2013  19 49  -21.0600 26030.3 -03451.6 -07.5533 26258.2
 20 06 2013  19 50  -21.0602 26030.7 -03451.1 -07.5522 26258.5
 20 06 2013  19 51  -21.0604 26031.6 -03450.9 -07.5514 26259.3
 20 06 2013  19 52  -21.0603 26032.2 -03450.6 -07.5506 26259.9
 20 06 2013  19 53  -21.0599 26032.3 -03450.1 -07.5495 26260.0
 20 06 2013  19 54  -21.0595 26031.9 -03449.4 -07.5482 26259.5
 20 06 2013  19 55  -21.0593 26031.9 -03449.0 -07.5472 26259.4
 20 06 2013  19 56  -21.0588 26031.9 -03448.6 -07.5465 26259.3
 20 06 2013  19 57  -21.0583 26031.5 -03448.2 -07.5457 26258.9
 20 06 2013  19 58  -21.0582 26031.1 -03447.9 -07.5450 26258.4
 20 06 2013  19 59  -21.0581 26030.7 -03447.5 -07.5444 26258.0
 20 06 2013  20 00  -21.0577 26029.7 -03446.9 -07.5434 26257.0
 20 06 2013  20 01  -21.0571 26028.6 -03446.4 -07.5425 26255.8
 20 06 2013  20 02  -21.0568 26027.7 -03445.9 -07.5417 26254.8
 20 06 2013  20 03  -21.0565 26026.9 -03445.5 -07.5412 26254.0
 20 06 2013  20 04  -21.0556 26025.9 -03445.1 -07.5405 26253.0
 20 06 2013  20 05  -21.0548 26025.4 -03444.9 -07.5402 26252.4
 20 06 2013  20 06  -21.0543 26024.5 -03444.6 -07.5398 26251.5
 20 06 2013  20 07  -21.0535 26025.0 -03445.0 -07.5405 26252.0
 20 06 2013  20 08  -21.0526 26025.3 -03445.5 -07.5414 26252.4
 20 06 2013  20 09  -21.0518 26025.4 -03445.8 -07.5422 26252.5
 20 06 2013  20 10  -21.0514 26025.7 -03446.1 -07.5428 26252.8
 20 06 2013  20 11  -21.0514 26025.6 -03446.4 -07.5433 26252.8
 20 06 2013  20 12  -21.0513 26024.8 -03446.2 -07.5432 26251.9
 20 06 2013  20 13  -21.0503 26023.9 -03446.0 -07.5431 26251.0
 20 06 2013  20 14  -21.0486 26022.6 -03445.7 -07.5428 26249.8
 20 06 2013  20 15  -21.0474 26021.7 -03445.7 -07.5429 26248.8
 20 06 2013  20 16  -21.0464 26021.0 -03445.6 -07.5430 26248.1
 20 06 2013  20 17  -21.0449 26020.3 -03445.5 -07.5431 26247.4
 20 06 2013  20 18  -21.0440 26019.5 -03445.5 -07.5432 26246.6
 20 06 2013  20 19  -21.0429 26018.9 -03445.7 -07.5438 26246.1
 20 06 2013  20 20  -21.0425 26019.0 -03446.2 -07.5448 26246.3
 20 06 2013  20 21  -21.0420 26018.9 -03446.6 -07.5457 26246.1
 20 06 2013  20 22  -21.0412 26017.7 -03446.4 -07.5458 26245.0
 20 06 2013  20 23  -21.0407 26017.3 -03446.6 -07.5463 26244.6
 20 06 2013  20 24  -21.0405 26016.9 -03446.9 -07.5469 26244.2
 20 06 2013  20 25  -21.0407 26017.1 -03447.3 -07.5478 26244.5
 20 06 2013  20 26  -21.0413 26016.9 -03447.5 -07.5483 26244.3
 20 06 2013  20 27  -21.0414 26016.3 -03447.6 -07.5486 26243.7
 20 06 2013  20 28  -21.0412 26015.2 -03447.5 -07.5487 26242.6
 20 06 2013  20 29  -21.0411 26014.7 -03447.6 -07.5491 26242.2
 20 06 2013  20 30  -21.0410 26014.3 -03447.7 -07.5495 26241.8
 20 06 2013  20 31  -21.0412 26014.0 -03447.9 -07.5499 26241.5
 20 06 2013  20 32  -21.0410 26013.5 -03447.9 -07.5500 26241.0
 20 06 2013  20 33  -21.0408 26013.1 -03447.9 -07.5503 26240.6
 20 06 2013  20 34  -21.0405 26012.6 -03447.9 -07.5504 26240.1
 20 06 2013  20 35  -21.0406 26012.7 -03448.0 -07.5506 26240.3
 20 06 2013  20 36  -21.0399 26012.7 -03448.1 -07.5509 26240.2
 20 06 2013  20 37  -21.0392 26012.1 -03448.0 -07.5507 26239.6
 20 06 2013  20 38  -21.0391 26011.7 -03448.0 -07.5509 26239.2
 20 06 2013  20 39  -21.0392 26011.2 -03448.1 -07.5512 26238.7
 20 06 2013  20 40  -21.0398 26010.4 -03448.0 -07.5513 26238.0
 20 06 2013  20 41  -21.0400 26009.6 -03447.9 -07.5513 26237.2
 20 06 2013  20 42  -21.0401 26009.5 -03448.2 -07.5519 26237.1
 20 06 2013  20 43  -21.0401 26010.2 -03448.8 -07.5531 26237.9
 20 06 2013  20 44  -21.0403 26010.4 -03449.1 -07.5536 26238.1
 20 06 2013  20 45  -21.0405 26010.5 -03449.3 -07.5541 26238.2
 20 06 2013  20 46  -21.0406 26010.6 -03449.6 -07.5546 26238.3
 20 06 2013  20 47  -21.0406 26010.2 -03449.6 -07.5547 26237.9
 20 06 2013  20 48  -21.0407 26010.1 -03449.7 -07.5549 26237.8
 20 06 2013  20 49  -21.0405 26010.0 -03449.9 -07.5554 26237.8
 20 06 2013  20 50  -21.0406 26009.8 -03450.1 -07.5558 26237.7
 20 06 2013  20 51  -21.0406 26009.8 -03450.3 -07.5563 26237.7
 20 06 2013  20 52  -21.0405 26009.0 -03450.2 -07.5563 26236.8
 20 06 2013  20 53  -21.0409 26008.2 -03449.9 -07.5561 26236.0
 20 06 2013  20 54  -21.0409 26007.8 -03449.9 -07.5560 26235.6
 20 06 2013  20 55  -21.0405 26008.0 -03450.1 -07.5565 26235.8
 20 06 2013  20 56  -21.0400 26008.1 -03450.3 -07.5568 26236.0
 20 06 2013  20 57  -21.0393 26008.8 -03450.6 -07.5574 26236.7
 20 06 2013  20 58  -21.0385 26009.3 -03450.9 -07.5579 26237.3
 20 06 2013  20 59  -21.0380 26009.8 -03451.3 -07.5584 26237.8
 20 06 2013  21 00  -21.0377 26010.4 -03451.6 -07.5590 26238.4
 20 06 2013  21 01  -21.0378 26010.4 -03451.6 -07.5591 26238.4
 20 06 2013  21 02  -21.0383 26010.1 -03451.5 -07.5589 26238.1
 20 06 2013  21 03  -21.0388 26009.6 -03451.3 -07.5586 26237.5
 20 06 2013  21 04  -21.0395 26008.9 -03451.0 -07.5581 26236.9
 20 06 2013  21 05  -21.0400 26009.1 -03451.0 -07.5581 26237.1
 20 06 2013  21 06  -21.0402 26009.8 -03451.3 -07.5584 26237.8
 20 06 2013  21 07  -21.0404 26010.6 -03451.7 -07.5591 26238.6
 20 06 2013  21 08  -21.0404 26011.3 -03451.9 -07.5595 26239.4
 20 06 2013  21 09  -21.0406 26012.0 -03452.2 -07.5598 26240.1
 20 06 2013  21 10  -21.0410 26012.6 -03452.3 -07.5599 26240.7
 20 06 2013  21 11  -21.0414 26013.4 -03452.5 -07.5601 26241.5
 20 06 2013  21 12  -21.0415 26014.0 -03452.6 -07.5602 26242.1
 20 06 2013  21 13  -21.0417 26014.4 -03452.7 -07.5602 26242.6
 20 06 2013  21 14  -21.0418 26015.2 -03452.9 -07.5604 26243.3
 20 06 2013  21 15  -21.0419 26015.9 -03453.0 -07.5605 26244.0
 20 06 2013  21 16  -21.0421 26016.2 -03452.9 -07.5602 26244.3
 20 06 2013  21 17  -21.0422 26016.1 -03452.6 -07.5596 26244.2
 20 06 2013  21 18  -21.0424 26015.7 -03452.2 -07.5589 26243.7
 20 06 2013  21 19  -21.0428 26015.5 -03451.9 -07.5583 26243.5
 20 06 2013  21 20  -21.0428 26015.5 -03451.7 -07.5579 26243.5
 20 06 2013  21 21  -21.0426 26015.8 -03451.7 -07.5576 26243.7
 20 06 2013  21 22  -21.0427 26016.1 -03451.7 -07.5575 26244.1
 20 06 2013  21 23  -21.0427 26016.5 -03451.8 -07.5576 26244.5
 20 06 2013  21 24  -21.0425 26017.0 -03451.8 -07.5576 26244.9
 20 06 2013  21 25  -21.0422 26016.9 -03451.7 -07.5573 26244.8
 20 06 2013  21 26  -21.0420 26016.9 -03451.5 -07.5570 26244.9
 20 06 2013  21 27  -21.0420 26017.3 -03451.6 -07.5571 26245.3
 20 06 2013  21 28  -21.0421 26017.7 -03451.7 -07.5571 26245.7
 20 06 2013  21 29  -21.0426 26018.0 -03451.7 -07.5571 26246.0
 20 06 2013  21 30  -21.0433 26018.4 -03451.9 -07.5573 26246.4
 20 06 2013  21 31  -21.0441 26018.7 -03451.9 -07.5572 26246.7
 20 06 2013  21 32  -21.0447 26018.9 -03451.9 -07.5572 26246.9
 20 06 2013  21 33  -21.0449 26019.6 -03452.1 -07.5574 26247.6
 20 06 2013  21 34  -21.0453 26019.6 -03451.9 -07.5571 26247.6
 20 06 2013  21 35  -21.0455 26019.6 -03451.7 -07.5566 26247.5
 20 06 2013  21 36  -21.0455 26019.8 -03451.6 -07.5564 26247.7
 20 06 2013  21 37  -21.0454 26020.2 -03451.7 -07.5563 26248.1
 20 06 2013  21 38  -21.0453 26020.4 -03451.6 -07.5562 26248.4
 20 06 2013  21 39  -21.0451 26020.9 -03451.7 -07.5561 26248.8
 20 06 2013  21 40  -21.0450 26021.5 -03451.8 -07.5563 26249.4
 20 06 2013  21 41  -21.0450 26021.9 -03451.9 -07.5563 26249.8
 20 06 2013  21 42  -21.0452 26022.1 -03451.8 -07.5561 26250.0
 20 06 2013  21 43  -21.0452 26022.1 -03451.7 -07.5558 26250.0
 20 06 2013  21 44  -21.0457 26021.8 -03451.4 -07.5554 26249.7
 20 06 2013  21 45  -21.0463 26021.6 -03451.2 -07.5550 26249.5
 20 06 2013  21 46  -21.0466 26021.4 -03451.0 -07.5545 26249.3
 20 06 2013  21 47  -21.0469 26021.8 -03451.0 -07.5545 26249.6
 20 06 2013  21 48  -21.0468 26022.3 -03451.1 -07.5545 26250.1
 20 06 2013  21 49  -21.0471 26023.0 -03451.3 -07.5548 26250.8
 20 06 2013  21 50  -21.0475 26023.9 -03451.7 -07.5553 26251.8
 20 06 2013  21 51  -21.0478 26024.2 -03451.7 -07.5554 26252.2
 20 06 2013  21 52  -21.0482 26023.6 -03451.3 -07.5546 26251.4
 20 06 2013  21 53  -21.0489 26023.0 -03450.8 -07.5537 26250.8
 20 06 2013  21 54  -21.0490 26023.3 -03450.8 -07.5535 26251.1
 20 06 2013  21 55  -21.0490 26024.0 -03451.0 -07.5538 26251.9
 20 06 2013  21 56  -21.0490 26025.2 -03451.4 -07.5543 26253.0
 20 06 2013  21 57  -21.0489 26025.8 -03451.6 -07.5546 26253.6
 20 06 2013  21 58  -21.0490 26025.4 -03451.3 -07.5541 26253.3
 20 06 2013  21 59  -21.0491 26024.7 -03450.8 -07.5532 26252.5
 20 06 2013  22 00  -21.0491 26024.5 -03450.5 -07.5526 26252.2
 20 06 2013  22 01  -21.0487 26024.4 -03450.3 -07.5522 26252.1
 20 06 2013  22 02  -21.0486 26024.0 -03450.0 -07.5517 26251.7
 20 06 2013  22 03  -21.0488 26023.8 -03449.9 -07.5515 26251.4
 20 06 2013  22 04  -21.0486 26023.5 -03449.7 -07.5512 26251.1
 20 06 2013  22 05  -21.0484 26023.4 -03449.6 -07.5510 26251.1
 20 06 2013  22 06  -21.0486 26023.9 -03449.8 -07.5513 26251.6
 20 06 2013  22 07  -21.0483 26024.3 -03450.0 -07.5516 26252.0
 20 06 2013  22 08  -21.0480 26024.5 -03450.0 -07.5516 26252.1
 20 06 2013  22 09  -21.0479 26024.4 -03450.0 -07.5515 26252.1
 20 06 2013  22 10  -21.0479 26024.1 -03449.7 -07.5511 26251.7
 20 06 2013  22 11  -21.0481 26023.9 -03449.6 -07.5508 26251.5
 20 06 2013  22 12  -21.0477 26023.9 -03449.5 -07.5507 26251.5
 20 06 2013  22 13  -21.0474 26023.7 -03449.4 -07.5505 26251.3
 20 06 2013  22 14  -21.0470 26023.5 -03449.3 -07.5502 26251.1
 20 06 2013  22 15  -21.0466 26023.2 -03449.1 -07.5500 26250.7
 20 06 2013  22 16  -21.0462 26023.0 -03449.0 -07.5499 26250.5
 20 06 2013  22 17  -21.0456 26022.8 -03449.0 -07.5497 26250.4
 20 06 2013  22 18  -21.0451 26023.0 -03449.0 -07.5498 26250.5
 20 06 2013  22 19  -21.0446 26023.2 -03449.1 -07.5500 26250.8
 20 06 2013  22 20  -21.0440 26023.3 -03449.2 -07.5502 26250.9
 20 06 2013  22 21  -21.0438 26023.0 -03449.2 -07.5501 26250.6
 20 06 2013  22 22  -21.0436 26023.0 -03449.2 -07.5501 26250.6
 20 06 2013  22 23  -21.0435 26022.9 -03449.2 -07.5502 26250.5
 20 06 2013  22 24  -21.0436 26022.7 -03449.1 -07.5501 26250.2
 20 06 2013  22 25  -21.0436 26022.6 -03449.1 -07.5501 26250.2
 20 06 2013  22 26  -21.0438 26022.6 -03449.1 -07.5502 26250.2
 20 06 2013  22 27  -21.0440 26022.5 -03449.1 -07.5502 26250.1
 20 06 2013  22 28  -21.0446 26022.2 -03449.0 -07.5500 26249.8
 20 06 2013  22 29  -21.0452 26022.1 -03449.0 -07.5501 26249.7
 20 06 2013  22 30  -21.0454 26022.1 -03449.0 -07.5500 26249.7
 20 06 2013  22 31  -21.0458 26021.9 -03448.9 -07.5499 26249.4
 20 06 2013  22 32  -21.0461 26021.6 -03448.8 -07.5497 26249.2
 20 06 2013  22 33  -21.0463 26021.5 -03448.7 -07.5496 26249.0
 20 06 2013  22 34  -21.0464 26021.4 -03448.7 -07.5495 26248.9
 20 06 2013  22 35  -21.0462 26021.3 -03448.6 -07.5494 26248.8
 20 06 2013  22 36  -21.0461 26021.2 -03448.6 -07.5494 26248.7
 20 06 2013  22 37  -21.0462 26021.1 -03448.6 -07.5494 26248.6
 20 06 2013  22 38  -21.0463 26020.8 -03448.5 -07.5493 26248.3
 20 06 2013  22 39  -21.0468 26020.7 -03448.5 -07.5493 26248.2
 20 06 2013  22 40  -21.0469 26021.0 -03448.6 -07.5495 26248.5
 20 06 2013  22 41  -21.0468 26021.0 -03448.7 -07.5496 26248.6
 20 06 2013  22 42  -21.0465 26021.1 -03448.7 -07.5496 26248.6
 20 06 2013  22 43  -21.0463 26021.2 -03448.7 -07.5496 26248.7
 20 06 2013  22 44  -21.0462 26021.0 -03448.6 -07.5496 26248.5
 20 06 2013  22 45  -21.0464 26020.7 -03448.5 -07.5493 26248.2
 20 06 2013  22 46  -21.0462 26020.5 -03448.4 -07.5492 26248.0
 20 06 2013  22 47  -21.0456 26020.3 -03448.4 -07.5491 26247.8
 20 06 2013  22 48  -21.0452 26020.0 -03448.2 -07.5489 26247.5
 20 06 2013  22 49  -21.0452 26019.7 -03448.1 -07.5487 26247.1
 20 06 2013  22 50  -21.0452 26019.6 -03448.1 -07.5488 26247.1
 20 06 2013  22 51  -21.0453 26019.5 -03448.1 -07.5489 26247.0
 20 06 2013  22 52  -21.0454 26019.5 -03448.2 -07.5490 26246.9
 20 06 2013  22 53  -21.0456 26019.4 -03448.2 -07.5491 26246.9
 20 06 2013  22 54  -21.0456 26019.4 -03448.3 -07.5492 26246.9
 20 06 2013  22 55  -21.0456 26019.5 -03448.3 -07.5494 26247.0
 20 06 2013  22 56  -21.0456 26019.1 -03448.2 -07.5492 26246.6
 20 06 2013  22 57  -21.0456 26018.6 -03448.1 -07.5490 26246.1
 20 06 2013  22 58  -21.0453 26017.9 -03447.7 -07.5485 26245.4
 20 06 2013  22 59  -21.0446 26017.8 -03447.7 -07.5484 26245.2
 20 06 2013  23 00  -21.0439 26017.7 -03447.7 -07.5484 26245.1
 20 06 2013  23 01  -21.0429 26017.4 -03447.6 -07.5484 26244.9
 20 06 2013  23 02  -21.0420 26017.1 -03447.6 -07.5485 26244.6
 20 06 2013  23 03  -21.0414 26016.7 -03447.5 -07.5484 26244.1
 20 06 2013  23 04  -21.0408 26016.1 -03447.4 -07.5483 26243.5
 20 06 2013  23 05  -21.0406 26015.7 -03447.4 -07.5483 26243.1
 20 06 2013  23 06  -21.0406 26015.2 -03447.3 -07.5483 26242.6
 20 06 2013  23 07  -21.0407 26014.9 -03447.3 -07.5485 26242.3
 20 06 2013  23 08  -21.0409 26014.5 -03447.3 -07.5485 26242.0
 20 06 2013  23 09  -21.0411 26014.4 -03447.4 -07.5488 26241.8
 20 06 2013  23 10  -21.0411 26014.0 -03447.3 -07.5488 26241.4
 20 06 2013  23 11  -21.0418 26013.9 -03447.5 -07.5492 26241.3
 20 06 2013  23 12  -21.0420 26013.3 -03447.2 -07.5487 26240.7
 20 06 2013  23 13  -21.0424 26013.3 -03447.4 -07.5491 26240.7
 20 06 2013  23 14  -21.0429 26013.4 -03447.6 -07.5494 26240.8
 20 06 2013  23 15  -21.0439 26013.2 -03447.6 -07.5495 26240.7
 20 06 2013  23 16  -21.0449 26013.3 -03447.8 -07.5499 26240.8
 20 06 2013  23 17  -21.0457 26013.5 -03447.9 -07.5500 26241.0
 20 06 2013  23 18  -21.0461 26013.7 -03447.9 -07.5502 26241.2
 20 06 2013  23 19  -21.0463 26013.8 -03448.0 -07.5503 26241.3
 20 06 2013  23 20  -21.0464 26013.8 -03448.1 -07.5504 26241.4
 20 06 2013  23 21  -21.0465 26014.1 -03448.2 -07.5505 26241.6
 20 06 2013  23 22  -21.0466 26014.2 -03448.2 -07.5507 26241.8
 20 06 2013  23 23  -21.0467 26014.4 -03448.4 -07.5508 26242.0
 20 06 2013  23 24  -21.0473 26014.3 -03448.4 -07.5509 26241.9
 20 06 2013  23 25  -21.0477 26014.3 -03448.4 -07.5509 26241.9
 20 06 2013  23 26  -21.0477 26014.4 -03448.4 -07.5510 26242.0
 20 06 2013  23 27  -21.0477 26014.0 -03448.2 -07.5505 26241.5
 20 06 2013  23 28  -21.0479 26013.6 -03448.0 -07.5502 26241.1
 20 06 2013  23 29  -21.0477 26013.3 -03447.8 -07.5500 26240.8
 20 06 2013  23 30  -21.0477 26013.0 -03447.7 -07.5498 26240.5
 20 06 2013  23 31  -21.0477 26012.8 -03447.7 -07.5498 26240.3
 20 06 2013  23 32  -21.0483 26012.7 -03447.7 -07.5500 26240.2
 20 06 2013  23 33  -21.0487 26012.7 -03447.8 -07.5502 26240.2
 20 06 2013  23 34  -21.0489 26012.9 -03447.9 -07.5504 26240.4
 20 06 2013  23 35  -21.0488 26012.9 -03448.1 -07.5506 26240.5
 20 06 2013  23 36  -21.0485 26012.5 -03447.9 -07.5503 26240.0
 20 06 2013  23 37  -21.0486 26012.0 -03447.7 -07.5500 26239.5
 20 06 2013  23 38  -21.0488 26011.9 -03447.7 -07.5501 26239.4
 20 06 2013  23 39  -21.0488 26012.1 -03447.8 -07.5503 26239.6
 20 06 2013  23 40  -21.0487 26012.3 -03447.9 -07.5505 26239.8
 20 06 2013  23 41  -21.0484 26012.6 -03448.2 -07.5509 26240.2
 20 06 2013  23 42  -21.0482 26012.7 -03448.2 -07.5511 26240.2
 20 06 2013  23 43  -21.0484 26012.5 -03448.2 -07.5511 26240.0
 20 06 2013  23 44  -21.0484 26012.3 -03448.1 -07.5510 26239.8
 20 06 2013  23 45  -21.0485 26012.3 -03448.1 -07.5509 26239.8
 20 06 2013  23 46  -21.0486 26012.7 -03448.3 -07.5513 26240.2
 20 06 2013  23 47  -21.0489 26013.0 -03448.6 -07.5518 26240.6
 20 06 2013  23 48  -21.0490 26013.4 -03448.8 -07.5521 26241.0
 20 06 2013  23 49  -21.0497 26013.5 -03448.9 -07.5523 26241.1
 20 06 2013  23 50  -21.0501 26013.9 -03449.0 -07.5524 26241.5
 20 06 2013  23 51  -21.0503 26014.2 -03449.2 -07.5528 26241.9
 20 06 2013  23 52  -21.0505 26014.5 -03449.3 -07.5529 26242.2
 20 06 2013  23 53  -21.0504 26014.6 -03449.3 -07.5529 26242.3
 20 06 2013  23 54  -21.0505 26014.7 -03449.3 -07.5529 26242.4
 20 06 2013  23 55  -21.0508 26014.9 -03449.4 -07.5529 26242.6
 20 06 2013  23 56  -21.0512 26015.1 -03449.5 -07.5531 26242.8
 20 06 2013  23 57  -21.0515 26015.3 -03449.5 -07.5531 26243.0
 20 06 2013  23 58  -21.0516 26015.5 -03449.6 -07.5532 26243.2
