SAO LUIS EMBRACE-03 <333> 1 Min. Reported data

 DD MM YYYY  HH MM   D(Deg)  H(nT)   Z(nT)   I(Deg)   F(nT)

 29 11 2013  00 00  -21.0017 26029.0 -03513.3 -07.6870 26265.0
 29 11 2013  00 01  -21.0016 26029.1 -03513.4 -07.6872 26265.2
 29 11 2013  00 02  -21.0016 26029.2 -03513.4 -07.6873 26265.3
 29 11 2013  00 03  -21.0015 26029.3 -03513.5 -07.6874 26265.4
 29 11 2013  00 04  -21.0015 26029.4 -03513.5 -07.6874 26265.5
 29 11 2013  00 05  -21.0017 26029.4 -03513.5 -07.6874 26265.5
 29 11 2013  00 06  -21.0019 26029.5 -03513.6 -07.6875 26265.6
 29 11 2013  00 07  -21.0018 26029.6 -03513.6 -07.6875 26265.7
 29 11 2013  00 08  -21.0017 26029.5 -03513.5 -07.6874 26265.6
 29 11 2013  00 09  -21.0017 26029.5 -03513.4 -07.6873 26265.5
 29 11 2013  00 10  -21.0017 26029.4 -03513.4 -07.6871 26265.4
 29 11 2013  00 11  -21.0017 26029.2 -03513.3 -07.6870 26265.2
 29 11 2013  00 12  -21.0016 26029.0 -03513.2 -07.6868 26265.0
 29 11 2013  00 13  -21.0015 26028.8 -03513.1 -07.6866 26264.8
 29 11 2013  00 14  -21.0014 26028.8 -03513.0 -07.6866 26264.8
 29 11 2013  00 15  -21.0014 26028.7 -03513.0 -07.6866 26264.7
 29 11 2013  00 16  -21.0014 26028.6 -03513.0 -07.6866 26264.6
 29 11 2013  00 17  -21.0014 26028.6 -03513.0 -07.6866 26264.6
 29 11 2013  00 18  -21.0014 26028.5 -03513.0 -07.6865 26264.5
 29 11 2013  00 19  -21.0015 26028.5 -03513.0 -07.6866 26264.5
 29 11 2013  00 20  -21.0016 26028.5 -03513.0 -07.6866 26264.5
 29 11 2013  00 21  -21.0019 26028.4 -03513.0 -07.6866 26264.4
 29 11 2013  00 22  -21.0024 26028.3 -03513.0 -07.6867 26264.3
 29 11 2013  00 23  -21.0026 26028.1 -03512.9 -07.6865 26264.1
 29 11 2013  00 24  -21.0030 26027.9 -03512.9 -07.6865 26263.9
 29 11 2013  00 25  -21.0034 26027.8 -03512.8 -07.6864 26263.8
 29 11 2013  00 26  -21.0037 26027.7 -03512.8 -07.6864 26263.7
 29 11 2013  00 27  -21.0040 26027.5 -03512.7 -07.6863 26263.5
 29 11 2013  00 28  -21.0044 26027.4 -03512.6 -07.6861 26263.3
 29 11 2013  00 29  -21.0046 26027.3 -03512.6 -07.6860 26263.2
 29 11 2013  00 30  -21.0048 26027.2 -03512.6 -07.6861 26263.2
 29 11 2013  00 31  -21.0049 26027.1 -03512.5 -07.6860 26263.1
 29 11 2013  00 32  -21.0051 26027.2 -03512.6 -07.6861 26263.1
 29 11 2013  00 33  -21.0052 26027.3 -03512.6 -07.6861 26263.2
 29 11 2013  00 34  -21.0054 26027.3 -03512.6 -07.6862 26263.2
 29 11 2013  00 35  -21.0055 26027.2 -03512.6 -07.6862 26263.2
 29 11 2013  00 36  -21.0058 26027.2 -03512.6 -07.6862 26263.2
 29 11 2013  00 37  -21.0060 26027.4 -03512.7 -07.6863 26263.3
 29 11 2013  00 38  -21.0059 26027.5 -03512.8 -07.6865 26263.5
 29 11 2013  00 39  -21.0060 26027.6 -03512.8 -07.6864 26263.5
 29 11 2013  00 40  -21.0060 26027.5 -03512.8 -07.6864 26263.5
 29 11 2013  00 41  -21.0061 26027.6 -03512.9 -07.6866 26263.6
 29 11 2013  00 42  -21.0061 26027.8 -03512.9 -07.6866 26263.8
 29 11 2013  00 43  -21.0063 26027.7 -03512.9 -07.6866 26263.7
 29 11 2013  00 44  -21.0064 26027.7 -03512.9 -07.6867 26263.7
 29 11 2013  00 45  -21.0066 26027.7 -03512.9 -07.6866 26263.7
 29 11 2013  00 46  -21.0065 26027.6 -03512.9 -07.6866 26263.6
 29 11 2013  00 47  -21.0066 26027.6 -03512.9 -07.6865 26263.6
 29 11 2013  00 48  -21.0067 26027.6 -03512.9 -07.6866 26263.6
 29 11 2013  00 49  -21.0067 26027.6 -03512.8 -07.6865 26263.6
 29 11 2013  00 50  -21.0067 26027.6 -03512.9 -07.6866 26263.6
 29 11 2013  00 51  -21.0068 26027.6 -03512.9 -07.6866 26263.6
 29 11 2013  00 52  -21.0068 26027.5 -03512.8 -07.6866 26263.5
 29 11 2013  00 53  -21.0067 26027.5 -03512.8 -07.6865 26263.5
 29 11 2013  00 54  -21.0067 26027.5 -03512.9 -07.6866 26263.5
 29 11 2013  00 55  -21.0069 26027.6 -03512.9 -07.6867 26263.6
 29 11 2013  00 56  -21.0070 26027.6 -03512.9 -07.6867 26263.6
 29 11 2013  00 57  -21.0072 26027.5 -03512.9 -07.6867 26263.5
 29 11 2013  00 58  -21.0074 26027.5 -03512.9 -07.6867 26263.5
 29 11 2013  00 59  -21.0074 26027.6 -03513.0 -07.6869 26263.6
 29 11 2013  01 00  -21.0071 26027.8 -03513.1 -07.6870 26263.8
 29 11 2013  01 01  -21.0071 26027.9 -03513.2 -07.6872 26263.9
 29 11 2013  01 02  -21.0072 26027.9 -03513.2 -07.6873 26263.9
 29 11 2013  01 03  -21.0073 26027.9 -03513.3 -07.6874 26263.9
 29 11 2013  01 04  -21.0072 26027.9 -03513.3 -07.6874 26263.9
 29 11 2013  01 05  -21.0074 26028.0 -03513.4 -07.6876 26264.1
 29 11 2013  01 06  -21.0075 26028.2 -03513.5 -07.6878 26264.2
 29 11 2013  01 07  -21.0074 26028.1 -03513.5 -07.6877 26264.2
 29 11 2013  01 08  -21.0074 26028.0 -03513.4 -07.6877 26264.1
 29 11 2013  01 09  -21.0074 26027.9 -03513.4 -07.6876 26263.9
 29 11 2013  01 10  -21.0074 26027.9 -03513.4 -07.6877 26263.9
 29 11 2013  01 11  -21.0072 26027.8 -03513.4 -07.6876 26263.9
 29 11 2013  01 12  -21.0072 26027.8 -03513.4 -07.6877 26263.8
 29 11 2013  01 13  -21.0071 26027.8 -03513.4 -07.6877 26263.8
 29 11 2013  01 14  -21.0073 26027.7 -03513.4 -07.6878 26263.7
 29 11 2013  01 15  -21.0076 26027.5 -03513.4 -07.6878 26263.6
 29 11 2013  01 16  -21.0080 26027.4 -03513.4 -07.6878 26263.5
 29 11 2013  01 17  -21.0083 26027.4 -03513.4 -07.6878 26263.5
 29 11 2013  01 18  -21.0086 26027.4 -03513.4 -07.6878 26263.4
 29 11 2013  01 19  -21.0087 26027.2 -03513.4 -07.6878 26263.3
 29 11 2013  01 20  -21.0088 26027.0 -03513.2 -07.6876 26263.0
 29 11 2013  01 21  -21.0089 26026.8 -03513.2 -07.6875 26262.8
 29 11 2013  01 22  -21.0089 26026.8 -03513.2 -07.6875 26262.8
 29 11 2013  01 23  -21.0091 26026.6 -03513.1 -07.6874 26262.6
 29 11 2013  01 24  -21.0093 26026.5 -03513.1 -07.6875 26262.5
 29 11 2013  01 25  -21.0096 26026.5 -03513.1 -07.6875 26262.5
 29 11 2013  01 26  -21.0097 26026.3 -03513.1 -07.6875 26262.4
 29 11 2013  01 27  -21.0098 26026.2 -03513.1 -07.6874 26262.3
 29 11 2013  01 28  -21.0099 26026.1 -03513.0 -07.6874 26262.1
 29 11 2013  01 29  -21.0100 26026.1 -03513.0 -07.6874 26262.1
 29 11 2013  01 30  -21.0102 26026.0 -03513.1 -07.6875 26262.1
 29 11 2013  01 31  -21.0103 26026.0 -03513.1 -07.6875 26262.0
 29 11 2013  01 32  -21.0104 26026.0 -03513.1 -07.6876 26262.0
 29 11 2013  01 33  -21.0108 26026.0 -03513.2 -07.6877 26262.0
 29 11 2013  01 34  -21.0110 26026.1 -03513.2 -07.6878 26262.1
 29 11 2013  01 35  -21.0113 26026.1 -03513.3 -07.6879 26262.1
 29 11 2013  01 36  -21.0114 26026.2 -03513.3 -07.6879 26262.3
 29 11 2013  01 37  -21.0117 26026.4 -03513.4 -07.6881 26262.5
 29 11 2013  01 38  -21.0120 26026.4 -03513.4 -07.6881 26262.4
 29 11 2013  01 39  -21.0123 26026.5 -03513.4 -07.6881 26262.6
 29 11 2013  01 40  -21.0125 26026.6 -03513.5 -07.6882 26262.7
 29 11 2013  01 41  -21.0128 26026.7 -03513.5 -07.6883 26262.8
 29 11 2013  01 42  -21.0128 26026.8 -03513.6 -07.6883 26262.9
 29 11 2013  01 43  -21.0127 26026.9 -03513.6 -07.6883 26262.9
 29 11 2013  01 44  -21.0128 26026.9 -03513.5 -07.6883 26263.0
 29 11 2013  01 45  -21.0127 26026.9 -03513.5 -07.6882 26263.0
 29 11 2013  01 46  -21.0126 26027.0 -03513.5 -07.6882 26263.1
 29 11 2013  01 47  -21.0124 26027.0 -03513.5 -07.6882 26263.1
 29 11 2013  01 48  -21.0123 26027.1 -03513.6 -07.6883 26263.2
 29 11 2013  01 49  -21.0122 26027.1 -03513.6 -07.6883 26263.2
 29 11 2013  01 50  -21.0121 26027.1 -03513.6 -07.6883 26263.2
 29 11 2013  01 51  -21.0121 26027.3 -03513.7 -07.6884 26263.4
 29 11 2013  01 52  -21.0121 26027.2 -03513.7 -07.6884 26263.3
 29 11 2013  01 53  -21.0124 26026.8 -03513.5 -07.6882 26262.9
 29 11 2013  01 54  -21.0121 26026.8 -03513.5 -07.6881 26262.8
 29 11 2013  01 55  -21.0119 26026.6 -03513.4 -07.6880 26262.7
 29 11 2013  01 56  -21.0116 26026.8 -03513.5 -07.6881 26262.9
 29 11 2013  01 57  -21.0117 26026.5 -03513.4 -07.6880 26262.5
 29 11 2013  01 58  -21.0118 26026.4 -03513.3 -07.6879 26262.5
 29 11 2013  01 59  -21.0118 26026.5 -03513.4 -07.6881 26262.6
 29 11 2013  02 00  -21.0118 26026.5 -03513.4 -07.6881 26262.6
 29 11 2013  02 01  -21.0119 26026.4 -03513.3 -07.6880 26262.4
 29 11 2013  02 02  -21.0120 26026.4 -03513.4 -07.6881 26262.5
 29 11 2013  02 03  -21.0121 26026.4 -03513.4 -07.6880 26262.5
 29 11 2013  02 04  -21.0124 26026.5 -03513.4 -07.6880 26262.6
 29 11 2013  02 05  -21.0122 26026.7 -03513.5 -07.6881 26262.8
 29 11 2013  02 06  -21.0123 26026.7 -03513.5 -07.6881 26262.8
 29 11 2013  02 07  -21.0124 26026.8 -03513.5 -07.6881 26262.8
 29 11 2013  02 08  -21.0122 26027.1 -03513.6 -07.6884 26263.2
 29 11 2013  02 09  -21.0118 26027.8 -03513.9 -07.6888 26263.9
 29 11 2013  02 10  -21.0115 26028.1 -03514.1 -07.6891 26264.3
 29 11 2013  02 11  -21.0122 26027.8 -03513.9 -07.6888 26263.9
 29 11 2013  02 12  -21.0121 26028.6 -03514.3 -07.6893 26264.8
 29 11 2013  02 13  -21.0118 26028.7 -03514.3 -07.6894 26264.9
 29 11 2013  02 14  -21.0118 26029.1 -03514.4 -07.6894 26265.3
 29 11 2013  02 15  -21.0118 26029.6 -03514.6 -07.6897 26265.8
 29 11 2013  02 16  -21.0118 26029.4 -03514.5 -07.6895 26265.6
 29 11 2013  02 17  -21.0118 26029.8 -03514.5 -07.6895 26266.0
 29 11 2013  02 18  -21.0117 26029.8 -03514.5 -07.6894 26266.0
 29 11 2013  02 19  -21.0117 26029.9 -03514.3 -07.6890 26266.0
 29 11 2013  02 20  -21.0119 26030.1 -03514.3 -07.6890 26266.2
 29 11 2013  02 21  -21.0116 26030.1 -03514.3 -07.6889 26266.3
 29 11 2013  02 22  -21.0114 26030.0 -03514.2 -07.6887 26266.2
 29 11 2013  02 23  -21.0112 26030.0 -03514.1 -07.6884 26266.2
 29 11 2013  02 24  -21.0109 26030.2 -03514.1 -07.6885 26266.4
 29 11 2013  02 25  -21.0107 26030.3 -03514.1 -07.6884 26266.4
 29 11 2013  02 26  -21.0106 26030.6 -03514.2 -07.6886 26266.7
 29 11 2013  02 27  -21.0106 26030.8 -03514.3 -07.6887 26266.9
 29 11 2013  02 28  -21.0104 26031.1 -03514.3 -07.6887 26267.2
 29 11 2013  02 29  -21.0103 26031.5 -03514.5 -07.6890 26267.7
 29 11 2013  02 30  -21.0105 26031.3 -03514.4 -07.6888 26267.4
 29 11 2013  02 31  -21.0105 26031.2 -03514.3 -07.6887 26267.4
 29 11 2013  02 32  -21.0103 26031.4 -03514.3 -07.6886 26267.5
 29 11 2013  02 33  -21.0099 26031.4 -03514.3 -07.6885 26267.5
 29 11 2013  02 34  -21.0097 26031.4 -03514.2 -07.6884 26267.5
 29 11 2013  02 35  -21.0096 26031.3 -03514.2 -07.6883 26267.4
 29 11 2013  02 36  -21.0097 26031.3 -03514.1 -07.6882 26267.5
 29 11 2013  02 37  -21.0099 26031.5 -03514.2 -07.6883 26267.7
 29 11 2013  02 38  -21.0099 26031.5 -03514.2 -07.6883 26267.6
 29 11 2013  02 39  -21.0096 26031.6 -03514.1 -07.6881 26267.7
 29 11 2013  02 40  -21.0092 26031.5 -03514.1 -07.6881 26267.7
 29 11 2013  02 41  -21.0088 26031.4 -03514.0 -07.6878 26267.5
 29 11 2013  02 42  -21.0087 26031.6 -03514.0 -07.6878 26267.7
 29 11 2013  02 43  -21.0085 26031.8 -03514.1 -07.6879 26267.9
 29 11 2013  02 44  -21.0085 26031.9 -03514.1 -07.6880 26268.1
 29 11 2013  02 45  -21.0086 26032.1 -03514.3 -07.6883 26268.3
 29 11 2013  02 46  -21.0085 26032.3 -03514.3 -07.6883 26268.4
 29 11 2013  02 47  -21.0082 26032.3 -03514.2 -07.6882 26268.4
 29 11 2013  02 48  -21.0082 26032.4 -03514.3 -07.6882 26268.6
 29 11 2013  02 49  -21.0079 26032.5 -03514.2 -07.6881 26268.6
 29 11 2013  02 50  -21.0076 26032.6 -03514.3 -07.6881 26268.7
 29 11 2013  02 51  -21.0076 26032.6 -03514.3 -07.6881 26268.8
 29 11 2013  02 52  -21.0075 26032.6 -03514.2 -07.6881 26268.8
 29 11 2013  02 53  -21.0075 26032.8 -03514.3 -07.6881 26268.9
 29 11 2013  02 54  -21.0075 26033.0 -03514.4 -07.6882 26269.1
 29 11 2013  02 55  -21.0076 26033.0 -03514.3 -07.6882 26269.1
 29 11 2013  02 56  -21.0075 26033.2 -03514.4 -07.6882 26269.3
 29 11 2013  02 57  -21.0074 26033.4 -03514.4 -07.6883 26269.6
 29 11 2013  02 58  -21.0074 26033.6 -03514.5 -07.6884 26269.7
 29 11 2013  02 59  -21.0072 26033.8 -03514.6 -07.6885 26270.0
 29 11 2013  03 00  -21.0070 26034.2 -03514.8 -07.6887 26270.3
 29 11 2013  03 01  -21.0066 26034.5 -03514.9 -07.6890 26270.7
 29 11 2013  03 02  -21.0064 26034.7 -03515.0 -07.6891 26270.9
 29 11 2013  03 03  -21.0064 26035.0 -03515.1 -07.6892 26271.2
 29 11 2013  03 04  -21.0064 26035.5 -03515.3 -07.6896 26271.7
 29 11 2013  03 05  -21.0064 26035.8 -03515.5 -07.6898 26272.1
 29 11 2013  03 06  -21.0063 26036.2 -03515.6 -07.6900 26272.5
 29 11 2013  03 07  -21.0061 26036.4 -03515.6 -07.6900 26272.7
 29 11 2013  03 08  -21.0060 26036.4 -03515.6 -07.6899 26272.7
 29 11 2013  03 09  -21.0059 26036.8 -03515.7 -07.6900 26273.1
 29 11 2013  03 10  -21.0059 26037.1 -03515.8 -07.6901 26273.4
 29 11 2013  03 11  -21.0058 26037.3 -03515.8 -07.6901 26273.6
 29 11 2013  03 12  -21.0057 26037.7 -03516.0 -07.6903 26274.0
 29 11 2013  03 13  -21.0054 26037.8 -03516.0 -07.6903 26274.1
 29 11 2013  03 14  -21.0053 26038.2 -03516.1 -07.6904 26274.5
 29 11 2013  03 15  -21.0053 26038.8 -03516.3 -07.6907 26275.2
 29 11 2013  03 16  -21.0051 26039.7 -03516.7 -07.6913 26276.1
 29 11 2013  03 17  -21.0046 26040.8 -03517.2 -07.6920 26277.2
 29 11 2013  03 18  -21.0042 26041.4 -03517.4 -07.6923 26277.9
 29 11 2013  03 19  -21.0041 26041.6 -03517.4 -07.6923 26278.0
 29 11 2013  03 20  -21.0041 26041.2 -03517.1 -07.6918 26277.6
 29 11 2013  03 21  -21.0044 26040.4 -03516.6 -07.6909 26276.8
 29 11 2013  03 22  -21.0046 26039.9 -03516.2 -07.6902 26276.2
 29 11 2013  03 23  -21.0045 26039.7 -03516.0 -07.6897 26276.0
 29 11 2013  03 24  -21.0047 26039.6 -03515.9 -07.6896 26275.8
 29 11 2013  03 25  -21.0049 26039.2 -03515.7 -07.6893 26275.5
 29 11 2013  03 26  -21.0050 26038.8 -03515.5 -07.6889 26275.0
 29 11 2013  03 27  -21.0052 26038.5 -03515.2 -07.6885 26274.7
 29 11 2013  03 28  -21.0056 26038.1 -03515.1 -07.6883 26274.3
 29 11 2013  03 29  -21.0056 26038.0 -03515.0 -07.6881 26274.1
 29 11 2013  03 30  -21.0056 26038.1 -03515.1 -07.6883 26274.3
 29 11 2013  03 31  -21.0057 26037.9 -03515.0 -07.6882 26274.1
 29 11 2013  03 32  -21.0056 26038.1 -03515.1 -07.6883 26274.3
 29 11 2013  03 33  -21.0053 26038.7 -03515.4 -07.6888 26274.9
 29 11 2013  03 34  -21.0052 26038.9 -03515.5 -07.6890 26275.1
 29 11 2013  03 35  -21.0053 26038.7 -03515.5 -07.6890 26275.0
 29 11 2013  03 36  -21.0052 26038.7 -03515.4 -07.6888 26274.9
 29 11 2013  03 37  -21.0053 26038.6 -03515.3 -07.6887 26274.8
 29 11 2013  03 38  -21.0057 26038.7 -03515.4 -07.6887 26274.9
 29 11 2013  03 39  -21.0059 26038.8 -03515.4 -07.6888 26275.1
 29 11 2013  03 40  -21.0059 26038.9 -03515.5 -07.6889 26275.2
 29 11 2013  03 41  -21.0060 26039.3 -03515.6 -07.6891 26275.5
 29 11 2013  03 42  -21.0061 26039.4 -03515.7 -07.6892 26275.7
 29 11 2013  03 43  -21.0064 26039.6 -03515.7 -07.6892 26275.8
 29 11 2013  03 44  -21.0065 26039.7 -03515.7 -07.6893 26276.0
 29 11 2013  03 45  -21.0068 26039.7 -03515.7 -07.6891 26275.9
 29 11 2013  03 46  -21.0070 26039.7 -03515.6 -07.6890 26275.9
 29 11 2013  03 47  -21.0069 26039.5 -03515.5 -07.6888 26275.7
 29 11 2013  03 48  -21.0071 26039.3 -03515.3 -07.6885 26275.6
 29 11 2013  03 49  -21.0075 26039.3 -03515.3 -07.6883 26275.5
 29 11 2013  03 50  -21.0077 26039.1 -03515.1 -07.6880 26275.3
 29 11 2013  03 51  -21.0079 26039.0 -03515.1 -07.6880 26275.2
 29 11 2013  03 52  -21.0082 26039.1 -03515.0 -07.6879 26275.3
 29 11 2013  03 53  -21.0086 26039.1 -03515.1 -07.6880 26275.3
 29 11 2013  03 54  -21.0088 26039.1 -03515.0 -07.6879 26275.3
 29 11 2013  03 55  -21.0089 26039.2 -03515.1 -07.6879 26275.4
 29 11 2013  03 56  -21.0091 26039.3 -03515.1 -07.6879 26275.4
 29 11 2013  03 57  -21.0091 26039.4 -03515.1 -07.6880 26275.6
 29 11 2013  03 58  -21.0092 26039.7 -03515.3 -07.6882 26275.9
 29 11 2013  03 59  -21.0096 26040.1 -03515.4 -07.6885 26276.3
 29 11 2013  04 00  -21.0098 26040.4 -03515.6 -07.6887 26276.7
 29 11 2013  04 01  -21.0098 26040.8 -03515.7 -07.6889 26277.1
 29 11 2013  04 02  -21.0097 26041.0 -03515.7 -07.6888 26277.2
 29 11 2013  04 03  -21.0100 26041.2 -03515.8 -07.6889 26277.5
 29 11 2013  04 04  -21.0101 26041.2 -03515.7 -07.6888 26277.5
 29 11 2013  04 05  -21.0103 26041.3 -03515.7 -07.6887 26277.5
 29 11 2013  04 06  -21.0103 26041.3 -03515.6 -07.6885 26277.5
 29 11 2013  04 07  -21.0104 26041.3 -03515.5 -07.6883 26277.6
 29 11 2013  04 08  -21.0104 26041.6 -03515.6 -07.6885 26277.8
 29 11 2013  04 09  -21.0105 26041.6 -03515.6 -07.6884 26277.8
 29 11 2013  04 10  -21.0106 26041.8 -03515.7 -07.6885 26278.1
 29 11 2013  04 11  -21.0105 26041.8 -03515.6 -07.6883 26278.0
 29 11 2013  04 12  -21.0103 26041.6 -03515.5 -07.6881 26277.8
 29 11 2013  04 13  -21.0102 26041.6 -03515.4 -07.6879 26277.8
 29 11 2013  04 14  -21.0105 26041.5 -03515.3 -07.6878 26277.7
 29 11 2013  04 15  -21.0106 26041.2 -03515.1 -07.6875 26277.4
 29 11 2013  04 16  -21.0105 26041.2 -03515.0 -07.6873 26277.3
 29 11 2013  04 17  -21.0104 26041.1 -03515.0 -07.6872 26277.2
 29 11 2013  04 18  -21.0103 26041.1 -03514.9 -07.6871 26277.3
 29 11 2013  04 19  -21.0103 26041.0 -03514.9 -07.6871 26277.2
 29 11 2013  04 20  -21.0102 26041.0 -03514.9 -07.6870 26277.2
 29 11 2013  04 21  -21.0101 26041.0 -03514.8 -07.6869 26277.1
 29 11 2013  04 22  -21.0101 26040.9 -03514.8 -07.6868 26277.0
 29 11 2013  04 23  -21.0102 26040.9 -03514.8 -07.6868 26277.0
 29 11 2013  04 24  -21.0103 26040.9 -03514.8 -07.6868 26277.0
 29 11 2013  04 25  -21.0105 26040.9 -03514.7 -07.6867 26277.0
 29 11 2013  04 26  -21.0106 26040.8 -03514.7 -07.6867 26276.9
 29 11 2013  04 27  -21.0109 26040.9 -03514.7 -07.6867 26277.0
 29 11 2013  04 28  -21.0109 26040.8 -03514.7 -07.6866 26276.9
 29 11 2013  04 29  -21.0109 26040.7 -03514.6 -07.6864 26276.8
 29 11 2013  04 30  -21.0110 26040.6 -03514.5 -07.6863 26276.7
 29 11 2013  04 31  -21.0112 26040.2 -03514.3 -07.6859 26276.2
 29 11 2013  04 32  -21.0115 26039.8 -03514.1 -07.6856 26275.9
 29 11 2013  04 33  -21.0116 26039.7 -03514.0 -07.6855 26275.7
 29 11 2013  04 34  -21.0118 26039.5 -03513.9 -07.6853 26275.5
 29 11 2013  04 35  -21.0120 26039.4 -03513.8 -07.6852 26275.4
 29 11 2013  04 36  -21.0123 26039.4 -03513.8 -07.6852 26275.4
 29 11 2013  04 37  -21.0123 26039.3 -03513.8 -07.6852 26275.3
 29 11 2013  04 38  -21.0123 26039.4 -03513.8 -07.6852 26275.4
 29 11 2013  04 39  -21.0124 26039.4 -03513.9 -07.6853 26275.4
 29 11 2013  04 40  -21.0124 26039.5 -03513.9 -07.6853 26275.5
 29 11 2013  04 41  -21.0125 26039.6 -03514.0 -07.6855 26275.6
 29 11 2013  04 42  -21.0127 26039.7 -03514.0 -07.6855 26275.7
 29 11 2013  04 43  -21.0128 26039.8 -03514.0 -07.6855 26275.9
 29 11 2013  04 44  -21.0128 26039.8 -03514.0 -07.6855 26275.8
 29 11 2013  04 45  -21.0126 26039.0 -03513.6 -07.6849 26275.0
 29 11 2013  04 46  -21.0122 26037.9 -03513.0 -07.6839 26273.8
 29 11 2013  04 47  -21.0122 26037.0 -03512.5 -07.6831 26272.9
 29 11 2013  04 48  -21.0127 26035.9 -03512.1 -07.6824 26271.7
 29 11 2013  04 49  -21.0136 26035.2 -03511.7 -07.6819 26270.9
 29 11 2013  04 50  -21.0143 26034.7 -03511.6 -07.6817 26270.4
 29 11 2013  04 51  -21.0150 26034.3 -03511.5 -07.6816 26270.0
 29 11 2013  04 52  -21.0157 26034.0 -03511.5 -07.6816 26269.8
 29 11 2013  04 53  -21.0163 26034.1 -03511.6 -07.6819 26269.9
 29 11 2013  04 54  -21.0169 26034.3 -03511.7 -07.6821 26270.1
 29 11 2013  04 55  -21.0178 26035.2 -03512.2 -07.6828 26271.1
 29 11 2013  04 56  -21.0183 26036.7 -03513.0 -07.6842 26272.6
 29 11 2013  04 57  -21.0184 26037.7 -03513.6 -07.6851 26273.7
 29 11 2013  04 58  -21.0186 26038.7 -03514.0 -07.6858 26274.7
 29 11 2013  04 59  -21.0186 26039.5 -03514.4 -07.6864 26275.6
 29 11 2013  05 00  -21.0183 26040.3 -03514.7 -07.6869 26276.4
 29 11 2013  05 01  -21.0183 26040.8 -03514.9 -07.6871 26276.9
 29 11 2013  05 02  -21.0184 26041.0 -03514.9 -07.6870 26277.1
 29 11 2013  05 03  -21.0185 26041.0 -03514.8 -07.6868 26277.1
 29 11 2013  05 04  -21.0183 26040.9 -03514.6 -07.6864 26277.0
 29 11 2013  05 05  -21.0182 26040.8 -03514.4 -07.6861 26276.9
 29 11 2013  05 06  -21.0180 26040.4 -03514.2 -07.6857 26276.5
 29 11 2013  05 07  -21.0178 26039.5 -03513.6 -07.6848 26275.5
 29 11 2013  05 08  -21.0178 26038.2 -03512.9 -07.6835 26274.1
 29 11 2013  05 09  -21.0172 26036.4 -03511.9 -07.6819 26272.2
 29 11 2013  05 10  -21.0165 26034.7 -03511.0 -07.6804 26270.4
 29 11 2013  05 11  -21.0168 26033.7 -03510.5 -07.6796 26269.3
 29 11 2013  05 12  -21.0168 26032.6 -03510.0 -07.6790 26268.2
 29 11 2013  05 13  -21.0175 26032.4 -03510.0 -07.6790 26267.9
 29 11 2013  05 14  -21.0181 26032.4 -03510.2 -07.6795 26268.0
 29 11 2013  05 15  -21.0183 26032.6 -03510.4 -07.6799 26268.2
 29 11 2013  05 16  -21.0186 26033.1 -03510.8 -07.6806 26268.7
 29 11 2013  05 17  -21.0188 26033.4 -03511.1 -07.6811 26269.1
 29 11 2013  05 18  -21.0189 26033.5 -03511.3 -07.6815 26269.3
 29 11 2013  05 19  -21.0190 26033.7 -03511.5 -07.6818 26269.5
 29 11 2013  05 20  -21.0193 26033.9 -03511.6 -07.6820 26269.7
 29 11 2013  05 21  -21.0195 26034.1 -03511.7 -07.6823 26269.8
 29 11 2013  05 22  -21.0196 26034.1 -03511.8 -07.6824 26269.9
 29 11 2013  05 23  -21.0195 26034.1 -03511.8 -07.6823 26269.9
 29 11 2013  05 24  -21.0195 26034.3 -03511.9 -07.6824 26270.1
 29 11 2013  05 25  -21.0196 26034.8 -03512.1 -07.6829 26270.6
 29 11 2013  05 26  -21.0196 26035.4 -03512.5 -07.6835 26271.2
 29 11 2013  05 27  -21.0191 26035.6 -03512.7 -07.6838 26271.5
 29 11 2013  05 28  -21.0192 26035.8 -03512.7 -07.6839 26271.7
 29 11 2013  05 29  -21.0190 26035.8 -03512.7 -07.6839 26271.7
 29 11 2013  05 30  -21.0186 26035.5 -03512.6 -07.6836 26271.4
 29 11 2013  05 31  -21.0181 26035.1 -03512.3 -07.6833 26271.0
 29 11 2013  05 32  -21.0179 26034.6 -03512.1 -07.6828 26270.4
 29 11 2013  05 33  -21.0179 26034.3 -03511.9 -07.6826 26270.1
 29 11 2013  05 34  -21.0180 26034.3 -03512.0 -07.6827 26270.2
 29 11 2013  05 35  -21.0180 26034.3 -03512.0 -07.6828 26270.1
 29 11 2013  05 36  -21.0183 26034.6 -03512.2 -07.6831 26270.5
 29 11 2013  05 37  -21.0182 26035.0 -03512.4 -07.6835 26270.9
 29 11 2013  05 38  -21.0182 26035.4 -03512.6 -07.6838 26271.3
 29 11 2013  05 39  -21.0184 26035.7 -03512.8 -07.6841 26271.6
 29 11 2013  05 40  -21.0185 26035.8 -03512.9 -07.6842 26271.7
 29 11 2013  05 41  -21.0185 26036.0 -03512.9 -07.6843 26271.9
 29 11 2013  05 42  -21.0186 26036.1 -03513.0 -07.6843 26272.0
 29 11 2013  05 43  -21.0186 26036.0 -03512.8 -07.6841 26271.9
 29 11 2013  05 44  -21.0188 26035.9 -03512.8 -07.6840 26271.8
 29 11 2013  05 45  -21.0188 26035.9 -03512.7 -07.6839 26271.8
 29 11 2013  05 46  -21.0187 26035.7 -03512.6 -07.6836 26271.6
 29 11 2013  05 47  -21.0188 26035.5 -03512.5 -07.6834 26271.3
 29 11 2013  05 48  -21.0188 26035.4 -03512.4 -07.6834 26271.3
 29 11 2013  05 49  -21.0186 26035.5 -03512.4 -07.6834 26271.3
 29 11 2013  05 50  -21.0186 26035.4 -03512.4 -07.6834 26271.2
 29 11 2013  05 51  -21.0187 26035.2 -03512.4 -07.6833 26271.1
 29 11 2013  05 52  -21.0189 26035.0 -03512.3 -07.6832 26270.8
 29 11 2013  05 53  -21.0189 26034.7 -03512.1 -07.6829 26270.5
 29 11 2013  05 54  -21.0191 26034.5 -03512.0 -07.6828 26270.3
 29 11 2013  05 55  -21.0190 26034.6 -03512.1 -07.6828 26270.4
 29 11 2013  05 56  -21.0189 26034.7 -03512.1 -07.6829 26270.6
 29 11 2013  05 57  -21.0190 26034.9 -03512.3 -07.6831 26270.7
 29 11 2013  05 58  -21.0191 26035.2 -03512.4 -07.6833 26271.0
 29 11 2013  05 59  -21.0194 26035.9 -03512.8 -07.6839 26271.8
 29 11 2013  06 00  -21.0195 26036.4 -03513.1 -07.6844 26272.4
 29 11 2013  06 01  -21.0196 26036.9 -03513.3 -07.6847 26272.9
 29 11 2013  06 02  -21.0197 26037.4 -03513.5 -07.6851 26273.4
 29 11 2013  06 03  -21.0199 26037.7 -03513.6 -07.6852 26273.7
 29 11 2013  06 04  -21.0200 26037.9 -03513.7 -07.6853 26273.9
 29 11 2013  06 05  -21.0199 26038.0 -03513.6 -07.6852 26274.0
 29 11 2013  06 06  -21.0200 26037.7 -03513.4 -07.6847 26273.7
 29 11 2013  06 07  -21.0202 26037.5 -03513.2 -07.6844 26273.4
 29 11 2013  06 08  -21.0205 26037.0 -03512.9 -07.6839 26272.9
 29 11 2013  06 09  -21.0207 26036.7 -03512.6 -07.6834 26272.5
 29 11 2013  06 10  -21.0209 26036.5 -03512.5 -07.6831 26272.4
 29 11 2013  06 11  -21.0212 26036.5 -03512.4 -07.6830 26272.3
 29 11 2013  06 12  -21.0215 26036.6 -03512.5 -07.6831 26272.4
 29 11 2013  06 13  -21.0217 26036.7 -03512.5 -07.6831 26272.5
 29 11 2013  06 14  -21.0221 26036.7 -03512.5 -07.6831 26272.6
 29 11 2013  06 15  -21.0225 26036.7 -03512.5 -07.6830 26272.5
 29 11 2013  06 16  -21.0229 26036.7 -03512.4 -07.6830 26272.6
 29 11 2013  06 17  -21.0231 26036.8 -03512.4 -07.6829 26272.6
 29 11 2013  06 18  -21.0234 26036.7 -03512.4 -07.6828 26272.6
 29 11 2013  06 19  -21.0235 26036.9 -03512.4 -07.6828 26272.7
 29 11 2013  06 20  -21.0237 26036.9 -03512.4 -07.6829 26272.8
 29 11 2013  06 21  -21.0237 26036.8 -03512.3 -07.6827 26272.7
 29 11 2013  06 22  -21.0233 26036.7 -03512.3 -07.6826 26272.5
 29 11 2013  06 23  -21.0229 26036.4 -03512.0 -07.6822 26272.2
 29 11 2013  06 24  -21.0227 26036.1 -03511.9 -07.6820 26271.8
 29 11 2013  06 25  -21.0226 26035.8 -03511.8 -07.6818 26271.6
 29 11 2013  06 26  -21.0225 26035.5 -03511.6 -07.6816 26271.3
 29 11 2013  06 27  -21.0224 26035.6 -03511.6 -07.6816 26271.4
 29 11 2013  06 28  -21.0224 26035.5 -03511.7 -07.6817 26271.3
 29 11 2013  06 29  -21.0223 26035.4 -03511.6 -07.6816 26271.1
 29 11 2013  06 30  -21.0221 26035.4 -03511.5 -07.6814 26271.1
 29 11 2013  06 31  -21.0219 26035.1 -03511.4 -07.6813 26270.8
 29 11 2013  06 32  -21.0218 26034.9 -03511.3 -07.6811 26270.6
 29 11 2013  06 33  -21.0219 26034.7 -03511.3 -07.6810 26270.4
 29 11 2013  06 34  -21.0217 26034.5 -03511.2 -07.6810 26270.2
 29 11 2013  06 35  -21.0214 26034.3 -03511.1 -07.6808 26269.9
 29 11 2013  06 36  -21.0214 26034.0 -03511.0 -07.6807 26269.7
 29 11 2013  06 37  -21.0213 26033.9 -03511.0 -07.6807 26269.6
 29 11 2013  06 38  -21.0216 26034.1 -03511.2 -07.6810 26269.8
 29 11 2013  06 39  -21.0215 26034.4 -03511.4 -07.6813 26270.1
 29 11 2013  06 40  -21.0213 26034.4 -03511.4 -07.6814 26270.1
 29 11 2013  06 41  -21.0212 26034.4 -03511.4 -07.6815 26270.1
 29 11 2013  06 42  -21.0207 26034.1 -03511.3 -07.6813 26269.8
 29 11 2013  06 43  -21.0206 26034.1 -03511.4 -07.6814 26269.9
 29 11 2013  06 44  -21.0202 26034.2 -03511.5 -07.6816 26270.0
 29 11 2013  06 45  -21.0198 26034.3 -03511.5 -07.6816 26270.0
 29 11 2013  06 46  -21.0191 26034.3 -03511.6 -07.6818 26270.0
 29 11 2013  06 47  -21.0186 26033.9 -03511.4 -07.6816 26269.6
 29 11 2013  06 48  -21.0183 26033.6 -03511.3 -07.6815 26269.4
 29 11 2013  06 49  -21.0182 26033.5 -03511.3 -07.6816 26269.3
 29 11 2013  06 50  -21.0179 26033.3 -03511.3 -07.6816 26269.0
 29 11 2013  06 51  -21.0175 26033.2 -03511.3 -07.6816 26268.9
 29 11 2013  06 52  -21.0169 26033.0 -03511.3 -07.6815 26268.7
 29 11 2013  06 53  -21.0169 26033.1 -03511.4 -07.6817 26268.8
 29 11 2013  06 54  -21.0167 26033.2 -03511.5 -07.6820 26269.0
 29 11 2013  06 55  -21.0164 26033.1 -03511.6 -07.6822 26268.9
 29 11 2013  06 56  -21.0160 26033.1 -03511.6 -07.6822 26268.9
 29 11 2013  06 57  -21.0160 26032.9 -03511.6 -07.6823 26268.7
 29 11 2013  06 58  -21.0163 26032.9 -03511.6 -07.6824 26268.7
 29 11 2013  06 59  -21.0163 26033.0 -03511.8 -07.6826 26268.8
 29 11 2013  07 00  -21.0162 26033.1 -03511.8 -07.6827 26268.9
 29 11 2013  07 01  -21.0164 26033.0 -03511.8 -07.6828 26268.8
 29 11 2013  07 02  -21.0164 26033.0 -03511.9 -07.6829 26268.8
 29 11 2013  07 03  -21.0164 26032.9 -03511.9 -07.6829 26268.8
 29 11 2013  07 04  -21.0164 26032.9 -03511.9 -07.6829 26268.7
 29 11 2013  07 05  -21.0164 26033.0 -03511.9 -07.6830 26268.8
 29 11 2013  07 06  -21.0167 26033.0 -03512.0 -07.6831 26268.9
 29 11 2013  07 07  -21.0168 26033.1 -03512.1 -07.6832 26269.0
 29 11 2013  07 08  -21.0165 26033.2 -03512.1 -07.6832 26269.0
 29 11 2013  07 09  -21.0164 26033.0 -03512.0 -07.6832 26268.9
 29 11 2013  07 10  -21.0163 26033.1 -03512.1 -07.6832 26268.9
 29 11 2013  07 11  -21.0160 26033.1 -03512.1 -07.6833 26269.0
 29 11 2013  07 12  -21.0158 26033.1 -03512.1 -07.6833 26268.9
 29 11 2013  07 13  -21.0155 26033.1 -03512.1 -07.6833 26268.9
 29 11 2013  07 14  -21.0154 26033.0 -03512.1 -07.6834 26268.8
 29 11 2013  07 15  -21.0153 26033.0 -03512.2 -07.6835 26268.9
 29 11 2013  07 16  -21.0155 26033.0 -03512.2 -07.6836 26268.9
 29 11 2013  07 17  -21.0155 26033.1 -03512.2 -07.6836 26268.9
 29 11 2013  07 18  -21.0156 26033.2 -03512.3 -07.6838 26269.1
 29 11 2013  07 19  -21.0159 26033.3 -03512.4 -07.6838 26269.2
 29 11 2013  07 20  -21.0162 26033.4 -03512.4 -07.6839 26269.2
 29 11 2013  07 21  -21.0163 26033.5 -03512.4 -07.6839 26269.3
 29 11 2013  07 22  -21.0167 26033.7 -03512.6 -07.6842 26269.6
 29 11 2013  07 23  -21.0171 26033.9 -03512.7 -07.6844 26269.8
 29 11 2013  07 24  -21.0175 26034.0 -03512.7 -07.6844 26269.9
 29 11 2013  07 25  -21.0175 26033.9 -03512.7 -07.6843 26269.9
 29 11 2013  07 26  -21.0177 26033.8 -03512.6 -07.6843 26269.7
 29 11 2013  07 27  -21.0179 26033.8 -03512.6 -07.6841 26269.7
 29 11 2013  07 28  -21.0181 26033.8 -03512.6 -07.6841 26269.7
 29 11 2013  07 29  -21.0182 26034.1 -03512.7 -07.6843 26270.0
 29 11 2013  07 30  -21.0187 26034.3 -03512.8 -07.6846 26270.2
 29 11 2013  07 31  -21.0183 26034.1 -03512.7 -07.6844 26270.0
 29 11 2013  07 32  -21.0180 26034.0 -03512.7 -07.6842 26269.9
 29 11 2013  07 33  -21.0182 26034.2 -03512.8 -07.6844 26270.1
 29 11 2013  07 34  -21.0182 26034.2 -03512.8 -07.6845 26270.1
 29 11 2013  07 35  -21.0182 26034.5 -03512.9 -07.6846 26270.5
 29 11 2013  07 36  -21.0181 26035.0 -03513.1 -07.6849 26270.9
 29 11 2013  07 37  -21.0182 26034.6 -03513.0 -07.6847 26270.6
 29 11 2013  07 38  -21.0179 26034.6 -03512.8 -07.6844 26270.5
 29 11 2013  07 39  -21.0179 26034.8 -03513.0 -07.6847 26270.8
 29 11 2013  07 40  -21.0179 26034.8 -03513.0 -07.6848 26270.8
 29 11 2013  07 41  -21.0180 26034.9 -03513.1 -07.6849 26270.9
 29 11 2013  07 42  -21.0178 26034.8 -03513.0 -07.6849 26270.7
 29 11 2013  07 43  -21.0178 26034.7 -03513.0 -07.6848 26270.6
 29 11 2013  07 44  -21.0178 26035.0 -03513.2 -07.6851 26271.0
 29 11 2013  07 45  -21.0177 26034.9 -03513.2 -07.6851 26270.9
 29 11 2013  07 46  -21.0179 26034.9 -03513.2 -07.6851 26270.9
 29 11 2013  07 47  -21.0177 26035.0 -03513.2 -07.6852 26271.0
 29 11 2013  07 48  -21.0176 26035.1 -03513.2 -07.6852 26271.0
 29 11 2013  07 49  -21.0172 26034.9 -03513.1 -07.6851 26270.9
 29 11 2013  07 50  -21.0168 26034.8 -03513.1 -07.6849 26270.7
 29 11 2013  07 51  -21.0164 26034.5 -03513.0 -07.6849 26270.5
 29 11 2013  07 52  -21.0160 26034.4 -03513.0 -07.6848 26270.4
 29 11 2013  07 53  -21.0157 26034.3 -03513.0 -07.6848 26270.2
 29 11 2013  07 54  -21.0151 26034.1 -03512.9 -07.6847 26270.0
 29 11 2013  07 55  -21.0147 26034.0 -03512.9 -07.6847 26269.9
 29 11 2013  07 56  -21.0144 26033.8 -03512.8 -07.6847 26269.7
 29 11 2013  07 57  -21.0144 26033.6 -03512.8 -07.6848 26269.6
 29 11 2013  07 58  -21.0145 26033.7 -03513.0 -07.6850 26269.6
 29 11 2013  07 59  -21.0147 26033.7 -03513.1 -07.6852 26269.6
 29 11 2013  08 00  -21.0146 26033.8 -03513.2 -07.6854 26269.8
 29 11 2013  08 01  -21.0147 26033.8 -03513.2 -07.6855 26269.8
 29 11 2013  08 02  -21.0148 26033.7 -03513.2 -07.6855 26269.7
 29 11 2013  08 03  -21.0149 26033.9 -03513.3 -07.6856 26269.9
 29 11 2013  08 04  -21.0149 26033.8 -03513.3 -07.6856 26269.8
 29 11 2013  08 05  -21.0148 26033.6 -03513.2 -07.6854 26269.6
 29 11 2013  08 06  -21.0148 26033.5 -03513.1 -07.6853 26269.5
 29 11 2013  08 07  -21.0149 26033.4 -03513.1 -07.6853 26269.4
 29 11 2013  08 08  -21.0150 26033.5 -03513.1 -07.6853 26269.4
 29 11 2013  08 09  -21.0152 26033.5 -03513.1 -07.6854 26269.4
 29 11 2013  08 10  -21.0153 26033.3 -03513.1 -07.6853 26269.3
 29 11 2013  08 11  -21.0157 26033.3 -03513.0 -07.6853 26269.2
 29 11 2013  08 12  -21.0160 26033.2 -03513.0 -07.6852 26269.1
 29 11 2013  08 13  -21.0163 26033.2 -03513.0 -07.6852 26269.2
 29 11 2013  08 14  -21.0163 26033.3 -03513.0 -07.6852 26269.2
 29 11 2013  08 15  -21.0163 26033.1 -03512.9 -07.6851 26269.1
 29 11 2013  08 16  -21.0162 26033.1 -03512.8 -07.6849 26269.0
 29 11 2013  08 17  -21.0160 26032.9 -03512.7 -07.6848 26268.8
 29 11 2013  08 18  -21.0161 26032.8 -03512.7 -07.6847 26268.7
 29 11 2013  08 19  -21.0162 26032.7 -03512.6 -07.6846 26268.6
 29 11 2013  08 20  -21.0161 26032.5 -03512.5 -07.6844 26268.5
 29 11 2013  08 21  -21.0160 26032.4 -03512.5 -07.6843 26268.3
 29 11 2013  08 22  -21.0158 26032.1 -03512.3 -07.6840 26268.0
 29 11 2013  08 23  -21.0155 26032.1 -03512.2 -07.6838 26267.9
 29 11 2013  08 24  -21.0155 26032.0 -03512.2 -07.6838 26267.9
 29 11 2013  08 25  -21.0154 26031.9 -03512.1 -07.6837 26267.7
 29 11 2013  08 26  -21.0149 26031.8 -03512.1 -07.6836 26267.7
 29 11 2013  08 27  -21.0144 26031.7 -03512.0 -07.6836 26267.6
 29 11 2013  08 28  -21.0139 26031.8 -03512.1 -07.6837 26267.7
 29 11 2013  08 29  -21.0138 26031.9 -03512.2 -07.6839 26267.8
 29 11 2013  08 30  -21.0137 26031.9 -03512.3 -07.6842 26267.8
 29 11 2013  08 31  -21.0138 26031.9 -03512.4 -07.6842 26267.8
 29 11 2013  08 32  -21.0138 26032.0 -03512.5 -07.6844 26267.9
 29 11 2013  08 33  -21.0139 26031.9 -03512.5 -07.6846 26267.8
 29 11 2013  08 34  -21.0140 26031.7 -03512.5 -07.6845 26267.6
 29 11 2013  08 35  -21.0141 26031.5 -03512.5 -07.6846 26267.4
 29 11 2013  08 36  -21.0140 26031.5 -03512.5 -07.6846 26267.4
 29 11 2013  08 37  -21.0142 26031.5 -03512.6 -07.6849 26267.4
 29 11 2013  08 38  -21.0146 26031.5 -03512.7 -07.6850 26267.4
 29 11 2013  08 39  -21.0148 26031.4 -03512.8 -07.6852 26267.4
 29 11 2013  08 40  -21.0151 26031.3 -03512.7 -07.6852 26267.2
 29 11 2013  08 41  -21.0153 26031.3 -03512.8 -07.6854 26267.2
 29 11 2013  08 42  -21.0156 26031.3 -03512.9 -07.6855 26267.3
 29 11 2013  08 43  -21.0157 26031.4 -03513.0 -07.6857 26267.3
 29 11 2013  08 44  -21.0155 26031.5 -03513.1 -07.6859 26267.5
 29 11 2013  08 45  -21.0157 26031.5 -03513.2 -07.6861 26267.5
 29 11 2013  08 46  -21.0157 26031.4 -03513.2 -07.6861 26267.4
 29 11 2013  08 47  -21.0151 26031.3 -03513.2 -07.6862 26267.3
 29 11 2013  08 48  -21.0155 26031.2 -03513.2 -07.6863 26267.2
 29 11 2013  08 49  -21.0156 26031.3 -03513.3 -07.6865 26267.3
 29 11 2013  08 50  -21.0158 26031.5 -03513.5 -07.6869 26267.5
 29 11 2013  08 51  -21.0159 26031.4 -03513.5 -07.6869 26267.4
 29 11 2013  08 52  -21.0159 26031.6 -03513.7 -07.6872 26267.7
 29 11 2013  08 53  -21.0158 26031.8 -03513.8 -07.6875 26267.9
 29 11 2013  08 54  -21.0162 26031.9 -03513.9 -07.6876 26268.0
 29 11 2013  08 55  -21.0169 26032.1 -03514.1 -07.6878 26268.2
 29 11 2013  08 56  -21.0171 26032.2 -03514.2 -07.6880 26268.3
 29 11 2013  08 57  -21.0176 26032.3 -03514.2 -07.6881 26268.4
 29 11 2013  08 58  -21.0176 26032.7 -03514.4 -07.6884 26268.8
 29 11 2013  08 59  -21.0181 26033.0 -03514.6 -07.6887 26269.1
 29 11 2013  09 00  -21.0181 26033.1 -03514.6 -07.6888 26269.2
 29 11 2013  09 01  -21.0186 26033.5 -03514.8 -07.6891 26269.7
 29 11 2013  09 02  -21.0190 26034.1 -03515.1 -07.6896 26270.3
 29 11 2013  09 03  -21.0195 26034.5 -03515.3 -07.6898 26270.8
 29 11 2013  09 04  -21.0204 26035.1 -03515.5 -07.6901 26271.3
 29 11 2013  09 05  -21.0210 26035.2 -03515.5 -07.6901 26271.5
 29 11 2013  09 06  -21.0210 26035.5 -03515.5 -07.6900 26271.8
 29 11 2013  09 07  -21.0216 26035.6 -03515.5 -07.6899 26271.8
 29 11 2013  09 08  -21.0224 26035.9 -03515.6 -07.6900 26272.2
 29 11 2013  09 09  -21.0227 26036.2 -03515.5 -07.6897 26272.5
 29 11 2013  09 10  -21.0227 26036.2 -03515.5 -07.6898 26272.5
 29 11 2013  09 11  -21.0220 26036.1 -03515.4 -07.6896 26272.4
 29 11 2013  09 12  -21.0219 26036.4 -03515.6 -07.6898 26272.7
 29 11 2013  09 13  -21.0220 26036.1 -03515.5 -07.6897 26272.4
 29 11 2013  09 14  -21.0212 26036.3 -03515.3 -07.6893 26272.6
 29 11 2013  09 15  -21.0214 26036.8 -03515.6 -07.6898 26273.1
 29 11 2013  09 16  -21.0214 26036.6 -03515.7 -07.6901 26272.8
 29 11 2013  09 17  -21.0207 26037.0 -03515.9 -07.6903 26273.3
 29 11 2013  09 18  -21.0208 26037.1 -03516.0 -07.6907 26273.4
 29 11 2013  09 19  -21.0204 26036.9 -03516.0 -07.6906 26273.2
 29 11 2013  09 20  -21.0201 26036.9 -03516.0 -07.6906 26273.2
 29 11 2013  09 21  -21.0201 26037.1 -03516.2 -07.6910 26273.5
 29 11 2013  09 22  -21.0199 26037.2 -03516.3 -07.6912 26273.6
 29 11 2013  09 23  -21.0196 26037.5 -03516.5 -07.6914 26273.9
 29 11 2013  09 24  -21.0195 26037.9 -03516.6 -07.6917 26274.3
 29 11 2013  09 25  -21.0192 26038.3 -03516.8 -07.6919 26274.7
 29 11 2013  09 26  -21.0190 26038.5 -03516.8 -07.6919 26274.9
 29 11 2013  09 27  -21.0192 26038.8 -03516.9 -07.6920 26275.3
 29 11 2013  09 28  -21.0198 26039.2 -03517.0 -07.6922 26275.6
 29 11 2013  09 29  -21.0198 26039.1 -03516.9 -07.6919 26275.6
 29 11 2013  09 30  -21.0199 26039.2 -03516.8 -07.6917 26275.7
 29 11 2013  09 31  -21.0198 26039.7 -03516.9 -07.6918 26276.1
 29 11 2013  09 32  -21.0197 26039.8 -03516.9 -07.6917 26276.2
 29 11 2013  09 33  -21.0189 26040.4 -03517.0 -07.6917 26276.8
 29 11 2013  09 34  -21.0184 26040.5 -03517.1 -07.6919 26277.0
 29 11 2013  09 35  -21.0176 26040.8 -03517.2 -07.6920 26277.2
 29 11 2013  09 36  -21.0168 26041.2 -03517.4 -07.6923 26277.6
 29 11 2013  09 37  -21.0165 26041.4 -03517.5 -07.6926 26277.9
 29 11 2013  09 38  -21.0165 26041.8 -03517.7 -07.6929 26278.4
 29 11 2013  09 39  -21.0168 26042.2 -03517.9 -07.6932 26278.8
 29 11 2013  09 40  -21.0169 26042.5 -03518.0 -07.6933 26279.1
 29 11 2013  09 41  -21.0172 26042.8 -03518.0 -07.6933 26279.4
 29 11 2013  09 42  -21.0174 26043.0 -03518.0 -07.6932 26279.6
 29 11 2013  09 43  -21.0177 26043.2 -03517.9 -07.6930 26279.7
 29 11 2013  09 44  -21.0174 26043.3 -03517.8 -07.6927 26279.8
 29 11 2013  09 45  -21.0175 26043.7 -03517.9 -07.6927 26280.2
 29 11 2013  09 46  -21.0174 26043.7 -03517.8 -07.6926 26280.3
 29 11 2013  09 47  -21.0167 26044.0 -03517.8 -07.6925 26280.5
 29 11 2013  09 48  -21.0163 26044.2 -03517.9 -07.6927 26280.7
 29 11 2013  09 49  -21.0162 26044.5 -03518.0 -07.6927 26281.0
 29 11 2013  09 50  -21.0163 26044.9 -03518.1 -07.6929 26281.4
 29 11 2013  09 51  -21.0163 26045.0 -03518.1 -07.6929 26281.5
 29 11 2013  09 52  -21.0160 26045.4 -03518.3 -07.6931 26281.9
 29 11 2013  09 53  -21.0160 26045.4 -03518.4 -07.6933 26282.0
 29 11 2013  09 54  -21.0155 26045.6 -03518.5 -07.6935 26282.2
 29 11 2013  09 55  -21.0148 26046.2 -03518.7 -07.6939 26282.8
 29 11 2013  09 56  -21.0146 26046.4 -03518.9 -07.6942 26283.1
 29 11 2013  09 57  -21.0141 26047.0 -03519.2 -07.6946 26283.6
 29 11 2013  09 58  -21.0141 26047.2 -03519.4 -07.6949 26283.9
 29 11 2013  09 59  -21.0135 26047.4 -03519.4 -07.6949 26284.1
 29 11 2013  10 00  -21.0133 26047.7 -03519.5 -07.6951 26284.4
 29 11 2013  10 01  -21.0131 26048.0 -03519.6 -07.6952 26284.7
 29 11 2013  10 02  -21.0130 26048.6 -03519.8 -07.6954 26285.3
 29 11 2013  10 03  -21.0128 26048.8 -03519.8 -07.6953 26285.5
 29 11 2013  10 04  -21.0124 26048.9 -03519.7 -07.6952 26285.6
 29 11 2013  10 05  -21.0124 26049.0 -03519.7 -07.6951 26285.8
 29 11 2013  10 06  -21.0123 26049.0 -03519.6 -07.6949 26285.8
 29 11 2013  10 07  -21.0119 26049.0 -03519.5 -07.6947 26285.7
 29 11 2013  10 08  -21.0118 26049.0 -03519.5 -07.6947 26285.7
 29 11 2013  10 09  -21.0115 26049.0 -03519.6 -07.6948 26285.7
 29 11 2013  10 10  -21.0112 26048.8 -03519.5 -07.6948 26285.5
 29 11 2013  10 11  -21.0109 26048.8 -03519.6 -07.6950 26285.5
 29 11 2013  10 12  -21.0109 26048.8 -03519.8 -07.6953 26285.5
 29 11 2013  10 13  -21.0106 26048.8 -03519.8 -07.6954 26285.5
 29 11 2013  10 14  -21.0105 26048.8 -03519.9 -07.6957 26285.6
 29 11 2013  10 15  -21.0104 26049.1 -03520.1 -07.6961 26285.8
 29 11 2013  10 16  -21.0106 26049.2 -03520.3 -07.6963 26286.0
 29 11 2013  10 17  -21.0104 26049.3 -03520.3 -07.6964 26286.1
 29 11 2013  10 18  -21.0101 26049.1 -03520.3 -07.6964 26285.9
 29 11 2013  10 19  -21.0100 26049.1 -03520.4 -07.6966 26285.9
 29 11 2013  10 20  -21.0109 26049.5 -03520.6 -07.6970 26286.3
 29 11 2013  10 21  -21.0107 26049.8 -03520.8 -07.6973 26286.7
 29 11 2013  10 22  -21.0097 26049.9 -03520.8 -07.6972 26286.8
 29 11 2013  10 23  -21.0097 26050.2 -03520.9 -07.6973 26287.0
 29 11 2013  10 24  -21.0100 26050.6 -03521.1 -07.6976 26287.4
 29 11 2013  10 25  -21.0105 26051.0 -03521.2 -07.6977 26287.9
 29 11 2013  10 26  -21.0109 26051.5 -03521.3 -07.6978 26288.4
 29 11 2013  10 27  -21.0110 26051.9 -03521.3 -07.6978 26288.8
 29 11 2013  10 28  -21.0111 26052.1 -03521.3 -07.6977 26289.0
 29 11 2013  10 29  -21.0109 26052.2 -03521.3 -07.6976 26289.0
 29 11 2013  10 30  -21.0110 26052.1 -03521.2 -07.6973 26289.0
 29 11 2013  10 31  -21.0113 26052.1 -03521.1 -07.6973 26288.9
 29 11 2013  10 32  -21.0114 26052.0 -03521.1 -07.6972 26288.9
 29 11 2013  10 33  -21.0114 26051.8 -03520.9 -07.6969 26288.6
 29 11 2013  10 34  -21.0114 26051.4 -03520.7 -07.6965 26288.3
 29 11 2013  10 35  -21.0114 26050.9 -03520.4 -07.6961 26287.7
 29 11 2013  10 36  -21.0113 26050.5 -03520.2 -07.6958 26287.3
 29 11 2013  10 37  -21.0108 26050.3 -03520.3 -07.6960 26287.1
 29 11 2013  10 38  -21.0105 26050.3 -03520.5 -07.6963 26287.1
 29 11 2013  10 39  -21.0103 26050.5 -03520.6 -07.6966 26287.3
 29 11 2013  10 40  -21.0103 26050.5 -03520.8 -07.6971 26287.4
 29 11 2013  10 41  -21.0105 26050.8 -03521.0 -07.6975 26287.7
 29 11 2013  10 42  -21.0105 26050.9 -03521.2 -07.6977 26287.8
 29 11 2013  10 43  -21.0107 26050.9 -03521.1 -07.6976 26287.8
 29 11 2013  10 44  -21.0102 26051.1 -03521.1 -07.6976 26287.9
 29 11 2013  10 45  -21.0098 26051.1 -03521.1 -07.6975 26288.0
 29 11 2013  10 46  -21.0095 26051.3 -03521.1 -07.6975 26288.2
 29 11 2013  10 47  -21.0095 26051.5 -03521.2 -07.6975 26288.4
 29 11 2013  10 48  -21.0086 26051.2 -03521.0 -07.6972 26288.1
 29 11 2013  10 49  -21.0078 26051.1 -03520.9 -07.6972 26287.9
 29 11 2013  10 50  -21.0071 26050.8 -03520.9 -07.6972 26287.7
 29 11 2013  10 51  -21.0062 26050.9 -03521.0 -07.6974 26287.8
 29 11 2013  10 52  -21.0058 26051.2 -03521.3 -07.6979 26288.1
 29 11 2013  10 53  -21.0052 26051.3 -03521.5 -07.6982 26288.3
 29 11 2013  10 54  -21.0045 26051.6 -03521.6 -07.6985 26288.5
 29 11 2013  10 55  -21.0042 26051.8 -03521.8 -07.6988 26288.8
 29 11 2013  10 56  -21.0036 26051.8 -03521.9 -07.6991 26288.8
 29 11 2013  10 57  -21.0039 26052.0 -03522.0 -07.6992 26288.9
 29 11 2013  10 58  -21.0046 26052.8 -03522.3 -07.6997 26289.8
 29 11 2013  10 59  -21.0048 26053.2 -03522.5 -07.6998 26290.3
 29 11 2013  11 00  -21.0047 26053.2 -03522.3 -07.6994 26290.2
 29 11 2013  11 01  -21.0047 26052.8 -03522.0 -07.6990 26289.8
 29 11 2013  11 02  -21.0037 26052.7 -03522.0 -07.6990 26289.7
 29 11 2013  11 03  -21.0026 26052.4 -03521.9 -07.6989 26289.4
 29 11 2013  11 04  -21.0022 26052.2 -03521.9 -07.6989 26289.2
 29 11 2013  11 05  -21.0025 26052.2 -03522.0 -07.6992 26289.2
 29 11 2013  11 06  -21.0026 26052.0 -03522.0 -07.6992 26289.0
 29 11 2013  11 07  -21.0025 26051.6 -03521.9 -07.6992 26288.6
 29 11 2013  11 08  -21.0024 26051.2 -03521.9 -07.6991 26288.2
 29 11 2013  11 09  -21.0022 26050.7 -03521.8 -07.6991 26287.7
 29 11 2013  11 10  -21.0014 26050.4 -03521.8 -07.6993 26287.4
 29 11 2013  11 11  -21.0014 26050.7 -03522.1 -07.6998 26287.7
 29 11 2013  11 12  -21.0013 26051.0 -03522.4 -07.7002 26288.1
 29 11 2013  11 13  -21.0009 26050.9 -03522.3 -07.7001 26288.0
 29 11 2013  11 14  -21.0003 26050.7 -03522.3 -07.7002 26287.8
 29 11 2013  11 15  -21.0004 26050.6 -03522.4 -07.7004 26287.7
 29 11 2013  11 16  -21.0007 26051.0 -03522.5 -07.7006 26288.0
 29 11 2013  11 17  -21.0009 26051.6 -03522.8 -07.7009 26288.7
 29 11 2013  11 18  -21.0009 26051.9 -03522.8 -07.7009 26289.0
 29 11 2013  11 19  -21.0001 26051.8 -03522.7 -07.7006 26288.9
 29 11 2013  11 20  -20.9997 26051.8 -03522.6 -07.7005 26288.8
 29 11 2013  11 21  -21.0000 26052.1 -03522.7 -07.7006 26289.2
 29 11 2013  11 22  -20.9999 26052.6 -03522.8 -07.7008 26289.7
 29 11 2013  11 23  -20.9994 26052.8 -03522.8 -07.7007 26289.9
 29 11 2013  11 24  -20.9991 26052.6 -03522.6 -07.7003 26289.7
 29 11 2013  11 25  -20.9983 26052.6 -03522.4 -07.7000 26289.7
 29 11 2013  11 26  -20.9979 26052.9 -03522.6 -07.7001 26289.9
 29 11 2013  11 27  -20.9974 26053.2 -03522.7 -07.7004 26290.2
 29 11 2013  11 28  -20.9971 26052.9 -03522.7 -07.7003 26290.0
 29 11 2013  11 29  -20.9966 26052.7 -03522.6 -07.7003 26289.8
 29 11 2013  11 30  -20.9967 26052.6 -03522.7 -07.7006 26289.7
 29 11 2013  11 31  -20.9969 26052.9 -03523.0 -07.7010 26290.0
 29 11 2013  11 32  -20.9966 26052.9 -03523.0 -07.7010 26290.0
 29 11 2013  11 33  -20.9966 26052.7 -03523.0 -07.7011 26289.8
 29 11 2013  11 34  -20.9966 26052.5 -03523.1 -07.7014 26289.6
 29 11 2013  11 35  -20.9962 26052.4 -03523.2 -07.7016 26289.6
 29 11 2013  11 36  -20.9958 26052.5 -03523.3 -07.7019 26289.6
 29 11 2013  11 37  -20.9962 26052.6 -03523.4 -07.7021 26289.7
 29 11 2013  11 38  -20.9964 26052.7 -03523.5 -07.7021 26289.9
 29 11 2013  11 39  -20.9962 26052.7 -03523.5 -07.7021 26289.9
 29 11 2013  11 40  -20.9957 26053.0 -03523.6 -07.7023 26290.2
 29 11 2013  11 41  -20.9953 26052.9 -03523.6 -07.7023 26290.1
 29 11 2013  11 42  -20.9953 26052.7 -03523.4 -07.7021 26289.8
 29 11 2013  11 43  -20.9950 26052.5 -03523.4 -07.7020 26289.6
 29 11 2013  11 44  -20.9947 26052.6 -03523.5 -07.7022 26289.8
 29 11 2013  11 45  -20.9943 26053.0 -03523.7 -07.7026 26290.2
 29 11 2013  11 46  -20.9941 26053.4 -03523.9 -07.7029 26290.6
 29 11 2013  11 47  -20.9940 26053.6 -03523.9 -07.7029 26290.9
 29 11 2013  11 48  -20.9938 26053.8 -03523.9 -07.7029 26291.0
 29 11 2013  11 49  -20.9937 26053.9 -03524.0 -07.7029 26291.1
 29 11 2013  11 50  -20.9934 26053.5 -03523.8 -07.7027 26290.8
 29 11 2013  11 51  -20.9932 26053.4 -03523.9 -07.7028 26290.7
 29 11 2013  11 52  -20.9931 26053.4 -03523.9 -07.7029 26290.6
 29 11 2013  11 53  -20.9927 26053.1 -03523.8 -07.7028 26290.3
 29 11 2013  11 54  -20.9924 26053.1 -03523.9 -07.7029 26290.3
 29 11 2013  11 55  -20.9925 26053.2 -03524.1 -07.7033 26290.5
 29 11 2013  11 56  -20.9927 26053.5 -03524.3 -07.7038 26290.8
 29 11 2013  11 57  -20.9924 26053.7 -03524.5 -07.7042 26291.0
 29 11 2013  11 58  -20.9926 26053.7 -03524.6 -07.7043 26291.0
 29 11 2013  11 59  -20.9927 26053.9 -03524.7 -07.7045 26291.3
 29 11 2013  12 00  -20.9929 26054.3 -03524.9 -07.7048 26291.7
 29 11 2013  12 01  -20.9930 26054.5 -03525.0 -07.7048 26291.9
 29 11 2013  12 02  -20.9930 26055.1 -03525.2 -07.7052 26292.5
 29 11 2013  12 03  -20.9927 26055.5 -03525.4 -07.7055 26292.9
 29 11 2013  12 04  -20.9926 26055.7 -03525.4 -07.7055 26293.1
 29 11 2013  12 05  -20.9928 26056.3 -03525.6 -07.7058 26293.7
 29 11 2013  12 06  -20.9929 26056.4 -03525.7 -07.7059 26293.9
 29 11 2013  12 07  -20.9925 26056.0 -03525.5 -07.7056 26293.5
 29 11 2013  12 08  -20.9921 26055.8 -03525.4 -07.7054 26293.2
 29 11 2013  12 09  -20.9921 26056.1 -03525.4 -07.7054 26293.5
 29 11 2013  12 10  -20.9918 26056.7 -03525.6 -07.7057 26294.2
 29 11 2013  12 11  -20.9914 26057.0 -03525.7 -07.7057 26294.4
 29 11 2013  12 12  -20.9915 26056.8 -03525.4 -07.7052 26294.2
 29 11 2013  12 13  -20.9917 26057.2 -03525.5 -07.7053 26294.7
 29 11 2013  12 14  -20.9918 26057.7 -03525.7 -07.7055 26295.1
 29 11 2013  12 15  -20.9916 26057.9 -03525.7 -07.7054 26295.3
 29 11 2013  12 16  -20.9915 26058.1 -03525.7 -07.7054 26295.6
 29 11 2013  12 17  -20.9912 26058.5 -03525.8 -07.7056 26296.0
 29 11 2013  12 18  -20.9910 26058.8 -03525.9 -07.7056 26296.2
 29 11 2013  12 19  -20.9908 26059.0 -03525.9 -07.7056 26296.5
 29 11 2013  12 20  -20.9908 26059.3 -03526.0 -07.7057 26296.8
 29 11 2013  12 21  -20.9909 26059.4 -03526.0 -07.7056 26296.8
 29 11 2013  12 22  -20.9915 26059.5 -03526.0 -07.7056 26297.0
 29 11 2013  12 23  -20.9920 26059.6 -03526.0 -07.7056 26297.1
 29 11 2013  12 24  -20.9925 26059.5 -03525.8 -07.7053 26296.9
 29 11 2013  12 25  -20.9927 26059.4 -03525.8 -07.7051 26296.8
 29 11 2013  12 26  -20.9924 26059.3 -03525.7 -07.7051 26296.8
 29 11 2013  12 27  -20.9923 26059.3 -03525.7 -07.7050 26296.7
 29 11 2013  12 28  -20.9923 26059.2 -03525.6 -07.7048 26296.6
 29 11 2013  12 29  -20.9922 26059.1 -03525.5 -07.7046 26296.5
 29 11 2013  12 30  -20.9922 26059.3 -03525.5 -07.7046 26296.7
 29 11 2013  12 31  -20.9919 26059.7 -03525.6 -07.7048 26297.1
 29 11 2013  12 32  -20.9915 26059.9 -03525.7 -07.7049 26297.4
 29 11 2013  12 33  -20.9915 26060.2 -03525.7 -07.7048 26297.6
 29 11 2013  12 34  -20.9914 26061.0 -03525.9 -07.7050 26298.5
 29 11 2013  12 35  -20.9913 26061.6 -03526.0 -07.7051 26299.0
 29 11 2013  12 36  -20.9911 26061.8 -03525.9 -07.7048 26299.2
 29 11 2013  12 37  -20.9912 26061.8 -03525.8 -07.7045 26299.2
 29 11 2013  12 38  -20.9912 26062.1 -03525.7 -07.7042 26299.5
 29 11 2013  12 39  -20.9913 26062.4 -03525.5 -07.7038 26299.8
 29 11 2013  12 40  -20.9913 26062.0 -03525.0 -07.7027 26299.3
 29 11 2013  12 41  -20.9912 26061.8 -03524.6 -07.7019 26299.0
 29 11 2013  12 42  -20.9915 26061.9 -03524.4 -07.7016 26299.1
 29 11 2013  12 43  -20.9920 26062.0 -03524.4 -07.7014 26299.2
 29 11 2013  12 44  -20.9935 26061.6 -03524.1 -07.7010 26298.8
 29 11 2013  12 45  -20.9947 26061.3 -03524.1 -07.7010 26298.5
 29 11 2013  12 46  -20.9971 26061.3 -03524.2 -07.7012 26298.5
 29 11 2013  12 47  -20.9980 26061.1 -03524.2 -07.7013 26298.3
 29 11 2013  12 48  -20.9980 26061.3 -03524.3 -07.7015 26298.5
 29 11 2013  12 49  -20.9980 26061.2 -03524.3 -07.7014 26298.4
 29 11 2013  12 50  -20.9980 26061.5 -03524.3 -07.7014 26298.8
 29 11 2013  12 51  -20.9977 26061.9 -03524.4 -07.7014 26299.1
 29 11 2013  12 52  -20.9976 26062.2 -03524.3 -07.7013 26299.4
 29 11 2013  12 53  -20.9971 26062.3 -03524.2 -07.7010 26299.5
 29 11 2013  12 54  -20.9968 26062.4 -03524.1 -07.7007 26299.6
 29 11 2013  12 55  -20.9966 26063.1 -03524.3 -07.7009 26300.3
 29 11 2013  12 56  -20.9933 26063.8 -03524.2 -07.7006 26300.9
 29 11 2013  12 57  -20.9931 26064.4 -03524.4 -07.7007 26301.6
 29 11 2013  12 58  -20.9930 26064.7 -03524.3 -07.7005 26301.9
 29 11 2013  12 59  -20.9930 26064.9 -03524.1 -07.6999 26302.0
 29 11 2013  13 00  -20.9929 26065.5 -03524.3 -07.7003 26302.7
 29 11 2013  13 01  -20.9924 26066.1 -03524.4 -07.7003 26303.3
 29 11 2013  13 02  -20.9915 26066.9 -03524.7 -07.7006 26304.1
 29 11 2013  13 03  -20.9910 26067.6 -03524.8 -07.7006 26304.9
 29 11 2013  13 04  -20.9906 26068.1 -03524.7 -07.7003 26305.3
 29 11 2013  13 05  -20.9910 26068.2 -03524.5 -07.6999 26305.4
 29 11 2013  13 06  -20.9913 26068.4 -03524.3 -07.6995 26305.6
 29 11 2013  13 07  -20.9908 26068.5 -03524.3 -07.6993 26305.7
 29 11 2013  13 08  -20.9888 26068.6 -03524.1 -07.6989 26305.7
 29 11 2013  13 09  -20.9890 26068.3 -03523.9 -07.6985 26305.4
 29 11 2013  13 10  -20.9894 26067.8 -03523.5 -07.6979 26304.8
 29 11 2013  13 11  -20.9899 26066.8 -03523.0 -07.6971 26303.8
 29 11 2013  13 12  -20.9905 26065.3 -03522.4 -07.6961 26302.3
 29 11 2013  13 13  -20.9911 26063.7 -03521.9 -07.6956 26300.6
 29 11 2013  13 14  -20.9919 26062.5 -03521.7 -07.6954 26299.3
 29 11 2013  13 15  -20.9924 26061.9 -03521.8 -07.6958 26298.8
 29 11 2013  13 16  -20.9928 26061.6 -03522.0 -07.6963 26298.5
 29 11 2013  13 17  -20.9928 26061.6 -03522.2 -07.6969 26298.5
 29 11 2013  13 18  -20.9923 26061.6 -03522.4 -07.6974 26298.6
 29 11 2013  13 19  -20.9921 26061.6 -03522.6 -07.6976 26298.6
 29 11 2013  13 20  -20.9925 26061.9 -03522.7 -07.6977 26298.9
 29 11 2013  13 21  -20.9927 26062.1 -03522.7 -07.6977 26299.1
 29 11 2013  13 22  -20.9927 26062.3 -03522.7 -07.6977 26299.3
 29 11 2013  13 23  -20.9923 26062.2 -03522.5 -07.6974 26299.2
 29 11 2013  13 24  -20.9919 26062.5 -03522.6 -07.6973 26299.5
 29 11 2013  13 25  -20.9912 26063.0 -03522.5 -07.6972 26299.9
 29 11 2013  13 26  -20.9906 26063.4 -03522.6 -07.6971 26300.4
 29 11 2013  13 27  -20.9897 26063.6 -03522.4 -07.6966 26300.6
 29 11 2013  13 28  -20.9889 26063.8 -03522.3 -07.6963 26300.8
 29 11 2013  13 29  -20.9880 26064.3 -03522.2 -07.6961 26301.2
 29 11 2013  13 30  -20.9871 26064.6 -03522.1 -07.6957 26301.5
 29 11 2013  13 31  -20.9862 26064.2 -03521.7 -07.6949 26301.1
 29 11 2013  13 32  -20.9857 26064.2 -03521.5 -07.6945 26301.1
 29 11 2013  13 33  -20.9852 26064.7 -03521.6 -07.6946 26301.5
 29 11 2013  13 34  -20.9846 26064.7 -03521.4 -07.6942 26301.5
 29 11 2013  13 35  -20.9841 26064.8 -03521.4 -07.6941 26301.6
 29 11 2013  13 36  -20.9839 26064.9 -03521.4 -07.6940 26301.7
 29 11 2013  13 37  -20.9836 26064.9 -03521.3 -07.6938 26301.7
 29 11 2013  13 38  -20.9833 26064.9 -03521.2 -07.6936 26301.7
 29 11 2013  13 39  -20.9830 26065.0 -03521.1 -07.6935 26301.8
 29 11 2013  13 40  -20.9828 26065.2 -03521.1 -07.6934 26302.0
 29 11 2013  13 41  -20.9825 26065.4 -03521.1 -07.6933 26302.2
 29 11 2013  13 42  -20.9819 26065.2 -03520.8 -07.6928 26301.9
 29 11 2013  13 43  -20.9818 26065.2 -03520.8 -07.6928 26301.9
 29 11 2013  13 44  -20.9818 26065.5 -03521.0 -07.6930 26302.3
 29 11 2013  13 45  -20.9815 26065.9 -03521.0 -07.6930 26302.6
 29 11 2013  13 46  -20.9808 26066.2 -03521.0 -07.6930 26302.9
 29 11 2013  13 47  -20.9805 26066.2 -03521.0 -07.6929 26303.0
 29 11 2013  13 48  -20.9801 26066.5 -03521.0 -07.6928 26303.3
 29 11 2013  13 49  -20.9796 26066.6 -03520.9 -07.6926 26303.3
 29 11 2013  13 50  -20.9791 26066.5 -03520.8 -07.6923 26303.2
 29 11 2013  13 51  -20.9786 26066.4 -03520.6 -07.6921 26303.0
 29 11 2013  13 52  -20.9786 26066.1 -03520.5 -07.6918 26302.7
 29 11 2013  13 53  -20.9784 26066.0 -03520.5 -07.6918 26302.7
 29 11 2013  13 54  -20.9782 26065.8 -03520.4 -07.6916 26302.5
 29 11 2013  13 55  -20.9778 26065.6 -03520.3 -07.6915 26302.2
 29 11 2013  13 56  -20.9775 26065.5 -03520.3 -07.6916 26302.2
 29 11 2013  13 57  -20.9774 26065.6 -03520.4 -07.6917 26302.3
 29 11 2013  13 58  -20.9773 26065.6 -03520.4 -07.6918 26302.3
 29 11 2013  13 59  -20.9769 26065.5 -03520.4 -07.6918 26302.1
 29 11 2013  14 00  -20.9769 26065.6 -03520.5 -07.6919 26302.2
 29 11 2013  14 01  -20.9770 26065.7 -03520.6 -07.6922 26302.4
 29 11 2013  14 02  -20.9770 26065.7 -03520.6 -07.6921 26302.4
 29 11 2013  14 03  -20.9770 26065.7 -03520.6 -07.6922 26302.4
 29 11 2013  14 04  -20.9770 26066.0 -03520.7 -07.6924 26302.7
 29 11 2013  14 05  -20.9767 26065.9 -03520.6 -07.6922 26302.6
 29 11 2013  14 06  -20.9762 26065.6 -03520.4 -07.6918 26302.2
 29 11 2013  14 07  -20.9761 26065.4 -03520.4 -07.6917 26302.0
 29 11 2013  14 08  -20.9760 26065.5 -03520.4 -07.6918 26302.2
 29 11 2013  14 09  -20.9758 26065.5 -03520.5 -07.6919 26302.2
 29 11 2013  14 10  -20.9757 26065.2 -03520.3 -07.6917 26301.9
 29 11 2013  14 11  -20.9759 26064.6 -03520.0 -07.6911 26301.2
 29 11 2013  14 12  -20.9761 26063.2 -03519.2 -07.6900 26299.7
 29 11 2013  14 13  -20.9767 26062.3 -03519.0 -07.6898 26298.8
 29 11 2013  14 14  -20.9771 26061.4 -03518.9 -07.6898 26297.9
 29 11 2013  14 15  -20.9767 26061.2 -03519.2 -07.6905 26297.7
 29 11 2013  14 16  -20.9767 26062.1 -03520.0 -07.6920 26298.8
 29 11 2013  14 17  -20.9767 26062.0 -03520.0 -07.6919 26298.6
 29 11 2013  14 18  -20.9770 26061.7 -03519.8 -07.6915 26298.3
 29 11 2013  14 19  -20.9780 26060.3 -03518.9 -07.6902 26296.8
 29 11 2013  14 20  -20.9783 26059.0 -03518.5 -07.6896 26295.5
 29 11 2013  14 21  -20.9793 26058.2 -03518.5 -07.6898 26294.6
 29 11 2013  14 22  -20.9790 26056.9 -03518.1 -07.6893 26293.3
 29 11 2013  14 23  -20.9792 26056.8 -03518.4 -07.6901 26293.3
 29 11 2013  14 24  -20.9793 26057.3 -03518.9 -07.6909 26293.8
 29 11 2013  14 25  -20.9783 26057.6 -03519.2 -07.6914 26294.2
 29 11 2013  14 26  -20.9772 26058.0 -03519.3 -07.6916 26294.5
 29 11 2013  14 27  -20.9764 26058.6 -03519.6 -07.6922 26295.2
 29 11 2013  14 28  -20.9767 26059.6 -03520.0 -07.6926 26296.3
 29 11 2013  14 29  -20.9760 26060.0 -03519.8 -07.6921 26296.6
 29 11 2013  14 30  -20.9750 26060.2 -03519.6 -07.6917 26296.8
 29 11 2013  14 31  -20.9745 26061.4 -03519.9 -07.6918 26298.0
 29 11 2013  14 32  -20.9746 26063.1 -03520.2 -07.6920 26299.8
 29 11 2013  14 33  -20.9750 26065.1 -03520.4 -07.6919 26301.8
 29 11 2013  14 34  -20.9748 26066.5 -03520.3 -07.6912 26303.1
 29 11 2013  14 35  -20.9739 26066.9 -03519.7 -07.6899 26303.5
 29 11 2013  14 36  -20.9733 26067.4 -03519.2 -07.6888 26303.8
 29 11 2013  14 37  -20.9731 26068.0 -03519.0 -07.6881 26304.4
 29 11 2013  14 38  -20.9727 26068.8 -03518.9 -07.6876 26305.2
 29 11 2013  14 39  -20.9720 26069.0 -03518.5 -07.6866 26305.4
 29 11 2013  14 40  -20.9719 26069.6 -03518.2 -07.6859 26305.9
 29 11 2013  14 41  -20.9715 26070.2 -03518.0 -07.6854 26306.5
 29 11 2013  14 42  -20.9704 26069.2 -03517.2 -07.6839 26305.4
 29 11 2013  14 43  -20.9699 26068.5 -03516.7 -07.6830 26304.6
 29 11 2013  14 44  -20.9699 26068.0 -03516.5 -07.6827 26304.2
 29 11 2013  14 45  -20.9696 26067.7 -03516.4 -07.6826 26303.8
 29 11 2013  14 46  -20.9696 26067.4 -03516.4 -07.6825 26303.5
 29 11 2013  14 47  -20.9699 26067.4 -03516.5 -07.6828 26303.5
 29 11 2013  14 48  -20.9700 26067.7 -03516.7 -07.6831 26303.8
 29 11 2013  14 49  -20.9700 26068.1 -03516.8 -07.6833 26304.2
 29 11 2013  14 50  -20.9694 26068.2 -03516.8 -07.6831 26304.4
 29 11 2013  14 51  -20.9698 26068.4 -03516.8 -07.6831 26304.6
 29 11 2013  14 52  -20.9701 26068.2 -03516.6 -07.6827 26304.3
 29 11 2013  14 53  -20.9699 26067.5 -03516.2 -07.6821 26303.6
 29 11 2013  14 54  -20.9699 26066.7 -03515.9 -07.6818 26302.8
 29 11 2013  14 55  -20.9697 26067.0 -03516.3 -07.6824 26303.1
 29 11 2013  14 56  -20.9693 26066.8 -03516.3 -07.6826 26302.9
 29 11 2013  14 57  -20.9689 26067.0 -03516.4 -07.6827 26303.1
 29 11 2013  14 58  -20.9694 26067.1 -03516.5 -07.6829 26303.2
 29 11 2013  14 59  -20.9693 26067.0 -03516.5 -07.6829 26303.1
 29 11 2013  15 00  -20.9692 26066.9 -03516.4 -07.6828 26303.0
 29 11 2013  15 01  -20.9699 26067.0 -03516.4 -07.6828 26303.1
 29 11 2013  15 02  -20.9695 26065.7 -03515.8 -07.6817 26301.8
 29 11 2013  15 03  -20.9691 26063.5 -03514.8 -07.6802 26299.4
 29 11 2013  15 04  -20.9693 26061.4 -03514.4 -07.6799 26297.3
 29 11 2013  15 05  -20.9692 26059.4 -03514.1 -07.6800 26295.2
 29 11 2013  15 06  -20.9688 26057.6 -03514.2 -07.6806 26293.5
 29 11 2013  15 07  -20.9691 26056.6 -03514.6 -07.6818 26292.6
 29 11 2013  15 08  -20.9694 26056.0 -03515.1 -07.6831 26292.0
 29 11 2013  15 09  -20.9698 26055.1 -03515.4 -07.6841 26291.2
 29 11 2013  15 10  -20.9702 26054.9 -03516.1 -07.6855 26291.1
 29 11 2013  15 11  -20.9705 26054.2 -03516.3 -07.6863 26290.5
 29 11 2013  15 12  -20.9706 26054.3 -03516.9 -07.6875 26290.6
 29 11 2013  15 13  -20.9712 26054.3 -03517.4 -07.6885 26290.7
 29 11 2013  15 14  -20.9718 26054.9 -03517.9 -07.6895 26291.4
 29 11 2013  15 15  -20.9725 26055.6 -03518.4 -07.6903 26292.1
 29 11 2013  15 16  -20.9732 26056.0 -03518.5 -07.6904 26292.5
 29 11 2013  15 17  -20.9735 26055.7 -03518.2 -07.6900 26292.2
 29 11 2013  15 18  -20.9735 26055.4 -03518.1 -07.6897 26291.9
 29 11 2013  15 19  -20.9735 26055.2 -03518.0 -07.6896 26291.6
 29 11 2013  15 20  -20.9737 26055.0 -03518.0 -07.6897 26291.5
 29 11 2013  15 21  -20.9735 26055.0 -03518.0 -07.6897 26291.4
 29 11 2013  15 22  -20.9738 26054.8 -03517.9 -07.6896 26291.2
 29 11 2013  15 23  -20.9742 26055.3 -03518.1 -07.6899 26291.7
 29 11 2013  15 24  -20.9748 26055.2 -03517.9 -07.6895 26291.6
 29 11 2013  15 25  -20.9750 26055.7 -03518.0 -07.6895 26292.1
 29 11 2013  15 26  -20.9754 26055.1 -03517.6 -07.6888 26291.5
 29 11 2013  15 27  -20.9752 26055.5 -03517.6 -07.6887 26291.9
 29 11 2013  15 28  -20.9754 26055.1 -03517.3 -07.6882 26291.5
 29 11 2013  15 29  -20.9758 26056.0 -03517.6 -07.6885 26292.4
 29 11 2013  15 30  -20.9761 26056.0 -03517.4 -07.6881 26292.3
 29 11 2013  15 31  -20.9765 26056.1 -03517.3 -07.6878 26292.5
 29 11 2013  15 32  -20.9765 26055.9 -03517.0 -07.6873 26292.1
 29 11 2013  15 33  -20.9764 26055.9 -03516.8 -07.6869 26292.2
 29 11 2013  15 34  -20.9760 26055.9 -03516.8 -07.6867 26292.2
 29 11 2013  15 35  -20.9756 26056.1 -03516.8 -07.6867 26292.3
 29 11 2013  15 36  -20.9759 26056.2 -03516.8 -07.6866 26292.5
 29 11 2013  15 37  -20.9759 26056.1 -03516.5 -07.6861 26292.3
 29 11 2013  15 38  -20.9764 26055.2 -03516.0 -07.6854 26291.4
 29 11 2013  15 39  -20.9767 26054.3 -03515.6 -07.6847 26290.4
 29 11 2013  15 40  -20.9770 26054.1 -03515.6 -07.6847 26290.2
 29 11 2013  15 41  -20.9771 26054.4 -03515.7 -07.6848 26290.5
 29 11 2013  15 42  -20.9775 26054.7 -03515.7 -07.6847 26290.8
 29 11 2013  15 43  -20.9775 26054.8 -03515.5 -07.6843 26290.9
 29 11 2013  15 44  -20.9782 26054.9 -03515.4 -07.6840 26290.9
 29 11 2013  15 45  -20.9785 26056.2 -03515.6 -07.6842 26292.3
 29 11 2013  15 46  -20.9792 26055.5 -03515.1 -07.6833 26291.5
 29 11 2013  15 47  -20.9788 26055.9 -03515.0 -07.6828 26291.9
 29 11 2013  15 48  -20.9785 26055.1 -03514.4 -07.6819 26291.1
 29 11 2013  15 49  -20.9779 26055.8 -03514.6 -07.6821 26291.8
 29 11 2013  15 50  -20.9774 26055.6 -03514.5 -07.6819 26291.6
 29 11 2013  15 51  -20.9769 26056.3 -03514.5 -07.6818 26292.2
 29 11 2013  15 52  -20.9768 26056.2 -03514.3 -07.6814 26292.1
 29 11 2013  15 53  -20.9769 26056.8 -03514.4 -07.6815 26292.7
 29 11 2013  15 54  -20.9770 26055.7 -03513.9 -07.6805 26291.6
 29 11 2013  15 55  -20.9768 26055.7 -03513.7 -07.6803 26291.5
 29 11 2013  15 56  -20.9774 26055.4 -03513.6 -07.6801 26291.2
 29 11 2013  15 57  -20.9779 26055.2 -03513.4 -07.6797 26291.0
 29 11 2013  15 58  -20.9782 26054.2 -03512.9 -07.6790 26289.9
 29 11 2013  15 59  -20.9789 26053.9 -03512.9 -07.6789 26289.7
 29 11 2013  16 00  -20.9792 26052.8 -03512.4 -07.6782 26288.5
 29 11 2013  16 01  -20.9793 26052.6 -03512.3 -07.6781 26288.3
 29 11 2013  16 02  -20.9799 26052.4 -03512.2 -07.6779 26288.1
 29 11 2013  16 03  -20.9807 26052.5 -03512.3 -07.6780 26288.2
 29 11 2013  16 04  -20.9811 26051.9 -03511.9 -07.6774 26287.5
 29 11 2013  16 05  -20.9812 26051.3 -03511.6 -07.6769 26286.9
 29 11 2013  16 06  -20.9810 26051.0 -03511.4 -07.6766 26286.6
 29 11 2013  16 07  -20.9811 26051.3 -03511.6 -07.6769 26286.9
 29 11 2013  16 08  -20.9817 26051.9 -03511.8 -07.6772 26287.5
 29 11 2013  16 09  -20.9819 26051.5 -03511.5 -07.6767 26287.1
 29 11 2013  16 10  -20.9818 26051.4 -03511.4 -07.6764 26287.0
 29 11 2013  16 11  -20.9822 26051.4 -03511.3 -07.6762 26287.0
 29 11 2013  16 12  -20.9826 26051.5 -03511.2 -07.6760 26287.1
 29 11 2013  16 13  -20.9826 26051.3 -03510.9 -07.6754 26286.9
 29 11 2013  16 14  -20.9828 26051.4 -03510.9 -07.6753 26287.0
 29 11 2013  16 15  -20.9829 26051.6 -03510.8 -07.6752 26287.1
 29 11 2013  16 16  -20.9825 26051.7 -03510.7 -07.6749 26287.2
 29 11 2013  16 17  -20.9828 26052.4 -03510.9 -07.6752 26287.9
 29 11 2013  16 18  -20.9833 26052.5 -03510.7 -07.6747 26287.9
 29 11 2013  16 19  -20.9826 26052.3 -03510.4 -07.6740 26287.7
 29 11 2013  16 20  -20.9827 26052.8 -03510.5 -07.6741 26288.3
 29 11 2013  16 21  -20.9827 26053.3 -03510.5 -07.6740 26288.7
 29 11 2013  16 22  -20.9829 26053.5 -03510.4 -07.6737 26288.9
 29 11 2013  16 23  -20.9832 26053.8 -03510.2 -07.6733 26289.2
 29 11 2013  16 24  -20.9835 26053.9 -03510.1 -07.6728 26289.3
 29 11 2013  16 25  -20.9836 26054.3 -03509.9 -07.6725 26289.7
 29 11 2013  16 26  -20.9836 26054.4 -03509.8 -07.6721 26289.8
 29 11 2013  16 27  -20.9836 26054.8 -03509.7 -07.6717 26290.1
 29 11 2013  16 28  -20.9843 26055.4 -03509.6 -07.6714 26290.7
 29 11 2013  16 29  -20.9846 26055.8 -03509.4 -07.6709 26291.1
 29 11 2013  16 30  -20.9849 26056.4 -03509.3 -07.6705 26291.7
 29 11 2013  16 31  -20.9850 26056.8 -03509.1 -07.6700 26292.0
 29 11 2013  16 32  -20.9849 26056.7 -03508.7 -07.6691 26291.9
 29 11 2013  16 33  -20.9844 26056.7 -03508.4 -07.6685 26291.9
 29 11 2013  16 34  -20.9844 26056.8 -03508.2 -07.6680 26291.9
 29 11 2013  16 35  -20.9842 26056.8 -03508.0 -07.6675 26291.9
 29 11 2013  16 36  -20.9841 26056.5 -03507.7 -07.6669 26291.6
 29 11 2013  16 37  -20.9841 26056.1 -03507.4 -07.6664 26291.1
 29 11 2013  16 38  -20.9838 26055.6 -03507.2 -07.6662 26290.6
 29 11 2013  16 39  -20.9840 26055.8 -03507.4 -07.6664 26290.8
 29 11 2013  16 40  -20.9850 26056.2 -03507.5 -07.6667 26291.2
 29 11 2013  16 41  -20.9854 26056.4 -03507.5 -07.6666 26291.4
 29 11 2013  16 42  -20.9861 26056.9 -03507.6 -07.6666 26292.0
 29 11 2013  16 43  -20.9868 26057.2 -03507.5 -07.6663 26292.2
 29 11 2013  16 44  -20.9872 26057.3 -03507.2 -07.6657 26292.3
 29 11 2013  16 45  -20.9874 26057.2 -03506.9 -07.6650 26292.1
 29 11 2013  16 46  -20.9876 26056.6 -03506.4 -07.6641 26291.5
 29 11 2013  16 47  -20.9873 26055.9 -03505.9 -07.6632 26290.7
 29 11 2013  16 48  -20.9876 26055.7 -03505.7 -07.6630 26290.5
 29 11 2013  16 49  -20.9880 26055.8 -03505.7 -07.6629 26290.6
 29 11 2013  16 50  -20.9883 26055.9 -03505.6 -07.6625 26290.6
 29 11 2013  16 51  -20.9887 26056.2 -03505.6 -07.6626 26291.0
 29 11 2013  16 52  -20.9893 26056.9 -03505.8 -07.6627 26291.6
 29 11 2013  16 53  -20.9895 26057.1 -03505.5 -07.6620 26291.8
 29 11 2013  16 54  -20.9899 26057.1 -03505.1 -07.6613 26291.8
 29 11 2013  16 55  -20.9905 26057.4 -03505.0 -07.6609 26292.0
 29 11 2013  16 56  -20.9906 26057.2 -03504.6 -07.6601 26291.9
 29 11 2013  16 57  -20.9906 26056.8 -03504.2 -07.6593 26291.3
 29 11 2013  16 58  -20.9908 26056.6 -03503.9 -07.6587 26291.2
 29 11 2013  16 59  -20.9903 26056.1 -03503.4 -07.6579 26290.6
 29 11 2013  17 00  -20.9902 26055.8 -03503.1 -07.6572 26290.2
 29 11 2013  17 01  -20.9910 26055.8 -03502.9 -07.6569 26290.2
 29 11 2013  17 02  -20.9925 26055.9 -03502.7 -07.6565 26290.3
 29 11 2013  17 03  -20.9932 26055.9 -03502.4 -07.6557 26290.3
 29 11 2013  17 04  -20.9932 26055.7 -03502.0 -07.6548 26290.0
 29 11 2013  17 05  -20.9935 26055.8 -03501.7 -07.6543 26290.1
 29 11 2013  17 06  -20.9940 26055.7 -03501.4 -07.6535 26289.9
 29 11 2013  17 07  -20.9955 26056.2 -03501.3 -07.6532 26290.4
 29 11 2013  17 08  -20.9952 26056.0 -03500.8 -07.6522 26290.2
 29 11 2013  17 09  -20.9947 26055.5 -03500.3 -07.6512 26289.5
 29 11 2013  17 10  -20.9961 26055.9 -03500.3 -07.6512 26290.0
 29 11 2013  17 11  -20.9966 26056.1 -03500.1 -07.6507 26290.1
 29 11 2013  17 12  -20.9965 26056.0 -03499.8 -07.6501 26290.0
 29 11 2013  17 13  -20.9962 26055.2 -03499.2 -07.6490 26289.1
 29 11 2013  17 14  -20.9953 26053.7 -03498.3 -07.6476 26287.5
 29 11 2013  17 15  -20.9950 26052.7 -03497.8 -07.6468 26286.5
 29 11 2013  17 16  -20.9957 26052.9 -03498.0 -07.6471 26286.7
 29 11 2013  17 17  -20.9961 26052.7 -03497.9 -07.6470 26286.5
 29 11 2013  17 18  -20.9959 26052.3 -03497.7 -07.6466 26286.0
 29 11 2013  17 19  -20.9959 26051.9 -03497.6 -07.6465 26285.7
 29 11 2013  17 20  -20.9958 26051.7 -03497.6 -07.6466 26285.5
 29 11 2013  17 21  -20.9967 26051.8 -03497.7 -07.6468 26285.6
 29 11 2013  17 22  -20.9972 26051.7 -03497.6 -07.6466 26285.5
 29 11 2013  17 23  -20.9969 26051.6 -03497.5 -07.6464 26285.3
 29 11 2013  17 24  -20.9974 26051.5 -03497.4 -07.6463 26285.2
 29 11 2013  17 25  -20.9976 26051.8 -03497.5 -07.6463 26285.5
 29 11 2013  17 26  -20.9968 26051.6 -03497.2 -07.6458 26285.3
 29 11 2013  17 27  -20.9973 26052.1 -03497.4 -07.6460 26285.8
 29 11 2013  17 28  -20.9974 26051.9 -03497.3 -07.6459 26285.6
 29 11 2013  17 29  -20.9979 26051.8 -03497.2 -07.6456 26285.5
 29 11 2013  17 30  -20.9986 26051.6 -03496.9 -07.6452 26285.2
 29 11 2013  17 31  -20.9983 26050.8 -03496.5 -07.6444 26284.3
 29 11 2013  17 32  -20.9974 26050.0 -03496.2 -07.6441 26283.5
 29 11 2013  17 33  -20.9965 26049.4 -03496.1 -07.6440 26283.0
 29 11 2013  17 34  -20.9955 26049.2 -03496.3 -07.6444 26282.8
 29 11 2013  17 35  -20.9970 26049.3 -03496.6 -07.6451 26282.9
 29 11 2013  17 36  -20.9969 26048.5 -03496.1 -07.6443 26282.0
 29 11 2013  17 37  -20.9964 26048.0 -03495.8 -07.6438 26281.5
 29 11 2013  17 38  -20.9968 26047.6 -03495.9 -07.6440 26281.2
 29 11 2013  17 39  -20.9974 26047.5 -03496.0 -07.6442 26281.1
 29 11 2013  17 40  -20.9987 26047.0 -03495.6 -07.6437 26280.5
 29 11 2013  17 41  -21.0003 26047.3 -03495.7 -07.6438 26280.8
 29 11 2013  17 42  -21.0006 26047.3 -03495.7 -07.6438 26280.8
 29 11 2013  17 43  -21.0006 26046.7 -03495.4 -07.6432 26280.2
 29 11 2013  17 44  -21.0004 26046.2 -03495.1 -07.6429 26279.6
 29 11 2013  17 45  -21.0006 26046.0 -03495.1 -07.6429 26279.5
 29 11 2013  17 46  -21.0007 26046.2 -03495.2 -07.6429 26279.7
 29 11 2013  17 47  -21.0012 26046.3 -03495.2 -07.6429 26279.8
 29 11 2013  17 48  -21.0020 26045.9 -03495.0 -07.6426 26279.3
 29 11 2013  17 49  -21.0021 26045.2 -03494.5 -07.6418 26278.6
 29 11 2013  17 50  -21.0021 26044.9 -03494.4 -07.6416 26278.3
 29 11 2013  17 51  -21.0018 26045.1 -03494.5 -07.6418 26278.5
 29 11 2013  17 52  -21.0019 26045.0 -03494.5 -07.6419 26278.4
 29 11 2013  17 53  -21.0020 26044.9 -03494.6 -07.6419 26278.3
 29 11 2013  17 54  -21.0018 26044.9 -03494.6 -07.6420 26278.3
 29 11 2013  17 55  -21.0019 26045.5 -03495.0 -07.6427 26278.9
 29 11 2013  17 56  -21.0026 26045.9 -03495.1 -07.6429 26279.3
 29 11 2013  17 57  -21.0013 26046.4 -03495.4 -07.6434 26279.9
 29 11 2013  17 58  -21.0011 26046.7 -03495.5 -07.6436 26280.2
 29 11 2013  17 59  -21.0010 26046.6 -03495.5 -07.6435 26280.1
 29 11 2013  18 00  -21.0008 26046.5 -03495.4 -07.6434 26280.0
 29 11 2013  18 01  -21.0008 26046.1 -03495.3 -07.6431 26279.6
 29 11 2013  18 02  -21.0006 26045.7 -03495.1 -07.6429 26279.1
 29 11 2013  18 03  -21.0000 26045.1 -03494.9 -07.6427 26278.5
 29 11 2013  18 04  -20.9991 26044.4 -03494.9 -07.6428 26277.9
 29 11 2013  18 05  -20.9990 26043.8 -03494.9 -07.6430 26277.3
 29 11 2013  18 06  -20.9989 26043.4 -03495.1 -07.6435 26276.9
 29 11 2013  18 07  -20.9988 26042.4 -03494.8 -07.6432 26275.8
 29 11 2013  18 08  -20.9973 26041.6 -03494.6 -07.6430 26275.1
 29 11 2013  18 09  -20.9970 26042.6 -03495.7 -07.6450 26276.2
 29 11 2013  18 10  -20.9975 26043.4 -03496.4 -07.6463 26277.0
 29 11 2013  18 11  -20.9983 26043.8 -03496.7 -07.6470 26277.5
 29 11 2013  18 12  -20.9983 26043.7 -03496.5 -07.6466 26277.4
 29 11 2013  18 13  -20.9977 26043.4 -03496.4 -07.6465 26277.0
 29 11 2013  18 14  -20.9977 26043.1 -03496.6 -07.6468 26276.8
 29 11 2013  18 15  -20.9984 26042.7 -03496.6 -07.6469 26276.4
 29 11 2013  18 16  -20.9988 26042.3 -03496.5 -07.6470 26276.0
 29 11 2013  18 17  -20.9993 26041.8 -03496.5 -07.6470 26275.5
 29 11 2013  18 18  -21.0002 26041.4 -03496.4 -07.6470 26275.1
 29 11 2013  18 19  -21.0015 26041.6 -03496.5 -07.6472 26275.3
 29 11 2013  18 20  -21.0030 26041.7 -03496.7 -07.6475 26275.4
 29 11 2013  18 21  -21.0041 26041.5 -03496.6 -07.6474 26275.2
 29 11 2013  18 22  -21.0048 26041.5 -03496.6 -07.6473 26275.2
 29 11 2013  18 23  -21.0051 26041.2 -03496.4 -07.6470 26274.9
 29 11 2013  18 24  -21.0057 26040.7 -03496.2 -07.6468 26274.4
 29 11 2013  18 25  -21.0070 26040.0 -03496.0 -07.6466 26273.7
 29 11 2013  18 26  -21.0079 26039.3 -03495.8 -07.6462 26272.9
 29 11 2013  18 27  -21.0085 26038.7 -03495.6 -07.6460 26272.3
 29 11 2013  18 28  -21.0092 26038.1 -03495.5 -07.6459 26271.6
 29 11 2013  18 29  -21.0092 26037.0 -03495.1 -07.6455 26270.6
 29 11 2013  18 30  -21.0089 26036.6 -03495.1 -07.6456 26270.1
 29 11 2013  18 31  -21.0088 26036.7 -03495.5 -07.6464 26270.3
 29 11 2013  18 32  -21.0089 26036.7 -03495.8 -07.6470 26270.4
 29 11 2013  18 33  -21.0086 26037.5 -03496.2 -07.6478 26271.2
 29 11 2013  18 34  -21.0076 26038.4 -03496.9 -07.6490 26272.2
 29 11 2013  18 35  -21.0080 26038.9 -03497.4 -07.6498 26272.7
 29 11 2013  18 36  -21.0076 26038.6 -03497.2 -07.6496 26272.4
 29 11 2013  18 37  -21.0065 26038.5 -03497.3 -07.6497 26272.3
 29 11 2013  18 38  -21.0063 26038.4 -03497.5 -07.6502 26272.2
 29 11 2013  18 39  -21.0068 26038.0 -03497.5 -07.6504 26271.8
 29 11 2013  18 40  -21.0067 26037.6 -03497.4 -07.6502 26271.4
 29 11 2013  18 41  -21.0057 26036.9 -03497.4 -07.6504 26270.7
 29 11 2013  18 42  -21.0055 26036.5 -03497.5 -07.6508 26270.4
 29 11 2013  18 43  -21.0058 26036.2 -03497.7 -07.6513 26270.1
 29 11 2013  18 44  -21.0059 26036.2 -03497.8 -07.6516 26270.1
 29 11 2013  18 45  -21.0056 26036.5 -03498.2 -07.6522 26270.4
 29 11 2013  18 46  -21.0061 26036.6 -03498.4 -07.6526 26270.6
 29 11 2013  18 47  -21.0068 26036.3 -03498.3 -07.6525 26270.2
 29 11 2013  18 48  -21.0063 26036.3 -03498.4 -07.6527 26270.3
 29 11 2013  18 49  -21.0067 26036.3 -03498.6 -07.6533 26270.3
 29 11 2013  18 50  -21.0077 26036.3 -03498.8 -07.6537 26270.4
 29 11 2013  18 51  -21.0088 26036.2 -03498.8 -07.6537 26270.2
 29 11 2013  18 52  -21.0095 26035.8 -03498.7 -07.6536 26269.9
 29 11 2013  18 53  -21.0101 26035.3 -03498.6 -07.6534 26269.3
 29 11 2013  18 54  -21.0108 26035.0 -03498.5 -07.6534 26269.0
 29 11 2013  18 55  -21.0119 26034.7 -03498.4 -07.6533 26268.7
 29 11 2013  18 56  -21.0145 26033.9 -03498.2 -07.6530 26267.9
 29 11 2013  18 57  -21.0146 26033.3 -03498.0 -07.6528 26267.3
 29 11 2013  18 58  -21.0145 26033.1 -03498.0 -07.6529 26267.1
 29 11 2013  18 59  -21.0149 26033.3 -03498.3 -07.6533 26267.3
 29 11 2013  19 00  -21.0156 26033.1 -03498.3 -07.6534 26267.1
 29 11 2013  19 01  -21.0154 26032.8 -03498.2 -07.6533 26266.8
 29 11 2013  19 02  -21.0152 26032.7 -03498.3 -07.6536 26266.7
 29 11 2013  19 03  -21.0154 26032.5 -03498.3 -07.6537 26266.5
 29 11 2013  19 04  -21.0157 26032.0 -03498.2 -07.6536 26266.0
 29 11 2013  19 05  -21.0151 26031.4 -03498.1 -07.6536 26265.4
 29 11 2013  19 06  -21.0140 26031.1 -03498.2 -07.6538 26265.1
 29 11 2013  19 07  -21.0144 26030.5 -03498.0 -07.6536 26264.5
 29 11 2013  19 08  -21.0146 26030.0 -03497.9 -07.6536 26264.0
 29 11 2013  19 09  -21.0147 26029.8 -03498.0 -07.6537 26263.8
 29 11 2013  19 10  -21.0152 26029.4 -03498.0 -07.6538 26263.4
 29 11 2013  19 11  -21.0155 26029.0 -03497.9 -07.6539 26262.9
 29 11 2013  19 12  -21.0160 26028.7 -03498.0 -07.6541 26262.7
 29 11 2013  19 13  -21.0167 26028.4 -03498.0 -07.6543 26262.5
 29 11 2013  19 14  -21.0170 26028.1 -03498.0 -07.6543 26262.1
 29 11 2013  19 15  -21.0172 26027.6 -03497.9 -07.6543 26261.6
 29 11 2013  19 16  -21.0176 26027.5 -03498.0 -07.6544 26261.5
 29 11 2013  19 17  -21.0180 26027.7 -03498.2 -07.6549 26261.7
 29 11 2013  19 18  -21.0184 26027.8 -03498.5 -07.6554 26261.9
 29 11 2013  19 19  -21.0188 26027.9 -03498.6 -07.6557 26262.0
 29 11 2013  19 20  -21.0198 26027.9 -03498.7 -07.6559 26262.0
 29 11 2013  19 21  -21.0209 26027.5 -03498.6 -07.6558 26261.6
 29 11 2013  19 22  -21.0217 26027.3 -03498.5 -07.6556 26261.4
 29 11 2013  19 23  -21.0220 26027.2 -03498.5 -07.6556 26261.3
 29 11 2013  19 24  -21.0228 26027.6 -03498.7 -07.6560 26261.7
 29 11 2013  19 25  -21.0230 26027.0 -03498.5 -07.6557 26261.1
 29 11 2013  19 26  -21.0232 26027.1 -03498.6 -07.6559 26261.1
 29 11 2013  19 27  -21.0232 26026.9 -03498.6 -07.6560 26261.0
 29 11 2013  19 28  -21.0236 26026.7 -03498.6 -07.6561 26260.8
 29 11 2013  19 29  -21.0241 26026.5 -03498.6 -07.6560 26260.6
 29 11 2013  19 30  -21.0242 26026.0 -03498.3 -07.6556 26260.1
 29 11 2013  19 31  -21.0245 26025.8 -03498.3 -07.6555 26259.9
 29 11 2013  19 32  -21.0245 26026.0 -03498.4 -07.6558 26260.1
 29 11 2013  19 33  -21.0248 26025.7 -03498.4 -07.6558 26259.7
 29 11 2013  19 34  -21.0250 26025.0 -03498.1 -07.6554 26259.1
 29 11 2013  19 35  -21.0250 26024.4 -03497.8 -07.6550 26258.4
 29 11 2013  19 36  -21.0247 26024.0 -03497.7 -07.6548 26258.0
 29 11 2013  19 37  -21.0244 26024.0 -03497.8 -07.6551 26258.0
 29 11 2013  19 38  -21.0248 26023.9 -03497.9 -07.6553 26257.9
 29 11 2013  19 39  -21.0258 26023.8 -03498.0 -07.6555 26257.9
 29 11 2013  19 40  -21.0259 26024.0 -03498.1 -07.6556 26258.0
 29 11 2013  19 41  -21.0263 26024.4 -03498.4 -07.6561 26258.5
 29 11 2013  19 42  -21.0264 26025.0 -03498.7 -07.6568 26259.1
 29 11 2013  19 43  -21.0262 26025.4 -03499.1 -07.6574 26259.6
 29 11 2013  19 44  -21.0264 26025.6 -03499.3 -07.6579 26259.8
 29 11 2013  19 45  -21.0266 26025.4 -03499.4 -07.6581 26259.6
 29 11 2013  19 46  -21.0273 26024.3 -03498.9 -07.6574 26258.5
 29 11 2013  19 47  -21.0277 26023.5 -03498.6 -07.6568 26257.6
 29 11 2013  19 48  -21.0277 26024.1 -03499.0 -07.6575 26258.3
 29 11 2013  19 49  -21.0288 26024.3 -03499.3 -07.6583 26258.5
 29 11 2013  19 50  -21.0294 26023.4 -03499.1 -07.6581 26257.6
 29 11 2013  19 51  -21.0295 26023.3 -03499.1 -07.6582 26257.5
 29 11 2013  19 52  -21.0296 26023.0 -03499.2 -07.6583 26257.2
 29 11 2013  19 53  -21.0298 26022.4 -03499.1 -07.6583 26256.6
 29 11 2013  19 54  -21.0301 26021.8 -03498.9 -07.6581 26256.0
 29 11 2013  19 55  -21.0298 26021.5 -03498.9 -07.6582 26255.7
 29 11 2013  19 56  -21.0293 26021.6 -03499.2 -07.6588 26255.8
 29 11 2013  19 57  -21.0290 26021.5 -03499.4 -07.6592 26255.7
 29 11 2013  19 58  -21.0282 26020.8 -03499.3 -07.6592 26255.1
 29 11 2013  19 59  -21.0273 26020.1 -03499.1 -07.6591 26254.3
 29 11 2013  20 00  -21.0256 26019.3 -03499.0 -07.6590 26253.5
 29 11 2013  20 01  -21.0261 26018.1 -03498.9 -07.6591 26252.3
 29 11 2013  20 02  -21.0241 26017.2 -03498.5 -07.6586 26251.4
 29 11 2013  20 03  -21.0232 26016.7 -03498.6 -07.6588 26250.8
 29 11 2013  20 04  -21.0225 26016.0 -03498.6 -07.6590 26250.2
 29 11 2013  20 05  -21.0219 26015.7 -03498.7 -07.6595 26249.9
 29 11 2013  20 06  -21.0217 26015.4 -03498.9 -07.6600 26249.7
 29 11 2013  20 07  -21.0210 26015.4 -03499.2 -07.6606 26249.6
 29 11 2013  20 08  -21.0245 26015.6 -03499.6 -07.6615 26249.9
 29 11 2013  20 09  -21.0208 26015.6 -03499.9 -07.6621 26249.9
 29 11 2013  20 10  -21.0204 26015.8 -03500.3 -07.6629 26250.2
 29 11 2013  20 11  -21.0202 26016.3 -03500.8 -07.6638 26250.8
 29 11 2013  20 12  -21.0199 26016.5 -03501.2 -07.6645 26251.0
 29 11 2013  20 13  -21.0200 26016.6 -03501.4 -07.6651 26251.1
 29 11 2013  20 14  -21.0201 26016.6 -03501.7 -07.6657 26251.2
 29 11 2013  20 15  -21.0200 26016.6 -03501.9 -07.6661 26251.2
 29 11 2013  20 16  -21.0202 26016.7 -03502.1 -07.6665 26251.3
 29 11 2013  20 17  -21.0207 26016.7 -03502.4 -07.6670 26251.4
 29 11 2013  20 18  -21.0212 26016.8 -03502.6 -07.6675 26251.6
 29 11 2013  20 19  -21.0217 26016.9 -03502.8 -07.6679 26251.6
 29 11 2013  20 20  -21.0221 26016.9 -03502.9 -07.6682 26251.6
 29 11 2013  20 21  -21.0227 26016.9 -03503.1 -07.6685 26251.7
 29 11 2013  20 22  -21.0230 26016.9 -03503.2 -07.6688 26251.7
 29 11 2013  20 23  -21.0236 26017.0 -03503.4 -07.6692 26251.8
 29 11 2013  20 24  -21.0239 26017.1 -03503.6 -07.6696 26252.0
 29 11 2013  20 25  -21.0241 26017.2 -03503.8 -07.6699 26252.1
 29 11 2013  20 26  -21.0245 26017.2 -03503.8 -07.6701 26252.1
 29 11 2013  20 27  -21.0247 26017.1 -03503.9 -07.6702 26252.0
 29 11 2013  20 28  -21.0248 26017.1 -03504.0 -07.6705 26252.0
 29 11 2013  20 29  -21.0250 26017.0 -03504.1 -07.6706 26251.9
 29 11 2013  20 30  -21.0251 26016.9 -03504.1 -07.6708 26251.9
 29 11 2013  20 31  -21.0251 26016.9 -03504.2 -07.6710 26251.9
 29 11 2013  20 32  -21.0251 26017.0 -03504.4 -07.6713 26251.9
 29 11 2013  20 33  -21.0250 26017.0 -03504.5 -07.6716 26252.0
 29 11 2013  20 34  -21.0248 26017.0 -03504.6 -07.6718 26252.0
 29 11 2013  20 35  -21.0248 26017.0 -03504.7 -07.6720 26252.0
 29 11 2013  20 36  -21.0246 26017.0 -03504.8 -07.6722 26252.0
 29 11 2013  20 37  -21.0243 26017.0 -03504.9 -07.6725 26252.0
 29 11 2013  20 38  -21.0242 26017.0 -03505.0 -07.6727 26252.0
 29 11 2013  20 39  -21.0239 26017.1 -03505.2 -07.6731 26252.2
 29 11 2013  20 40  -21.0237 26017.2 -03505.4 -07.6734 26252.2
 29 11 2013  20 41  -21.0235 26017.2 -03505.5 -07.6736 26252.3
 29 11 2013  20 42  -21.0235 26017.2 -03505.6 -07.6739 26252.3
 29 11 2013  20 43  -21.0236 26017.0 -03505.6 -07.6740 26252.1
 29 11 2013  20 44  -21.0238 26016.7 -03505.6 -07.6740 26251.8
 29 11 2013  20 45  -21.0238 26016.8 -03505.7 -07.6743 26252.0
 29 11 2013  20 46  -21.0234 26017.0 -03505.9 -07.6746 26252.1
 29 11 2013  20 47  -21.0233 26017.1 -03506.1 -07.6750 26252.3
 29 11 2013  20 48  -21.0232 26017.2 -03506.3 -07.6753 26252.4
 29 11 2013  20 49  -21.0230 26017.3 -03506.4 -07.6756 26252.5
 29 11 2013  20 50  -21.0230 26017.5 -03506.6 -07.6760 26252.7
 29 11 2013  20 51  -21.0228 26017.8 -03506.9 -07.6765 26253.1
 29 11 2013  20 52  -21.0225 26018.1 -03507.2 -07.6770 26253.4
 29 11 2013  20 53  -21.0221 26018.1 -03507.3 -07.6773 26253.4
 29 11 2013  20 54  -21.0219 26018.0 -03507.3 -07.6774 26253.3
 29 11 2013  20 55  -21.0216 26017.7 -03507.3 -07.6775 26253.1
 29 11 2013  20 56  -21.0215 26017.6 -03507.3 -07.6776 26252.9
 29 11 2013  20 57  -21.0214 26017.9 -03507.6 -07.6781 26253.3
 29 11 2013  20 58  -21.0210 26018.6 -03508.1 -07.6790 26254.0
 29 11 2013  20 59  -21.0205 26018.7 -03508.3 -07.6794 26254.2
 29 11 2013  21 00  -21.0200 26018.7 -03508.4 -07.6796 26254.1
 29 11 2013  21 01  -21.0195 26018.7 -03508.5 -07.6798 26254.2
 29 11 2013  21 02  -21.0189 26019.1 -03508.8 -07.6803 26254.6
 29 11 2013  21 03  -21.0184 26019.4 -03509.2 -07.6809 26255.0
 29 11 2013  21 04  -21.0180 26019.6 -03509.4 -07.6813 26255.2
 29 11 2013  21 05  -21.0176 26019.7 -03509.5 -07.6815 26255.3
 29 11 2013  21 06  -21.0173 26019.7 -03509.6 -07.6818 26255.4
 29 11 2013  21 07  -21.0171 26019.8 -03509.7 -07.6821 26255.5
 29 11 2013  21 08  -21.0169 26019.9 -03509.9 -07.6824 26255.6
 29 11 2013  21 09  -21.0167 26020.0 -03510.0 -07.6825 26255.6
 29 11 2013  21 10  -21.0166 26020.1 -03510.1 -07.6828 26255.8
 29 11 2013  21 11  -21.0165 26020.4 -03510.3 -07.6832 26256.1
 29 11 2013  21 12  -21.0162 26020.6 -03510.5 -07.6834 26256.4
 29 11 2013  21 13  -21.0160 26020.7 -03510.6 -07.6836 26256.5
 29 11 2013  21 14  -21.0158 26020.9 -03510.6 -07.6837 26256.6
 29 11 2013  21 15  -21.0155 26021.1 -03510.8 -07.6840 26256.8
 29 11 2013  21 16  -21.0151 26021.4 -03511.0 -07.6843 26257.2
 29 11 2013  21 17  -21.0150 26021.5 -03511.1 -07.6845 26257.3
 29 11 2013  21 18  -21.0149 26021.6 -03511.2 -07.6847 26257.4
 29 11 2013  21 19  -21.0148 26021.6 -03511.2 -07.6848 26257.5
 29 11 2013  21 20  -21.0148 26021.7 -03511.2 -07.6847 26257.5
 29 11 2013  21 21  -21.0146 26022.0 -03511.5 -07.6851 26257.8
 29 11 2013  21 22  -21.0146 26022.2 -03511.6 -07.6854 26258.0
 29 11 2013  21 23  -21.0146 26022.3 -03511.7 -07.6856 26258.2
 29 11 2013  21 24  -21.0145 26022.4 -03511.8 -07.6857 26258.3
 29 11 2013  21 25  -21.0145 26022.5 -03511.8 -07.6858 26258.4
 29 11 2013  21 26  -21.0145 26022.7 -03511.9 -07.6860 26258.6
 29 11 2013  21 27  -21.0144 26022.7 -03511.9 -07.6860 26258.6
 29 11 2013  21 28  -21.0143 26022.7 -03511.9 -07.6860 26258.6
 29 11 2013  21 29  -21.0142 26022.7 -03511.9 -07.6860 26258.6
 29 11 2013  21 30  -21.0143 26022.6 -03511.9 -07.6859 26258.5
 29 11 2013  21 31  -21.0142 26022.6 -03511.9 -07.6859 26258.5
 29 11 2013  21 32  -21.0142 26022.5 -03511.8 -07.6857 26258.4
 29 11 2013  21 33  -21.0142 26022.4 -03511.8 -07.6857 26258.3
 29 11 2013  21 34  -21.0141 26022.5 -03511.8 -07.6858 26258.4
 29 11 2013  21 35  -21.0141 26022.4 -03511.8 -07.6858 26258.2
 29 11 2013  21 36  -21.0142 26022.3 -03511.8 -07.6857 26258.2
 29 11 2013  21 37  -21.0142 26022.5 -03511.9 -07.6859 26258.4
 29 11 2013  21 38  -21.0140 26022.7 -03512.0 -07.6861 26258.6
 29 11 2013  21 39  -21.0141 26022.7 -03512.0 -07.6862 26258.6
 29 11 2013  21 40  -21.0140 26022.9 -03512.2 -07.6864 26258.9
 29 11 2013  21 41  -21.0137 26023.2 -03512.3 -07.6866 26259.2
 29 11 2013  21 42  -21.0138 26023.4 -03512.4 -07.6867 26259.3
 29 11 2013  21 43  -21.0138 26023.5 -03512.5 -07.6869 26259.5
 29 11 2013  21 44  -21.0136 26023.8 -03512.6 -07.6871 26259.8
 29 11 2013  21 45  -21.0133 26024.0 -03512.6 -07.6871 26260.0
 29 11 2013  21 46  -21.0131 26023.9 -03512.6 -07.6870 26259.9
 29 11 2013  21 47  -21.0132 26023.7 -03512.5 -07.6869 26259.7
 29 11 2013  21 48  -21.0131 26023.6 -03512.4 -07.6868 26259.6
 29 11 2013  21 49  -21.0129 26023.5 -03512.4 -07.6867 26259.5
 29 11 2013  21 50  -21.0128 26023.4 -03512.4 -07.6867 26259.4
 29 11 2013  21 51  -21.0126 26023.3 -03512.3 -07.6866 26259.3
 29 11 2013  21 52  -21.0126 26023.3 -03512.3 -07.6867 26259.3
 29 11 2013  21 53  -21.0124 26023.6 -03512.5 -07.6870 26259.5
 29 11 2013  21 54  -21.0122 26023.7 -03512.6 -07.6872 26259.7
 29 11 2013  21 55  -21.0125 26023.6 -03512.6 -07.6873 26259.6
 29 11 2013  21 56  -21.0125 26023.8 -03512.7 -07.6874 26259.8
 29 11 2013  21 57  -21.0124 26023.9 -03512.8 -07.6875 26259.9
 29 11 2013  21 58  -21.0126 26023.8 -03512.8 -07.6875 26259.8
 29 11 2013  21 59  -21.0126 26023.8 -03512.8 -07.6876 26259.9
 29 11 2013  22 00  -21.0125 26024.0 -03512.9 -07.6876 26260.0
 29 11 2013  22 01  -21.0124 26024.0 -03512.9 -07.6877 26260.0
 29 11 2013  22 02  -21.0124 26024.1 -03512.9 -07.6878 26260.1
 29 11 2013  22 03  -21.0124 26024.1 -03512.9 -07.6878 26260.1
 29 11 2013  22 04  -21.0123 26024.2 -03513.0 -07.6878 26260.3
 29 11 2013  22 05  -21.0123 26024.3 -03513.0 -07.6879 26260.4
 29 11 2013  22 06  -21.0123 26024.4 -03513.1 -07.6880 26260.5
 29 11 2013  22 07  -21.0122 26024.5 -03513.1 -07.6881 26260.5
 29 11 2013  22 08  -21.0122 26024.6 -03513.1 -07.6880 26260.6
 29 11 2013  22 09  -21.0122 26024.6 -03513.2 -07.6881 26260.7
 29 11 2013  22 10  -21.0124 26024.6 -03513.2 -07.6882 26260.7
 29 11 2013  22 11  -21.0125 26024.5 -03513.2 -07.6882 26260.6
 29 11 2013  22 12  -21.0125 26024.4 -03513.1 -07.6881 26260.5
 29 11 2013  22 13  -21.0125 26024.4 -03513.1 -07.6880 26260.4
 29 11 2013  22 14  -21.0125 26024.3 -03513.0 -07.6879 26260.3
 29 11 2013  22 15  -21.0126 26024.2 -03513.0 -07.6878 26260.2
 29 11 2013  22 16  -21.0126 26024.1 -03512.9 -07.6878 26260.1
 29 11 2013  22 17  -21.0126 26024.0 -03512.9 -07.6877 26260.1
 29 11 2013  22 18  -21.0126 26024.0 -03512.9 -07.6877 26260.0
 29 11 2013  22 19  -21.0127 26023.9 -03512.9 -07.6877 26260.0
 29 11 2013  22 20  -21.0126 26023.9 -03512.9 -07.6876 26259.9
 29 11 2013  22 21  -21.0125 26023.9 -03512.9 -07.6877 26259.9
 29 11 2013  22 22  -21.0126 26023.7 -03512.8 -07.6876 26259.7
 29 11 2013  22 23  -21.0127 26023.7 -03512.8 -07.6877 26259.7
 29 11 2013  22 24  -21.0128 26023.7 -03512.9 -07.6877 26259.8
 29 11 2013  22 25  -21.0128 26023.7 -03512.9 -07.6877 26259.8
 29 11 2013  22 26  -21.0128 26023.7 -03512.9 -07.6877 26259.8
 29 11 2013  22 27  -21.0129 26023.8 -03512.9 -07.6877 26259.8
 29 11 2013  22 28  -21.0129 26023.7 -03512.9 -07.6878 26259.8
 29 11 2013  22 29  -21.0129 26023.7 -03512.9 -07.6877 26259.7
 29 11 2013  22 30  -21.0128 26023.7 -03512.9 -07.6877 26259.7
 29 11 2013  22 31  -21.0128 26023.6 -03512.9 -07.6877 26259.7
 29 11 2013  22 32  -21.0128 26023.7 -03512.9 -07.6878 26259.7
 29 11 2013  22 33  -21.0127 26023.6 -03512.9 -07.6878 26259.7
 29 11 2013  22 34  -21.0125 26023.6 -03512.9 -07.6878 26259.7
 29 11 2013  22 35  -21.0125 26023.6 -03512.9 -07.6878 26259.7
 29 11 2013  22 36  -21.0125 26023.6 -03512.9 -07.6879 26259.6
 29 11 2013  22 37  -21.0125 26023.6 -03512.9 -07.6879 26259.7
 29 11 2013  22 38  -21.0124 26023.6 -03513.0 -07.6879 26259.7
 29 11 2013  22 39  -21.0123 26023.8 -03513.0 -07.6879 26259.8
 29 11 2013  22 40  -21.0122 26023.8 -03513.0 -07.6880 26259.8
 29 11 2013  22 41  -21.0122 26023.8 -03513.1 -07.6882 26259.9
 29 11 2013  22 42  -21.0123 26023.9 -03513.1 -07.6882 26259.9
 29 11 2013  22 43  -21.0124 26023.9 -03513.2 -07.6883 26260.0
 29 11 2013  22 44  -21.0124 26024.0 -03513.2 -07.6883 26260.1
 29 11 2013  22 45  -21.0125 26024.0 -03513.2 -07.6884 26260.1
 29 11 2013  22 46  -21.0127 26024.0 -03513.2 -07.6884 26260.1
 29 11 2013  22 47  -21.0128 26024.1 -03513.2 -07.6884 26260.2
 29 11 2013  22 48  -21.0129 26024.1 -03513.2 -07.6884 26260.2
 29 11 2013  22 49  -21.0130 26024.1 -03513.2 -07.6883 26260.2
 29 11 2013  22 50  -21.0132 26024.0 -03513.2 -07.6883 26260.1
 29 11 2013  22 51  -21.0133 26024.0 -03513.2 -07.6883 26260.0
 29 11 2013  22 52  -21.0134 26023.9 -03513.1 -07.6882 26259.9
 29 11 2013  22 53  -21.0134 26023.8 -03513.1 -07.6881 26259.8
 29 11 2013  22 54  -21.0133 26023.8 -03513.1 -07.6881 26259.9
 29 11 2013  22 55  -21.0132 26023.8 -03513.1 -07.6881 26259.8
 29 11 2013  22 56  -21.0132 26023.8 -03513.1 -07.6881 26259.8
 29 11 2013  22 57  -21.0131 26023.7 -03513.0 -07.6880 26259.8
 29 11 2013  22 58  -21.0130 26023.7 -03513.0 -07.6880 26259.8
 29 11 2013  22 59  -21.0129 26023.7 -03513.0 -07.6880 26259.7
 29 11 2013  23 00  -21.0128 26023.6 -03512.9 -07.6879 26259.6
 29 11 2013  23 01  -21.0127 26023.5 -03512.9 -07.6878 26259.5
 29 11 2013  23 02  -21.0125 26023.4 -03512.8 -07.6877 26259.4
 29 11 2013  23 03  -21.0126 26023.3 -03512.8 -07.6878 26259.3
 29 11 2013  23 04  -21.0125 26023.2 -03512.8 -07.6878 26259.2
 29 11 2013  23 05  -21.0124 26023.1 -03512.8 -07.6877 26259.2
 29 11 2013  23 06  -21.0124 26023.1 -03512.8 -07.6877 26259.2
 29 11 2013  23 07  -21.0123 26023.1 -03512.7 -07.6876 26259.1
 29 11 2013  23 08  -21.0123 26023.0 -03512.8 -07.6877 26259.0
 29 11 2013  23 09  -21.0122 26022.9 -03512.8 -07.6877 26258.9
 29 11 2013  23 10  -21.0122 26022.9 -03512.7 -07.6877 26258.9
 29 11 2013  23 11  -21.0121 26022.9 -03512.8 -07.6877 26258.9
 29 11 2013  23 12  -21.0120 26022.9 -03512.8 -07.6878 26258.9
 29 11 2013  23 13  -21.0119 26022.9 -03512.8 -07.6877 26258.9
 29 11 2013  23 14  -21.0117 26022.9 -03512.8 -07.6878 26259.0
 29 11 2013  23 15  -21.0116 26023.0 -03512.9 -07.6879 26259.0
 29 11 2013  23 16  -21.0114 26023.0 -03512.9 -07.6879 26259.0
 29 11 2013  23 17  -21.0112 26022.9 -03512.9 -07.6879 26259.0
 29 11 2013  23 18  -21.0111 26022.9 -03512.9 -07.6879 26259.0
 29 11 2013  23 19  -21.0108 26023.0 -03512.9 -07.6880 26259.0
 29 11 2013  23 20  -21.0104 26023.1 -03512.9 -07.6880 26259.1
 29 11 2013  23 21  -21.0103 26023.0 -03513.0 -07.6881 26259.1
 29 11 2013  23 22  -21.0102 26023.0 -03513.0 -07.6881 26259.1
 29 11 2013  23 23  -21.0101 26023.1 -03513.0 -07.6883 26259.2
 29 11 2013  23 24  -21.0098 26023.3 -03513.1 -07.6883 26259.3
 29 11 2013  23 25  -21.0098 26023.4 -03513.2 -07.6885 26259.4
 29 11 2013  23 26  -21.0097 26023.3 -03513.2 -07.6885 26259.4
 29 11 2013  23 27  -21.0098 26023.2 -03513.1 -07.6884 26259.3
 29 11 2013  23 28  -21.0097 26023.3 -03513.1 -07.6884 26259.4
 29 11 2013  23 29  -21.0096 26023.3 -03513.2 -07.6885 26259.4
 29 11 2013  23 30  -21.0097 26023.2 -03513.1 -07.6884 26259.2
 29 11 2013  23 31  -21.0098 26023.1 -03513.1 -07.6884 26259.1
 29 11 2013  23 32  -21.0099 26023.0 -03513.1 -07.6884 26259.1
 29 11 2013  23 33  -21.0101 26023.1 -03513.1 -07.6884 26259.1
 29 11 2013  23 34  -21.0102 26023.0 -03513.1 -07.6883 26259.1
 29 11 2013  23 35  -21.0105 26023.0 -03513.1 -07.6884 26259.0
 29 11 2013  23 36  -21.0106 26022.9 -03513.0 -07.6883 26259.0
 29 11 2013  23 37  -21.0105 26022.8 -03513.0 -07.6882 26258.9
 29 11 2013  23 38  -21.0107 26022.7 -03512.9 -07.6882 26258.7
 29 11 2013  23 39  -21.0110 26022.6 -03512.9 -07.6881 26258.7
 29 11 2013  23 40  -21.0112 26022.6 -03512.9 -07.6881 26258.6
 29 11 2013  23 41  -21.0115 26022.5 -03512.9 -07.6881 26258.5
 29 11 2013  23 42  -21.0116 26022.5 -03512.9 -07.6882 26258.6
 29 11 2013  23 43  -21.0117 26022.6 -03512.9 -07.6882 26258.6
 29 11 2013  23 44  -21.0119 26022.6 -03513.0 -07.6882 26258.7
 29 11 2013  23 45  -21.0120 26022.7 -03513.0 -07.6883 26258.7
 29 11 2013  23 46  -21.0124 26022.6 -03513.0 -07.6883 26258.7
 29 11 2013  23 47  -21.0125 26022.4 -03512.9 -07.6881 26258.5
 29 11 2013  23 48  -21.0124 26022.2 -03512.8 -07.6880 26258.2
 29 11 2013  23 49  -21.0122 26021.9 -03512.6 -07.6877 26258.0
 29 11 2013  23 50  -21.0122 26021.6 -03512.5 -07.6875 26257.6
 29 11 2013  23 51  -21.0122 26021.4 -03512.4 -07.6873 26257.4
 29 11 2013  23 52  -21.0120 26021.2 -03512.3 -07.6872 26257.2
 29 11 2013  23 53  -21.0120 26020.9 -03512.1 -07.6870 26256.8
 29 11 2013  23 54  -21.0120 26020.5 -03512.0 -07.6868 26256.4
 29 11 2013  23 55  -21.0120 26020.3 -03512.0 -07.6868 26256.2
 29 11 2013  23 56  -21.0121 26020.2 -03511.9 -07.6867 26256.1
 29 11 2013  23 57  -21.0120 26020.0 -03511.9 -07.6867 26256.0
