SAO LUIS EMBRACE-03 <115> 1 Min. Reported data

 DD MM YYYY  HH MM   D(Deg)  H(nT)   Z(nT)   I(Deg)   F(nT)

 25 04 2013  00 00  -21.0750 25997.8 -03433.3 -07.5229 26223.5
 25 04 2013  00 01  -21.0749 25998.4 -03433.4 -07.5232 26224.1
 25 04 2013  00 02  -21.0751 25998.7 -03433.6 -07.5233 26224.5
 25 04 2013  00 03  -21.0749 25999.2 -03433.7 -07.5236 26224.9
 25 04 2013  00 04  -21.0750 25999.5 -03433.8 -07.5237 26225.3
 25 04 2013  00 05  -21.0752 25999.7 -03433.9 -07.5237 26225.5
 25 04 2013  00 06  -21.0757 26000.0 -03433.9 -07.5237 26225.7
 25 04 2013  00 07  -21.0760 26000.4 -03434.1 -07.5239 26226.2
 25 04 2013  00 08  -21.0765 26000.8 -03434.2 -07.5241 26226.7
 25 04 2013  00 09  -21.0770 26001.1 -03434.3 -07.5241 26226.9
 25 04 2013  00 10  -21.0771 26001.3 -03434.2 -07.5240 26227.2
 25 04 2013  00 11  -21.0775 26001.5 -03434.2 -07.5238 26227.3
 25 04 2013  00 12  -21.0777 26001.5 -03434.1 -07.5236 26227.2
 25 04 2013  00 13  -21.0776 26001.4 -03433.9 -07.5233 26227.2
 25 04 2013  00 14  -21.0773 26001.4 -03433.7 -07.5229 26227.1
 25 04 2013  00 15  -21.0768 26001.3 -03433.6 -07.5226 26227.0
 25 04 2013  00 16  -21.0767 26001.2 -03433.5 -07.5224 26226.9
 25 04 2013  00 17  -21.0768 26001.1 -03433.4 -07.5222 26226.8
 25 04 2013  00 18  -21.0765 26001.1 -03433.3 -07.5220 26226.8
 25 04 2013  00 19  -21.0761 26001.2 -03433.3 -07.5219 26226.9
 25 04 2013  00 20  -21.0761 26001.1 -03433.2 -07.5219 26226.8
 25 04 2013  00 21  -21.0760 26001.1 -03433.2 -07.5218 26226.8
 25 04 2013  00 22  -21.0759 26001.1 -03433.2 -07.5218 26226.8
 25 04 2013  00 23  -21.0759 26001.1 -03433.2 -07.5217 26226.8
 25 04 2013  00 24  -21.0759 26001.0 -03433.1 -07.5217 26226.7
 25 04 2013  00 25  -21.0760 26001.0 -03433.1 -07.5216 26226.7
 25 04 2013  00 26  -21.0761 26000.8 -03433.0 -07.5214 26226.5
 25 04 2013  00 27  -21.0763 26000.7 -03432.9 -07.5213 26226.4
 25 04 2013  00 28  -21.0766 26000.6 -03432.8 -07.5211 26226.2
 25 04 2013  00 29  -21.0769 26000.5 -03432.7 -07.5209 26226.1
 25 04 2013  00 30  -21.0769 26000.3 -03432.6 -07.5207 26226.0
 25 04 2013  00 31  -21.0767 26000.1 -03432.4 -07.5204 26225.7
 25 04 2013  00 32  -21.0767 25999.7 -03432.2 -07.5201 26225.3
 25 04 2013  00 33  -21.0767 25999.6 -03432.1 -07.5199 26225.1
 25 04 2013  00 34  -21.0767 25999.5 -03432.1 -07.5199 26225.1
 25 04 2013  00 35  -21.0771 25999.5 -03432.0 -07.5198 26225.0
 25 04 2013  00 36  -21.0774 25999.4 -03432.0 -07.5197 26224.9
 25 04 2013  00 37  -21.0778 25999.3 -03432.0 -07.5197 26224.8
 25 04 2013  00 38  -21.0781 25999.0 -03431.9 -07.5195 26224.5
 25 04 2013  00 39  -21.0784 25998.8 -03431.8 -07.5194 26224.3
 25 04 2013  00 40  -21.0787 25998.8 -03431.7 -07.5192 26224.3
 25 04 2013  00 41  -21.0790 25998.7 -03431.7 -07.5192 26224.2
 25 04 2013  00 42  -21.0794 25998.9 -03431.8 -07.5193 26224.4
 25 04 2013  00 43  -21.0799 25999.0 -03431.8 -07.5195 26224.5
 25 04 2013  00 44  -21.0803 25999.0 -03431.8 -07.5195 26224.6
 25 04 2013  00 45  -21.0804 25999.1 -03431.9 -07.5195 26224.6
 25 04 2013  00 46  -21.0805 25999.0 -03431.8 -07.5195 26224.5
 25 04 2013  00 47  -21.0805 25999.1 -03431.8 -07.5195 26224.6
 25 04 2013  00 48  -21.0804 25999.2 -03431.9 -07.5195 26224.7
 25 04 2013  00 49  -21.0805 25999.2 -03431.9 -07.5195 26224.7
 25 04 2013  00 50  -21.0805 25999.2 -03431.9 -07.5195 26224.7
 25 04 2013  00 51  -21.0805 25999.4 -03432.0 -07.5196 26224.9
 25 04 2013  00 52  -21.0805 25999.4 -03432.0 -07.5197 26224.9
 25 04 2013  00 53  -21.0804 25999.5 -03432.0 -07.5196 26225.0
 25 04 2013  00 54  -21.0805 25999.5 -03431.9 -07.5196 26225.0
 25 04 2013  00 55  -21.0806 25999.5 -03431.9 -07.5196 26225.1
 25 04 2013  00 56  -21.0806 25999.4 -03431.9 -07.5195 26224.9
 25 04 2013  00 57  -21.0805 25999.3 -03431.8 -07.5193 26224.8
 25 04 2013  00 58  -21.0803 25999.2 -03431.7 -07.5192 26224.7
 25 04 2013  00 59  -21.0801 25999.2 -03431.7 -07.5191 26224.7
 25 04 2013  01 00  -21.0800 25999.4 -03431.8 -07.5193 26224.9
 25 04 2013  01 01  -21.0802 25999.6 -03432.0 -07.5196 26225.2
 25 04 2013  01 02  -21.0804 25999.8 -03432.1 -07.5198 26225.4
 25 04 2013  01 03  -21.0803 26000.0 -03432.2 -07.5199 26225.6
 25 04 2013  01 04  -21.0801 26000.2 -03432.2 -07.5200 26225.7
 25 04 2013  01 05  -21.0796 26000.2 -03432.2 -07.5200 26225.8
 25 04 2013  01 06  -21.0791 26000.3 -03432.2 -07.5199 26225.8
 25 04 2013  01 07  -21.0785 26000.3 -03432.2 -07.5198 26225.8
 25 04 2013  01 08  -21.0780 26000.2 -03432.1 -07.5198 26225.7
 25 04 2013  01 09  -21.0774 26000.2 -03432.1 -07.5197 26225.7
 25 04 2013  01 10  -21.0770 26000.1 -03432.1 -07.5197 26225.6
 25 04 2013  01 11  -21.0765 26000.1 -03432.1 -07.5197 26225.6
 25 04 2013  01 12  -21.0762 26000.0 -03432.1 -07.5198 26225.5
 25 04 2013  01 13  -21.0759 26000.0 -03432.1 -07.5198 26225.6
 25 04 2013  01 14  -21.0757 26000.1 -03432.2 -07.5200 26225.7
 25 04 2013  01 15  -21.0756 26000.3 -03432.3 -07.5202 26225.8
 25 04 2013  01 16  -21.0755 26000.3 -03432.4 -07.5203 26225.9
 25 04 2013  01 17  -21.0752 26000.5 -03432.5 -07.5204 26226.1
 25 04 2013  01 18  -21.0748 26000.6 -03432.5 -07.5206 26226.2
 25 04 2013  01 19  -21.0745 26000.7 -03432.6 -07.5207 26226.4
 25 04 2013  01 20  -21.0741 26001.0 -03432.7 -07.5209 26226.6
 25 04 2013  01 21  -21.0738 26001.2 -03432.8 -07.5210 26226.8
 25 04 2013  01 22  -21.0735 26001.2 -03432.9 -07.5211 26226.8
 25 04 2013  01 23  -21.0733 26001.3 -03432.9 -07.5212 26227.0
 25 04 2013  01 24  -21.0732 26001.5 -03433.0 -07.5213 26227.1
 25 04 2013  01 25  -21.0732 26001.6 -03433.1 -07.5216 26227.3
 25 04 2013  01 26  -21.0728 26002.0 -03433.3 -07.5218 26227.7
 25 04 2013  01 27  -21.0723 26002.4 -03433.5 -07.5221 26228.1
 25 04 2013  01 28  -21.0718 26002.9 -03433.7 -07.5224 26228.7
 25 04 2013  01 29  -21.0715 26003.1 -03433.8 -07.5226 26228.8
 25 04 2013  01 30  -21.0712 26003.3 -03433.9 -07.5226 26229.0
 25 04 2013  01 31  -21.0707 26003.4 -03433.9 -07.5226 26229.2
 25 04 2013  01 32  -21.0700 26003.6 -03433.9 -07.5227 26229.3
 25 04 2013  01 33  -21.0695 26003.8 -03434.0 -07.5228 26229.5
 25 04 2013  01 34  -21.0695 26003.5 -03433.8 -07.5225 26229.3
 25 04 2013  01 35  -21.0699 26003.7 -03433.9 -07.5226 26229.4
 25 04 2013  01 36  -21.0701 26003.7 -03434.0 -07.5227 26229.5
 25 04 2013  01 37  -21.0704 26003.7 -03434.0 -07.5228 26229.4
 25 04 2013  01 38  -21.0705 26003.6 -03433.9 -07.5227 26229.3
 25 04 2013  01 39  -21.0704 26003.5 -03433.9 -07.5227 26229.3
 25 04 2013  01 40  -21.0703 26003.7 -03433.9 -07.5227 26229.4
 25 04 2013  01 41  -21.0700 26004.1 -03434.1 -07.5229 26229.9
 25 04 2013  01 42  -21.0697 26004.3 -03434.3 -07.5233 26230.1
 25 04 2013  01 43  -21.0695 26004.6 -03434.3 -07.5233 26230.4
 25 04 2013  01 44  -21.0692 26004.9 -03434.5 -07.5235 26230.7
 25 04 2013  01 45  -21.0690 26005.5 -03434.7 -07.5239 26231.4
 25 04 2013  01 46  -21.0693 26005.8 -03435.0 -07.5243 26231.7
 25 04 2013  01 47  -21.0690 26006.2 -03435.1 -07.5245 26232.1
 25 04 2013  01 48  -21.0689 26006.6 -03435.2 -07.5246 26232.5
 25 04 2013  01 49  -21.0692 26007.1 -03435.4 -07.5249 26233.0
 25 04 2013  01 50  -21.0694 26007.6 -03435.6 -07.5252 26233.5
 25 04 2013  01 51  -21.0697 26007.9 -03435.7 -07.5254 26233.9
 25 04 2013  01 52  -21.0700 26008.1 -03435.8 -07.5254 26234.1
 25 04 2013  01 53  -21.0700 26008.5 -03435.8 -07.5254 26234.4
 25 04 2013  01 54  -21.0700 26008.7 -03435.8 -07.5254 26234.7
 25 04 2013  01 55  -21.0700 26009.1 -03435.9 -07.5255 26235.0
 25 04 2013  01 56  -21.0695 26009.6 -03436.1 -07.5257 26235.6
 25 04 2013  01 57  -21.0694 26010.3 -03436.4 -07.5260 26236.3
 25 04 2013  01 58  -21.0692 26010.6 -03436.5 -07.5262 26236.7
 25 04 2013  01 59  -21.0689 26011.3 -03436.7 -07.5265 26237.4
 25 04 2013  02 00  -21.0685 26011.8 -03436.9 -07.5267 26237.8
 25 04 2013  02 01  -21.0686 26012.0 -03436.9 -07.5267 26238.1
 25 04 2013  02 02  -21.0685 26012.6 -03437.0 -07.5269 26238.7
 25 04 2013  02 03  -21.0681 26013.1 -03437.2 -07.5271 26239.2
 25 04 2013  02 04  -21.0676 26013.7 -03437.4 -07.5274 26239.9
 25 04 2013  02 05  -21.0674 26014.0 -03437.5 -07.5274 26240.2
 25 04 2013  02 06  -21.0670 26014.6 -03437.6 -07.5276 26240.7
 25 04 2013  02 07  -21.0668 26015.3 -03437.9 -07.5279 26241.4
 25 04 2013  02 08  -21.0668 26015.8 -03438.1 -07.5281 26242.0
 25 04 2013  02 09  -21.0667 26016.1 -03438.1 -07.5281 26242.3
 25 04 2013  02 10  -21.0662 26016.8 -03438.3 -07.5283 26243.0
 25 04 2013  02 11  -21.0662 26017.2 -03438.4 -07.5285 26243.4
 25 04 2013  02 12  -21.0660 26017.8 -03438.5 -07.5286 26244.0
 25 04 2013  02 13  -21.0658 26018.3 -03438.6 -07.5287 26244.5
 25 04 2013  02 14  -21.0656 26018.8 -03438.7 -07.5287 26245.1
 25 04 2013  02 15  -21.0656 26019.1 -03438.8 -07.5288 26245.4
 25 04 2013  02 16  -21.0655 26019.5 -03438.8 -07.5287 26245.7
 25 04 2013  02 17  -21.0653 26019.7 -03438.8 -07.5286 26246.0
 25 04 2013  02 18  -21.0652 26019.8 -03438.7 -07.5284 26246.1
 25 04 2013  02 19  -21.0649 26020.0 -03438.7 -07.5282 26246.3
 25 04 2013  02 20  -21.0647 26020.2 -03438.6 -07.5280 26246.4
 25 04 2013  02 21  -21.0647 26020.4 -03438.6 -07.5279 26246.6
 25 04 2013  02 22  -21.0646 26020.4 -03438.5 -07.5277 26246.6
 25 04 2013  02 23  -21.0645 26020.3 -03438.3 -07.5273 26246.5
 25 04 2013  02 24  -21.0643 26020.3 -03438.1 -07.5270 26246.5
 25 04 2013  02 25  -21.0643 26020.2 -03438.0 -07.5267 26246.4
 25 04 2013  02 26  -21.0641 26020.2 -03437.9 -07.5266 26246.3
 25 04 2013  02 27  -21.0636 26020.4 -03437.9 -07.5264 26246.5
 25 04 2013  02 28  -21.0636 26020.3 -03437.8 -07.5263 26246.4
 25 04 2013  02 29  -21.0634 26020.3 -03437.8 -07.5263 26246.4
 25 04 2013  02 30  -21.0631 26020.5 -03437.8 -07.5262 26246.6
 25 04 2013  02 31  -21.0629 26020.4 -03437.7 -07.5261 26246.5
 25 04 2013  02 32  -21.0627 26020.5 -03437.7 -07.5260 26246.6
 25 04 2013  02 33  -21.0627 26020.6 -03437.7 -07.5261 26246.7
 25 04 2013  02 34  -21.0625 26020.8 -03437.8 -07.5261 26246.9
 25 04 2013  02 35  -21.0625 26020.9 -03437.8 -07.5261 26247.0
 25 04 2013  02 36  -21.0622 26021.0 -03437.7 -07.5260 26247.1
 25 04 2013  02 37  -21.0620 26020.9 -03437.7 -07.5258 26247.0
 25 04 2013  02 38  -21.0618 26020.9 -03437.6 -07.5257 26247.0
 25 04 2013  02 39  -21.0616 26020.8 -03437.5 -07.5255 26246.8
 25 04 2013  02 40  -21.0612 26020.8 -03437.4 -07.5253 26246.8
 25 04 2013  02 41  -21.0608 26020.8 -03437.3 -07.5251 26246.8
 25 04 2013  02 42  -21.0604 26020.7 -03437.3 -07.5251 26246.8
 25 04 2013  02 43  -21.0601 26020.8 -03437.3 -07.5250 26246.8
 25 04 2013  02 44  -21.0596 26021.1 -03437.3 -07.5251 26247.1
 25 04 2013  02 45  -21.0595 26021.2 -03437.5 -07.5253 26247.3
 25 04 2013  02 46  -21.0593 26021.4 -03437.5 -07.5254 26247.5
 25 04 2013  02 47  -21.0592 26021.5 -03437.5 -07.5254 26247.6
 25 04 2013  02 48  -21.0590 26021.6 -03437.5 -07.5253 26247.7
 25 04 2013  02 49  -21.0587 26021.7 -03437.5 -07.5252 26247.8
 25 04 2013  02 50  -21.0584 26021.9 -03437.5 -07.5253 26248.0
 25 04 2013  02 51  -21.0581 26021.9 -03437.6 -07.5253 26248.0
 25 04 2013  02 52  -21.0578 26021.8 -03437.4 -07.5251 26247.9
 25 04 2013  02 53  -21.0575 26021.6 -03437.3 -07.5248 26247.7
 25 04 2013  02 54  -21.0574 26021.4 -03437.1 -07.5245 26247.4
 25 04 2013  02 55  -21.0574 26020.9 -03436.8 -07.5240 26246.9
 25 04 2013  02 56  -21.0574 26020.2 -03436.4 -07.5234 26246.2
 25 04 2013  02 57  -21.0574 26019.6 -03436.1 -07.5228 26245.5
 25 04 2013  02 58  -21.0572 26019.2 -03435.8 -07.5224 26245.1
 25 04 2013  02 59  -21.0569 26019.1 -03435.8 -07.5223 26245.0
 25 04 2013  03 00  -21.0564 26019.2 -03435.9 -07.5224 26245.0
 25 04 2013  03 01  -21.0559 26019.5 -03436.0 -07.5227 26245.4
 25 04 2013  03 02  -21.0554 26020.0 -03436.3 -07.5232 26245.9
 25 04 2013  03 03  -21.0551 26020.1 -03436.4 -07.5234 26246.1
 25 04 2013  03 04  -21.0548 26020.0 -03436.3 -07.5232 26245.9
 25 04 2013  03 05  -21.0545 26019.7 -03436.2 -07.5229 26245.6
 25 04 2013  03 06  -21.0543 26019.3 -03435.9 -07.5225 26245.2
 25 04 2013  03 07  -21.0541 26018.8 -03435.6 -07.5220 26244.6
 25 04 2013  03 08  -21.0541 26018.3 -03435.4 -07.5216 26244.1
 25 04 2013  03 09  -21.0541 26018.0 -03435.2 -07.5214 26243.8
 25 04 2013  03 10  -21.0543 26017.8 -03435.2 -07.5214 26243.5
 25 04 2013  03 11  -21.0547 26017.6 -03435.2 -07.5215 26243.5
 25 04 2013  03 12  -21.0549 26017.5 -03435.2 -07.5216 26243.3
 25 04 2013  03 13  -21.0551 26017.4 -03435.2 -07.5216 26243.2
 25 04 2013  03 14  -21.0555 26017.4 -03435.3 -07.5216 26243.2
 25 04 2013  03 15  -21.0558 26017.3 -03435.3 -07.5217 26243.1
 25 04 2013  03 16  -21.0560 26017.2 -03435.3 -07.5217 26243.0
 25 04 2013  03 17  -21.0561 26017.1 -03435.2 -07.5217 26242.9
 25 04 2013  03 18  -21.0562 26017.0 -03435.2 -07.5215 26242.8
 25 04 2013  03 19  -21.0562 26016.7 -03435.0 -07.5213 26242.5
 25 04 2013  03 20  -21.0560 26016.5 -03434.9 -07.5211 26242.3
 25 04 2013  03 21  -21.0558 26016.4 -03434.9 -07.5210 26242.2
 25 04 2013  03 22  -21.0553 26016.4 -03434.8 -07.5210 26242.2
 25 04 2013  03 23  -21.0549 26016.4 -03434.8 -07.5210 26242.1
 25 04 2013  03 24  -21.0546 26016.4 -03434.9 -07.5211 26242.1
 25 04 2013  03 25  -21.0544 26016.4 -03434.9 -07.5211 26242.1
 25 04 2013  03 26  -21.0540 26016.4 -03434.9 -07.5212 26242.2
 25 04 2013  03 27  -21.0538 26016.6 -03435.0 -07.5214 26242.4
 25 04 2013  03 28  -21.0535 26016.8 -03435.2 -07.5217 26242.6
 25 04 2013  03 29  -21.0531 26017.0 -03435.3 -07.5218 26242.8
 25 04 2013  03 30  -21.0526 26017.0 -03435.3 -07.5219 26242.8
 25 04 2013  03 31  -21.0520 26017.2 -03435.4 -07.5220 26243.0
 25 04 2013  03 32  -21.0515 26017.3 -03435.5 -07.5222 26243.2
 25 04 2013  03 33  -21.0509 26017.4 -03435.5 -07.5222 26243.2
 25 04 2013  03 34  -21.0503 26017.4 -03435.5 -07.5222 26243.2
 25 04 2013  03 35  -21.0498 26017.3 -03435.5 -07.5222 26243.2
 25 04 2013  03 36  -21.0495 26017.3 -03435.5 -07.5223 26243.1
 25 04 2013  03 37  -21.0495 26017.1 -03435.5 -07.5223 26242.9
 25 04 2013  03 38  -21.0498 26016.9 -03435.5 -07.5223 26242.7
 25 04 2013  03 39  -21.0501 26016.7 -03435.5 -07.5224 26242.6
 25 04 2013  03 40  -21.0506 26016.6 -03435.5 -07.5224 26242.5
 25 04 2013  03 41  -21.0512 26016.6 -03435.5 -07.5225 26242.4
 25 04 2013  03 42  -21.0518 26016.5 -03435.6 -07.5226 26242.4
 25 04 2013  03 43  -21.0524 26016.3 -03435.6 -07.5226 26242.2
 25 04 2013  03 44  -21.0528 26016.3 -03435.6 -07.5227 26242.2
 25 04 2013  03 45  -21.0532 26016.3 -03435.6 -07.5227 26242.1
 25 04 2013  03 46  -21.0535 26016.2 -03435.6 -07.5228 26242.0
 25 04 2013  03 47  -21.0538 26016.1 -03435.6 -07.5228 26242.0
 25 04 2013  03 48  -21.0541 26016.0 -03435.6 -07.5227 26241.8
 25 04 2013  03 49  -21.0544 26015.9 -03435.6 -07.5228 26241.8
 25 04 2013  03 50  -21.0547 26015.9 -03435.6 -07.5228 26241.8
 25 04 2013  03 51  -21.0550 26016.0 -03435.7 -07.5230 26241.9
 25 04 2013  03 52  -21.0552 26016.0 -03435.7 -07.5230 26241.8
 25 04 2013  03 53  -21.0552 26015.9 -03435.7 -07.5230 26241.8
 25 04 2013  03 54  -21.0553 26015.9 -03435.7 -07.5230 26241.8
 25 04 2013  03 55  -21.0554 26016.0 -03435.7 -07.5231 26241.9
 25 04 2013  03 56  -21.0556 26016.0 -03435.8 -07.5232 26241.9
 25 04 2013  03 57  -21.0558 26016.2 -03435.9 -07.5233 26242.1
 25 04 2013  03 58  -21.0561 26016.2 -03435.9 -07.5233 26242.1
 25 04 2013  03 59  -21.0562 26016.2 -03435.9 -07.5233 26242.1
 25 04 2013  04 00  -21.0564 26016.1 -03435.8 -07.5232 26242.0
 25 04 2013  04 01  -21.0565 26016.0 -03435.8 -07.5231 26241.9
 25 04 2013  04 02  -21.0565 26016.0 -03435.8 -07.5231 26241.9
 25 04 2013  04 03  -21.0565 26016.1 -03435.7 -07.5230 26242.0
 25 04 2013  04 04  -21.0563 26016.4 -03435.8 -07.5231 26242.3
 25 04 2013  04 05  -21.0559 26016.7 -03436.0 -07.5233 26242.6
 25 04 2013  04 06  -21.0556 26017.1 -03436.1 -07.5236 26243.1
 25 04 2013  04 07  -21.0552 26017.5 -03436.3 -07.5239 26243.5
 25 04 2013  04 08  -21.0548 26017.8 -03436.5 -07.5241 26243.8
 25 04 2013  04 09  -21.0545 26018.1 -03436.6 -07.5243 26244.1
 25 04 2013  04 10  -21.0541 26018.3 -03436.6 -07.5243 26244.3
 25 04 2013  04 11  -21.0537 26018.4 -03436.6 -07.5242 26244.4
 25 04 2013  04 12  -21.0535 26018.2 -03436.5 -07.5240 26244.2
 25 04 2013  04 13  -21.0535 26018.0 -03436.4 -07.5238 26244.0
 25 04 2013  04 14  -21.0535 26017.9 -03436.2 -07.5236 26243.8
 25 04 2013  04 15  -21.0535 26017.6 -03436.1 -07.5234 26243.6
 25 04 2013  04 16  -21.0536 26017.5 -03436.0 -07.5232 26243.4
 25 04 2013  04 17  -21.0537 26017.4 -03435.9 -07.5231 26243.3
 25 04 2013  04 18  -21.0538 26017.3 -03435.9 -07.5230 26243.2
 25 04 2013  04 19  -21.0539 26017.3 -03435.9 -07.5230 26243.2
 25 04 2013  04 20  -21.0541 26017.3 -03435.8 -07.5229 26243.2
 25 04 2013  04 21  -21.0542 26017.4 -03435.9 -07.5229 26243.3
 25 04 2013  04 22  -21.0542 26017.3 -03435.8 -07.5228 26243.2
 25 04 2013  04 23  -21.0544 26017.2 -03435.7 -07.5227 26243.1
 25 04 2013  04 24  -21.0545 26017.2 -03435.7 -07.5226 26243.1
 25 04 2013  04 25  -21.0546 26017.1 -03435.7 -07.5226 26243.0
 25 04 2013  04 26  -21.0548 26017.0 -03435.6 -07.5224 26242.9
 25 04 2013  04 27  -21.0549 26016.9 -03435.5 -07.5222 26242.7
 25 04 2013  04 28  -21.0546 26016.9 -03435.4 -07.5221 26242.7
 25 04 2013  04 29  -21.0544 26016.9 -03435.4 -07.5221 26242.7
 25 04 2013  04 30  -21.0546 26016.8 -03435.4 -07.5221 26242.7
 25 04 2013  04 31  -21.0547 26016.9 -03435.4 -07.5221 26242.8
 25 04 2013  04 32  -21.0550 26016.8 -03435.4 -07.5221 26242.6
 25 04 2013  04 33  -21.0551 26016.5 -03435.3 -07.5219 26242.3
 25 04 2013  04 34  -21.0552 26016.1 -03435.1 -07.5216 26241.9
 25 04 2013  04 35  -21.0555 26015.8 -03434.9 -07.5213 26241.6
 25 04 2013  04 36  -21.0559 26015.4 -03434.7 -07.5211 26241.2
 25 04 2013  04 37  -21.0561 26015.1 -03434.6 -07.5209 26240.8
 25 04 2013  04 38  -21.0565 26014.8 -03434.5 -07.5207 26240.5
 25 04 2013  04 39  -21.0567 26014.7 -03434.4 -07.5207 26240.4
 25 04 2013  04 40  -21.0567 26014.8 -03434.5 -07.5207 26240.5
 25 04 2013  04 41  -21.0565 26015.0 -03434.6 -07.5209 26240.7
 25 04 2013  04 42  -21.0561 26015.3 -03434.8 -07.5212 26241.0
 25 04 2013  04 43  -21.0558 26015.6 -03434.9 -07.5214 26241.4
 25 04 2013  04 44  -21.0552 26015.9 -03435.1 -07.5217 26241.7
 25 04 2013  04 45  -21.0547 26016.0 -03435.1 -07.5218 26241.8
 25 04 2013  04 46  -21.0542 26016.1 -03435.2 -07.5218 26241.9
 25 04 2013  04 47  -21.0538 26016.1 -03435.2 -07.5218 26241.9
 25 04 2013  04 48  -21.0534 26015.9 -03435.1 -07.5218 26241.7
 25 04 2013  04 49  -21.0530 26015.6 -03434.9 -07.5215 26241.4
 25 04 2013  04 50  -21.0526 26015.2 -03434.8 -07.5212 26241.0
 25 04 2013  04 51  -21.0522 26015.0 -03434.7 -07.5211 26240.7
 25 04 2013  04 52  -21.0516 26014.9 -03434.7 -07.5211 26240.7
 25 04 2013  04 53  -21.0510 26014.8 -03434.7 -07.5211 26240.6
 25 04 2013  04 54  -21.0507 26014.9 -03434.8 -07.5214 26240.7
 25 04 2013  04 55  -21.0504 26015.1 -03435.0 -07.5217 26240.9
 25 04 2013  04 56  -21.0500 26015.4 -03435.2 -07.5220 26241.2
 25 04 2013  04 57  -21.0495 26015.7 -03435.4 -07.5224 26241.6
 25 04 2013  04 58  -21.0490 26016.1 -03435.6 -07.5228 26242.0
 25 04 2013  04 59  -21.0485 26016.3 -03435.8 -07.5230 26242.2
 25 04 2013  05 00  -21.0480 26016.4 -03435.8 -07.5232 26242.3
 25 04 2013  05 01  -21.0475 26016.5 -03435.8 -07.5231 26242.4
 25 04 2013  05 02  -21.0470 26016.6 -03435.9 -07.5233 26242.5
 25 04 2013  05 03  -21.0465 26016.6 -03435.9 -07.5233 26242.5
 25 04 2013  05 04  -21.0462 26016.7 -03436.0 -07.5234 26242.6
 25 04 2013  05 05  -21.0461 26016.8 -03436.1 -07.5236 26242.7
 25 04 2013  05 06  -21.0461 26016.6 -03436.1 -07.5237 26242.6
 25 04 2013  05 07  -21.0465 26016.4 -03436.0 -07.5236 26242.3
 25 04 2013  05 08  -21.0471 26016.0 -03435.9 -07.5234 26241.9
 25 04 2013  05 09  -21.0478 26015.6 -03435.8 -07.5233 26241.5
 25 04 2013  05 10  -21.0486 26015.3 -03435.6 -07.5231 26241.2
 25 04 2013  05 11  -21.0492 26015.0 -03435.5 -07.5229 26240.9
 25 04 2013  05 12  -21.0498 26014.9 -03435.5 -07.5228 26240.7
 25 04 2013  05 13  -21.0503 26014.7 -03435.4 -07.5228 26240.6
 25 04 2013  05 14  -21.0507 26014.7 -03435.5 -07.5228 26240.6
 25 04 2013  05 15  -21.0510 26014.8 -03435.5 -07.5230 26240.7
 25 04 2013  05 16  -21.0515 26015.0 -03435.6 -07.5231 26240.9
 25 04 2013  05 17  -21.0518 26015.1 -03435.7 -07.5233 26241.0
 25 04 2013  05 18  -21.0521 26015.3 -03435.8 -07.5235 26241.3
 25 04 2013  05 19  -21.0523 26015.5 -03435.9 -07.5236 26241.5
 25 04 2013  05 20  -21.0524 26015.7 -03436.0 -07.5237 26241.6
 25 04 2013  05 21  -21.0523 26015.8 -03436.0 -07.5238 26241.7
 25 04 2013  05 22  -21.0520 26016.0 -03436.1 -07.5238 26241.9
 25 04 2013  05 23  -21.0520 26015.9 -03436.0 -07.5237 26241.8
 25 04 2013  05 24  -21.0519 26016.1 -03436.1 -07.5238 26242.0
 25 04 2013  05 25  -21.0518 26015.9 -03436.0 -07.5237 26241.9
 25 04 2013  05 26  -21.0516 26015.9 -03436.0 -07.5236 26241.8
 25 04 2013  05 27  -21.0515 26015.8 -03435.9 -07.5235 26241.7
 25 04 2013  05 28  -21.0512 26015.7 -03435.9 -07.5234 26241.6
 25 04 2013  05 29  -21.0508 26015.4 -03435.7 -07.5232 26241.3
 25 04 2013  05 30  -21.0504 26015.2 -03435.6 -07.5231 26241.1
 25 04 2013  05 31  -21.0499 26015.0 -03435.6 -07.5230 26240.9
 25 04 2013  05 32  -21.0495 26014.9 -03435.5 -07.5230 26240.8
 25 04 2013  05 33  -21.0491 26014.9 -03435.6 -07.5231 26240.8
 25 04 2013  05 34  -21.0489 26015.0 -03435.7 -07.5233 26240.9
 25 04 2013  05 35  -21.0486 26015.1 -03435.8 -07.5235 26241.0
 25 04 2013  05 36  -21.0481 26015.3 -03435.9 -07.5237 26241.2
 25 04 2013  05 37  -21.0476 26015.5 -03436.1 -07.5240 26241.4
 25 04 2013  05 38  -21.0471 26015.7 -03436.2 -07.5242 26241.6
 25 04 2013  05 39  -21.0467 26015.8 -03436.4 -07.5245 26241.8
 25 04 2013  05 40  -21.0463 26015.9 -03436.4 -07.5246 26241.9
 25 04 2013  05 41  -21.0460 26015.9 -03436.4 -07.5246 26241.9
 25 04 2013  05 42  -21.0457 26015.8 -03436.4 -07.5247 26241.8
 25 04 2013  05 43  -21.0454 26015.6 -03436.4 -07.5246 26241.6
 25 04 2013  05 44  -21.0452 26015.4 -03436.3 -07.5245 26241.4
 25 04 2013  05 45  -21.0454 26015.3 -03436.3 -07.5245 26241.3
 25 04 2013  05 46  -21.0455 26015.2 -03436.3 -07.5246 26241.2
 25 04 2013  05 47  -21.0456 26015.1 -03436.3 -07.5245 26241.0
 25 04 2013  05 48  -21.0456 26015.1 -03436.3 -07.5246 26241.1
 25 04 2013  05 49  -21.0455 26015.2 -03436.4 -07.5247 26241.1
 25 04 2013  05 50  -21.0454 26015.3 -03436.5 -07.5249 26241.3
 25 04 2013  05 51  -21.0453 26015.5 -03436.6 -07.5251 26241.5
 25 04 2013  05 52  -21.0454 26015.6 -03436.7 -07.5252 26241.6
 25 04 2013  05 53  -21.0454 26015.8 -03436.8 -07.5254 26241.8
 25 04 2013  05 54  -21.0452 26015.8 -03436.8 -07.5253 26241.8
 25 04 2013  05 55  -21.0451 26015.8 -03436.8 -07.5253 26241.9
 25 04 2013  05 56  -21.0449 26016.0 -03436.8 -07.5254 26242.0
 25 04 2013  05 57  -21.0445 26016.1 -03436.9 -07.5256 26242.2
 25 04 2013  05 58  -21.0443 26016.3 -03437.0 -07.5257 26242.4
 25 04 2013  05 59  -21.0442 26016.4 -03437.0 -07.5258 26242.5
 25 04 2013  06 00  -21.0439 26016.5 -03437.1 -07.5259 26242.6
 25 04 2013  06 01  -21.0436 26016.5 -03437.1 -07.5259 26242.6
 25 04 2013  06 02  -21.0434 26016.4 -03437.0 -07.5258 26242.5
 25 04 2013  06 03  -21.0434 26016.4 -03437.0 -07.5257 26242.4
 25 04 2013  06 04  -21.0433 26016.4 -03437.0 -07.5258 26242.5
 25 04 2013  06 05  -21.0433 26016.4 -03437.1 -07.5258 26242.5
 25 04 2013  06 06  -21.0433 26016.5 -03437.1 -07.5259 26242.6
 25 04 2013  06 07  -21.0432 26016.8 -03437.2 -07.5260 26242.8
 25 04 2013  06 08  -21.0433 26017.0 -03437.4 -07.5263 26243.1
 25 04 2013  06 09  -21.0437 26017.2 -03437.5 -07.5265 26243.3
 25 04 2013  06 10  -21.0439 26017.3 -03437.6 -07.5267 26243.4
 25 04 2013  06 11  -21.0443 26017.4 -03437.6 -07.5267 26243.5
 25 04 2013  06 12  -21.0446 26017.5 -03437.6 -07.5267 26243.6
 25 04 2013  06 13  -21.0448 26017.7 -03437.7 -07.5267 26243.8
 25 04 2013  06 14  -21.0450 26017.8 -03437.7 -07.5268 26244.0
 25 04 2013  06 15  -21.0452 26018.0 -03437.7 -07.5267 26244.1
 25 04 2013  06 16  -21.0455 26018.0 -03437.7 -07.5267 26244.1
 25 04 2013  06 17  -21.0458 26017.9 -03437.6 -07.5265 26244.0
 25 04 2013  06 18  -21.0464 26017.7 -03437.4 -07.5263 26243.8
 25 04 2013  06 19  -21.0468 26017.5 -03437.3 -07.5261 26243.6
 25 04 2013  06 20  -21.0472 26017.5 -03437.3 -07.5260 26243.6
 25 04 2013  06 21  -21.0475 26017.6 -03437.3 -07.5259 26243.6
 25 04 2013  06 22  -21.0477 26017.7 -03437.3 -07.5259 26243.7
 25 04 2013  06 23  -21.0479 26017.8 -03437.3 -07.5259 26243.9
 25 04 2013  06 24  -21.0482 26017.9 -03437.3 -07.5260 26244.0
 25 04 2013  06 25  -21.0481 26017.9 -03437.2 -07.5258 26243.9
 25 04 2013  06 26  -21.0479 26018.1 -03437.3 -07.5258 26244.1
 25 04 2013  06 27  -21.0477 26018.2 -03437.3 -07.5258 26244.2
 25 04 2013  06 28  -21.0476 26018.3 -03437.3 -07.5259 26244.4
 25 04 2013  06 29  -21.0472 26018.4 -03437.3 -07.5258 26244.5
 25 04 2013  06 30  -21.0468 26018.4 -03437.3 -07.5258 26244.5
 25 04 2013  06 31  -21.0468 26018.3 -03437.2 -07.5256 26244.4
 25 04 2013  06 32  -21.0468 26018.3 -03437.2 -07.5256 26244.4
 25 04 2013  06 33  -21.0470 26018.2 -03437.2 -07.5255 26244.3
 25 04 2013  06 34  -21.0468 26018.1 -03437.1 -07.5253 26244.2
 25 04 2013  06 35  -21.0465 26018.3 -03437.1 -07.5253 26244.3
 25 04 2013  06 36  -21.0466 26018.4 -03437.2 -07.5255 26244.5
 25 04 2013  06 37  -21.0467 26018.6 -03437.3 -07.5257 26244.7
 25 04 2013  06 38  -21.0470 26018.8 -03437.4 -07.5259 26244.8
 25 04 2013  06 39  -21.0473 26019.0 -03437.5 -07.5260 26245.0
 25 04 2013  06 40  -21.0475 26019.1 -03437.5 -07.5261 26245.2
 25 04 2013  06 41  -21.0475 26019.4 -03437.6 -07.5262 26245.5
 25 04 2013  06 42  -21.0475 26019.6 -03437.7 -07.5263 26245.7
 25 04 2013  06 43  -21.0474 26019.8 -03437.7 -07.5263 26245.9
 25 04 2013  06 44  -21.0473 26019.7 -03437.7 -07.5262 26245.8
 25 04 2013  06 45  -21.0469 26019.9 -03437.7 -07.5262 26246.0
 25 04 2013  06 46  -21.0466 26019.7 -03437.6 -07.5260 26245.8
 25 04 2013  06 47  -21.0463 26019.9 -03437.6 -07.5260 26246.0
 25 04 2013  06 48  -21.0462 26019.9 -03437.6 -07.5260 26246.0
 25 04 2013  06 49  -21.0461 26019.9 -03437.6 -07.5259 26246.0
 25 04 2013  06 50  -21.0459 26019.9 -03437.6 -07.5259 26246.0
 25 04 2013  06 51  -21.0457 26019.8 -03437.5 -07.5258 26245.9
 25 04 2013  06 52  -21.0455 26019.7 -03437.5 -07.5257 26245.8
 25 04 2013  06 53  -21.0455 26019.7 -03437.5 -07.5258 26245.8
 25 04 2013  06 54  -21.0455 26019.8 -03437.5 -07.5258 26245.9
 25 04 2013  06 55  -21.0456 26019.8 -03437.5 -07.5259 26245.9
 25 04 2013  06 56  -21.0456 26019.8 -03437.5 -07.5259 26245.9
 25 04 2013  06 57  -21.0452 26019.7 -03437.5 -07.5257 26245.8
 25 04 2013  06 58  -21.0450 26019.7 -03437.4 -07.5257 26245.8
 25 04 2013  06 59  -21.0447 26019.7 -03437.4 -07.5256 26245.7
 25 04 2013  07 00  -21.0444 26019.6 -03437.3 -07.5255 26245.6
 25 04 2013  07 01  -21.0441 26019.5 -03437.3 -07.5254 26245.6
 25 04 2013  07 02  -21.0439 26019.5 -03437.3 -07.5255 26245.5
 25 04 2013  07 03  -21.0437 26019.4 -03437.3 -07.5255 26245.5
 25 04 2013  07 04  -21.0434 26019.3 -03437.2 -07.5254 26245.4
 25 04 2013  07 05  -21.0430 26019.2 -03437.2 -07.5253 26245.3
 25 04 2013  07 06  -21.0425 26019.1 -03437.1 -07.5252 26245.1
 25 04 2013  07 07  -21.0418 26019.2 -03437.2 -07.5253 26245.2
 25 04 2013  07 08  -21.0414 26019.4 -03437.3 -07.5255 26245.5
 25 04 2013  07 09  -21.0413 26019.8 -03437.6 -07.5261 26245.9
 25 04 2013  07 10  -21.0413 26020.3 -03437.9 -07.5266 26246.5
 25 04 2013  07 11  -21.0409 26021.0 -03438.3 -07.5271 26247.2
 25 04 2013  07 12  -21.0406 26021.5 -03438.5 -07.5276 26247.7
 25 04 2013  07 13  -21.0404 26021.6 -03438.6 -07.5276 26247.9
 25 04 2013  07 14  -21.0401 26021.6 -03438.5 -07.5275 26247.8
 25 04 2013  07 15  -21.0397 26021.4 -03438.4 -07.5272 26247.6
 25 04 2013  07 16  -21.0396 26021.2 -03438.1 -07.5268 26247.4
 25 04 2013  07 17  -21.0403 26021.3 -03438.2 -07.5268 26247.5
 25 04 2013  07 18  -21.0408 26021.5 -03438.3 -07.5270 26247.7
 25 04 2013  07 19  -21.0411 26021.7 -03438.4 -07.5271 26247.9
 25 04 2013  07 20  -21.0413 26021.8 -03438.4 -07.5272 26247.9
 25 04 2013  07 21  -21.0416 26021.9 -03438.5 -07.5273 26248.1
 25 04 2013  07 22  -21.0420 26022.0 -03438.5 -07.5273 26248.2
 25 04 2013  07 23  -21.0422 26022.0 -03438.4 -07.5271 26248.2
 25 04 2013  07 24  -21.0421 26022.0 -03438.4 -07.5270 26248.2
 25 04 2013  07 25  -21.0421 26022.1 -03438.3 -07.5268 26248.2
 25 04 2013  07 26  -21.0423 26022.2 -03438.3 -07.5269 26248.3
 25 04 2013  07 27  -21.0426 26022.3 -03438.3 -07.5269 26248.5
 25 04 2013  07 28  -21.0428 26022.5 -03438.5 -07.5271 26248.7
 25 04 2013  07 29  -21.0428 26022.6 -03438.5 -07.5271 26248.8
 25 04 2013  07 30  -21.0429 26022.8 -03438.5 -07.5271 26248.9
 25 04 2013  07 31  -21.0428 26022.8 -03438.4 -07.5270 26249.0
 25 04 2013  07 32  -21.0428 26022.9 -03438.4 -07.5269 26249.1
 25 04 2013  07 33  -21.0427 26023.0 -03438.4 -07.5269 26249.2
 25 04 2013  07 34  -21.0426 26023.1 -03438.4 -07.5269 26249.2
 25 04 2013  07 35  -21.0426 26023.0 -03438.4 -07.5267 26249.2
 25 04 2013  07 36  -21.0428 26023.2 -03438.4 -07.5268 26249.4
 25 04 2013  07 37  -21.0428 26023.4 -03438.5 -07.5269 26249.6
 25 04 2013  07 38  -21.0429 26023.5 -03438.5 -07.5269 26249.7
 25 04 2013  07 39  -21.0429 26023.8 -03438.6 -07.5271 26250.0
 25 04 2013  07 40  -21.0431 26024.0 -03438.7 -07.5271 26250.2
 25 04 2013  07 41  -21.0431 26024.1 -03438.7 -07.5271 26250.3
 25 04 2013  07 42  -21.0432 26024.0 -03438.6 -07.5270 26250.2
 25 04 2013  07 43  -21.0433 26024.0 -03438.5 -07.5268 26250.2
 25 04 2013  07 44  -21.0434 26023.9 -03438.4 -07.5266 26250.1
 25 04 2013  07 45  -21.0437 26024.0 -03438.3 -07.5264 26250.1
 25 04 2013  07 46  -21.0440 26024.0 -03438.3 -07.5263 26250.1
 25 04 2013  07 47  -21.0440 26024.0 -03438.2 -07.5262 26250.1
 25 04 2013  07 48  -21.0438 26023.8 -03438.1 -07.5259 26250.0
 25 04 2013  07 49  -21.0435 26023.7 -03438.0 -07.5257 26249.8
 25 04 2013  07 50  -21.0435 26023.6 -03437.9 -07.5256 26249.7
 25 04 2013  07 51  -21.0437 26023.5 -03437.9 -07.5255 26249.6
 25 04 2013  07 52  -21.0439 26023.7 -03437.9 -07.5255 26249.8
 25 04 2013  07 53  -21.0443 26023.7 -03437.9 -07.5255 26249.8
 25 04 2013  07 54  -21.0444 26023.6 -03437.8 -07.5254 26249.7
 25 04 2013  07 55  -21.0444 26023.6 -03437.8 -07.5253 26249.7
 25 04 2013  07 56  -21.0445 26023.5 -03437.7 -07.5252 26249.6
 25 04 2013  07 57  -21.0445 26023.6 -03437.7 -07.5252 26249.6
 25 04 2013  07 58  -21.0444 26023.5 -03437.7 -07.5252 26249.6
 25 04 2013  07 59  -21.0442 26023.6 -03437.7 -07.5252 26249.7
 25 04 2013  08 00  -21.0441 26023.5 -03437.7 -07.5251 26249.6
 25 04 2013  08 01  -21.0438 26023.6 -03437.7 -07.5252 26249.7
 25 04 2013  08 02  -21.0436 26023.6 -03437.7 -07.5252 26249.7
 25 04 2013  08 03  -21.0442 26023.8 -03437.9 -07.5255 26249.9
 25 04 2013  08 04  -21.0451 26024.2 -03438.1 -07.5260 26250.3
 25 04 2013  08 05  -21.0456 26024.6 -03438.4 -07.5264 26250.7
 25 04 2013  08 06  -21.0455 26024.7 -03438.4 -07.5263 26250.9
 25 04 2013  08 07  -21.0448 26024.7 -03438.2 -07.5260 26250.8
 25 04 2013  08 08  -21.0439 26024.5 -03438.0 -07.5256 26250.6
 25 04 2013  08 09  -21.0434 26024.6 -03437.9 -07.5254 26250.7
 25 04 2013  08 10  -21.0430 26024.3 -03437.7 -07.5250 26250.3
 25 04 2013  08 11  -21.0429 26023.7 -03437.4 -07.5245 26249.7
 25 04 2013  08 12  -21.0431 26023.4 -03437.2 -07.5242 26249.4
 25 04 2013  08 13  -21.0434 26023.4 -03437.2 -07.5241 26249.4
 25 04 2013  08 14  -21.0440 26023.6 -03437.3 -07.5243 26249.6
 25 04 2013  08 15  -21.0444 26023.6 -03437.4 -07.5244 26249.7
 25 04 2013  08 16  -21.0446 26023.6 -03437.4 -07.5244 26249.7
 25 04 2013  08 17  -21.0446 26023.6 -03437.4 -07.5244 26249.7
 25 04 2013  08 18  -21.0443 26023.5 -03437.2 -07.5242 26249.5
 25 04 2013  08 19  -21.0437 26023.3 -03437.2 -07.5241 26249.3
 25 04 2013  08 20  -21.0430 26023.1 -03437.1 -07.5240 26249.1
 25 04 2013  08 21  -21.0424 26022.9 -03437.0 -07.5238 26248.9
 25 04 2013  08 22  -21.0417 26022.7 -03436.9 -07.5237 26248.6
 25 04 2013  08 23  -21.0413 26022.6 -03436.9 -07.5238 26248.6
 25 04 2013  08 24  -21.0408 26022.6 -03437.0 -07.5239 26248.6
 25 04 2013  08 25  -21.0406 26022.6 -03437.1 -07.5240 26248.6
 25 04 2013  08 26  -21.0403 26022.4 -03437.0 -07.5240 26248.4
 25 04 2013  08 27  -21.0399 26022.4 -03437.0 -07.5240 26248.4
 25 04 2013  08 28  -21.0399 26022.4 -03437.1 -07.5241 26248.4
 25 04 2013  08 29  -21.0403 26022.5 -03437.2 -07.5243 26248.5
 25 04 2013  08 30  -21.0408 26022.6 -03437.3 -07.5245 26248.7
 25 04 2013  08 31  -21.0410 26022.6 -03437.3 -07.5245 26248.7
 25 04 2013  08 32  -21.0411 26022.7 -03437.3 -07.5245 26248.7
 25 04 2013  08 33  -21.0413 26022.6 -03437.3 -07.5246 26248.7
 25 04 2013  08 34  -21.0414 26022.7 -03437.3 -07.5246 26248.8
 25 04 2013  08 35  -21.0411 26022.7 -03437.3 -07.5245 26248.7
 25 04 2013  08 36  -21.0413 26022.6 -03437.3 -07.5245 26248.7
 25 04 2013  08 37  -21.0415 26022.6 -03437.3 -07.5245 26248.6
 25 04 2013  08 38  -21.0417 26022.6 -03437.3 -07.5245 26248.6
 25 04 2013  08 39  -21.0416 26022.6 -03437.3 -07.5246 26248.7
 25 04 2013  08 40  -21.0417 26022.6 -03437.3 -07.5246 26248.6
 25 04 2013  08 41  -21.0418 26022.6 -03437.4 -07.5248 26248.6
 25 04 2013  08 42  -21.0419 26022.7 -03437.5 -07.5249 26248.8
 25 04 2013  08 43  -21.0417 26022.9 -03437.6 -07.5250 26249.0
 25 04 2013  08 44  -21.0413 26023.0 -03437.6 -07.5252 26249.0
 25 04 2013  08 45  -21.0412 26023.1 -03437.7 -07.5253 26249.2
 25 04 2013  08 46  -21.0413 26023.3 -03437.8 -07.5255 26249.4
 25 04 2013  08 47  -21.0412 26023.4 -03437.9 -07.5257 26249.5
 25 04 2013  08 48  -21.0412 26023.6 -03438.0 -07.5259 26249.7
 25 04 2013  08 49  -21.0411 26023.6 -03438.0 -07.5259 26249.7
 25 04 2013  08 50  -21.0410 26023.6 -03438.0 -07.5259 26249.7
 25 04 2013  08 51  -21.0411 26023.5 -03438.0 -07.5259 26249.7
 25 04 2013  08 52  -21.0412 26023.5 -03438.0 -07.5258 26249.6
 25 04 2013  08 53  -21.0414 26023.4 -03437.8 -07.5255 26249.5
 25 04 2013  08 54  -21.0414 26023.4 -03437.7 -07.5253 26249.4
 25 04 2013  08 55  -21.0417 26023.4 -03437.7 -07.5252 26249.4
 25 04 2013  08 56  -21.0422 26023.4 -03437.7 -07.5251 26249.4
 25 04 2013  08 57  -21.0427 26023.5 -03437.7 -07.5251 26249.6
 25 04 2013  08 58  -21.0430 26023.6 -03437.6 -07.5250 26249.7
 25 04 2013  08 59  -21.0429 26023.6 -03437.5 -07.5247 26249.7
 25 04 2013  09 00  -21.0432 26023.6 -03437.5 -07.5247 26249.7
 25 04 2013  09 01  -21.0435 26023.7 -03437.5 -07.5246 26249.8
 25 04 2013  09 02  -21.0435 26023.7 -03437.5 -07.5246 26249.8
 25 04 2013  09 03  -21.0432 26023.8 -03437.4 -07.5244 26249.8
 25 04 2013  09 04  -21.0429 26023.7 -03437.3 -07.5242 26249.8
 25 04 2013  09 05  -21.0428 26023.7 -03437.2 -07.5240 26249.7
 25 04 2013  09 06  -21.0426 26023.6 -03437.1 -07.5239 26249.6
 25 04 2013  09 07  -21.0425 26023.6 -03437.1 -07.5238 26249.6
 25 04 2013  09 08  -21.0424 26023.6 -03437.1 -07.5238 26249.6
 25 04 2013  09 09  -21.0419 26023.6 -03437.1 -07.5237 26249.6
 25 04 2013  09 10  -21.0416 26023.6 -03437.0 -07.5237 26249.6
 25 04 2013  09 11  -21.0415 26023.6 -03437.0 -07.5236 26249.6
 25 04 2013  09 12  -21.0415 26023.5 -03436.9 -07.5235 26249.5
 25 04 2013  09 13  -21.0415 26023.2 -03436.8 -07.5234 26249.2
 25 04 2013  09 14  -21.0413 26022.7 -03436.6 -07.5229 26248.7
 25 04 2013  09 15  -21.0402 26022.4 -03436.2 -07.5223 26248.3
 25 04 2013  09 16  -21.0400 26021.9 -03435.9 -07.5217 26247.8
 25 04 2013  09 17  -21.0407 26021.7 -03435.9 -07.5218 26247.5
 25 04 2013  09 18  -21.0410 26021.6 -03436.0 -07.5219 26247.5
 25 04 2013  09 19  -21.0406 26021.6 -03436.0 -07.5221 26247.5
 25 04 2013  09 20  -21.0407 26021.6 -03436.2 -07.5224 26247.5
 25 04 2013  09 21  -21.0411 26021.5 -03436.4 -07.5229 26247.4
 25 04 2013  09 22  -21.0414 26022.0 -03436.9 -07.5238 26248.0
 25 04 2013  09 23  -21.0419 26022.0 -03437.1 -07.5242 26248.0
 25 04 2013  09 24  -21.0417 26022.4 -03437.4 -07.5248 26248.5
 25 04 2013  09 25  -21.0412 26022.7 -03437.6 -07.5251 26248.7
 25 04 2013  09 26  -21.0408 26023.0 -03437.7 -07.5253 26249.1
 25 04 2013  09 27  -21.0403 26023.2 -03437.8 -07.5254 26249.3
 25 04 2013  09 28  -21.0405 26023.2 -03437.8 -07.5254 26249.3
 25 04 2013  09 29  -21.0406 26023.3 -03437.8 -07.5254 26249.4
 25 04 2013  09 30  -21.0410 26023.8 -03437.9 -07.5256 26249.9
 25 04 2013  09 31  -21.0418 26023.8 -03437.9 -07.5256 26249.9
 25 04 2013  09 32  -21.0423 26023.8 -03437.9 -07.5255 26249.9
 25 04 2013  09 33  -21.0429 26023.6 -03437.7 -07.5252 26249.7
 25 04 2013  09 34  -21.0431 26023.7 -03437.7 -07.5251 26249.8
 25 04 2013  09 35  -21.0433 26023.7 -03437.6 -07.5249 26249.8
 25 04 2013  09 36  -21.0437 26023.7 -03437.6 -07.5249 26249.8
 25 04 2013  09 37  -21.0445 26023.9 -03437.7 -07.5251 26249.9
 25 04 2013  09 38  -21.0450 26024.2 -03437.9 -07.5254 26250.3
 25 04 2013  09 39  -21.0454 26024.5 -03438.1 -07.5257 26250.6
 25 04 2013  09 40  -21.0453 26024.7 -03438.1 -07.5257 26250.8
 25 04 2013  09 41  -21.0451 26024.8 -03438.1 -07.5256 26251.0
 25 04 2013  09 42  -21.0453 26025.0 -03438.0 -07.5254 26251.1
 25 04 2013  09 43  -21.0453 26025.1 -03438.0 -07.5253 26251.2
 25 04 2013  09 44  -21.0458 26025.2 -03437.9 -07.5252 26251.3
 25 04 2013  09 45  -21.0463 26025.4 -03438.0 -07.5254 26251.5
 25 04 2013  09 46  -21.0469 26025.7 -03438.2 -07.5255 26251.8
 25 04 2013  09 47  -21.0475 26025.9 -03438.3 -07.5257 26252.1
 25 04 2013  09 48  -21.0477 26026.1 -03438.3 -07.5258 26252.3
 25 04 2013  09 49  -21.0476 26026.4 -03438.3 -07.5257 26252.5
 25 04 2013  09 50  -21.0474 26026.5 -03438.3 -07.5256 26252.6
 25 04 2013  09 51  -21.0475 26026.5 -03438.2 -07.5254 26252.6
 25 04 2013  09 52  -21.0480 26026.6 -03438.2 -07.5254 26252.7
 25 04 2013  09 53  -21.0486 26026.8 -03438.3 -07.5255 26252.9
 25 04 2013  09 54  -21.0485 26027.1 -03438.3 -07.5255 26253.2
 25 04 2013  09 55  -21.0489 26027.1 -03438.4 -07.5256 26253.3
 25 04 2013  09 56  -21.0492 26027.3 -03438.4 -07.5256 26253.5
 25 04 2013  09 57  -21.0499 26027.6 -03438.4 -07.5256 26253.7
 25 04 2013  09 58  -21.0506 26027.6 -03438.4 -07.5255 26253.8
 25 04 2013  09 59  -21.0508 26027.7 -03438.3 -07.5252 26253.8
 25 04 2013  10 00  -21.0516 26027.7 -03438.2 -07.5250 26253.8
 25 04 2013  10 01  -21.0529 26027.8 -03438.1 -07.5248 26253.9
 25 04 2013  10 02  -21.0541 26027.6 -03438.0 -07.5246 26253.7
 25 04 2013  10 03  -21.0545 26027.5 -03437.8 -07.5242 26253.6
 25 04 2013  10 04  -21.0544 26027.2 -03437.5 -07.5237 26253.2
 25 04 2013  10 05  -21.0543 26027.0 -03437.3 -07.5234 26253.0
 25 04 2013  10 06  -21.0539 26027.4 -03437.4 -07.5234 26253.4
 25 04 2013  10 07  -21.0539 26027.8 -03437.5 -07.5234 26253.8
 25 04 2013  10 08  -21.0538 26028.3 -03437.5 -07.5234 26254.3
 25 04 2013  10 09  -21.0535 26029.0 -03437.6 -07.5234 26255.0
 25 04 2013  10 10  -21.0536 26029.4 -03437.6 -07.5232 26255.4
 25 04 2013  10 11  -21.0540 26029.7 -03437.5 -07.5230 26255.7
 25 04 2013  10 12  -21.0546 26030.1 -03437.5 -07.5229 26256.1
 25 04 2013  10 13  -21.0547 26030.9 -03437.6 -07.5227 26256.9
 25 04 2013  10 14  -21.0536 26031.5 -03437.5 -07.5225 26257.5
 25 04 2013  10 15  -21.0531 26031.3 -03437.2 -07.5219 26257.2
 25 04 2013  10 16  -21.0531 26031.3 -03437.2 -07.5218 26257.3
 25 04 2013  10 17  -21.0525 26031.8 -03437.3 -07.5219 26257.7
 25 04 2013  10 18  -21.0529 26032.2 -03437.4 -07.5220 26258.2
 25 04 2013  10 19  -21.0540 26032.5 -03437.4 -07.5219 26258.5
 25 04 2013  10 20  -21.0555 26032.7 -03437.4 -07.5218 26258.7
 25 04 2013  10 21  -21.0568 26033.0 -03437.3 -07.5216 26258.9
 25 04 2013  10 22  -21.0580 26033.2 -03437.2 -07.5213 26259.2
 25 04 2013  10 23  -21.0592 26033.1 -03437.0 -07.5209 26259.0
 25 04 2013  10 24  -21.0611 26032.8 -03436.7 -07.5204 26258.7
 25 04 2013  10 25  -21.0631 26032.7 -03436.6 -07.5201 26258.5
 25 04 2013  10 26  -21.0644 26032.7 -03436.5 -07.5199 26258.6
 25 04 2013  10 27  -21.0648 26032.6 -03436.2 -07.5194 26258.4
 25 04 2013  10 28  -21.0649 26032.3 -03435.9 -07.5188 26258.1
 25 04 2013  10 29  -21.0651 26032.1 -03435.7 -07.5183 26257.9
 25 04 2013  10 30  -21.0656 26032.3 -03435.6 -07.5180 26258.0
 25 04 2013  10 31  -21.0665 26032.6 -03435.6 -07.5179 26258.3
 25 04 2013  10 32  -21.0670 26032.8 -03435.5 -07.5177 26258.5
 25 04 2013  10 33  -21.0674 26033.0 -03435.4 -07.5175 26258.7
 25 04 2013  10 34  -21.0685 26033.0 -03435.3 -07.5172 26258.6
 25 04 2013  10 35  -21.0694 26033.3 -03435.3 -07.5172 26259.0
 25 04 2013  10 36  -21.0693 26033.6 -03435.2 -07.5169 26259.3
 25 04 2013  10 37  -21.0694 26033.7 -03435.1 -07.5166 26259.4
 25 04 2013  10 38  -21.0699 26033.7 -03434.9 -07.5163 26259.3
 25 04 2013  10 39  -21.0705 26033.8 -03434.8 -07.5160 26259.4
 25 04 2013  10 40  -21.0705 26034.2 -03434.8 -07.5159 26259.8
 25 04 2013  10 41  -21.0698 26034.6 -03434.7 -07.5156 26260.2
 25 04 2013  10 42  -21.0696 26035.2 -03434.7 -07.5154 26260.8
 25 04 2013  10 43  -21.0695 26035.7 -03434.7 -07.5152 26261.3
 25 04 2013  10 44  -21.0697 26035.9 -03434.5 -07.5148 26261.5
 25 04 2013  10 45  -21.0699 26036.0 -03434.3 -07.5143 26261.5
 25 04 2013  10 46  -21.0705 26035.9 -03434.1 -07.5139 26261.4
 25 04 2013  10 47  -21.0719 26035.9 -03434.0 -07.5136 26261.4
 25 04 2013  10 48  -21.0728 26036.1 -03433.9 -07.5134 26261.5
 25 04 2013  10 49  -21.0733 26035.9 -03433.7 -07.5130 26261.4
 25 04 2013  10 50  -21.0739 26035.8 -03433.6 -07.5127 26261.2
 25 04 2013  10 51  -21.0743 26035.9 -03433.5 -07.5125 26261.3
 25 04 2013  10 52  -21.0735 26036.0 -03433.4 -07.5122 26261.4
 25 04 2013  10 53  -21.0724 26036.2 -03433.2 -07.5118 26261.5
 25 04 2013  10 54  -21.0711 26036.8 -03433.2 -07.5117 26262.2
 25 04 2013  10 55  -21.0692 26037.9 -03433.3 -07.5116 26263.3
 25 04 2013  10 56  -21.0669 26039.1 -03433.4 -07.5114 26264.4
 25 04 2013  10 57  -21.0652 26040.1 -03433.4 -07.5111 26265.5
 25 04 2013  10 58  -21.0649 26041.0 -03433.3 -07.5107 26266.3
 25 04 2013  10 59  -21.0656 26041.3 -03433.0 -07.5100 26266.6
 25 04 2013  11 00  -21.0662 26041.7 -03432.8 -07.5095 26267.0
 25 04 2013  11 01  -21.0667 26041.8 -03432.6 -07.5090 26267.0
 25 04 2013  11 02  -21.0665 26042.1 -03432.5 -07.5086 26267.3
 25 04 2013  11 03  -21.0656 26042.4 -03432.4 -07.5083 26267.6
 25 04 2013  11 04  -21.0643 26042.7 -03432.3 -07.5079 26267.9
 25 04 2013  11 05  -21.0630 26043.5 -03432.3 -07.5078 26268.7
 25 04 2013  11 06  -21.0618 26044.3 -03432.4 -07.5077 26269.5
 25 04 2013  11 07  -21.0607 26045.2 -03432.4 -07.5074 26270.3
 25 04 2013  11 08  -21.0611 26046.9 -03432.6 -07.5075 26272.1
 25 04 2013  11 09  -21.0618 26048.1 -03432.6 -07.5070 26273.3
 25 04 2013  11 10  -21.0621 26047.6 -03431.7 -07.5053 26272.7
 25 04 2013  11 11  -21.0620 26047.6 -03431.2 -07.5042 26272.6
 25 04 2013  11 12  -21.0619 26047.2 -03430.7 -07.5033 26272.2
 25 04 2013  11 13  -21.0617 26046.5 -03430.2 -07.5023 26271.4
 25 04 2013  11 14  -21.0616 26047.1 -03430.2 -07.5023 26272.0
 25 04 2013  11 15  -21.0612 26047.2 -03430.1 -07.5020 26272.0
 25 04 2013  11 16  -21.0610 26047.4 -03430.1 -07.5019 26272.3
 25 04 2013  11 17  -21.0612 26047.8 -03430.1 -07.5018 26272.7
 25 04 2013  11 18  -21.0611 26048.0 -03430.0 -07.5016 26272.9
 25 04 2013  11 19  -21.0612 26048.3 -03430.0 -07.5014 26273.2
 25 04 2013  11 20  -21.0613 26048.9 -03430.1 -07.5014 26273.7
 25 04 2013  11 21  -21.0608 26049.6 -03430.1 -07.5014 26274.4
 25 04 2013  11 22  -21.0611 26049.8 -03430.1 -07.5012 26274.6
 25 04 2013  11 23  -21.0619 26049.7 -03429.9 -07.5009 26274.6
 25 04 2013  11 24  -21.0626 26049.3 -03429.7 -07.5004 26274.1
 25 04 2013  11 25  -21.0630 26049.0 -03429.5 -07.5001 26273.8
 25 04 2013  11 26  -21.0640 26049.0 -03429.5 -07.5001 26273.8
 25 04 2013  11 27  -21.0646 26049.0 -03429.4 -07.4999 26273.8
 25 04 2013  11 28  -21.0648 26049.3 -03429.4 -07.5000 26274.1
 25 04 2013  11 29  -21.0646 26049.1 -03429.2 -07.4996 26273.8
 25 04 2013  11 30  -21.0646 26048.8 -03429.0 -07.4992 26273.5
 25 04 2013  11 31  -21.0644 26048.2 -03428.7 -07.4988 26272.9
 25 04 2013  11 32  -21.0645 26048.1 -03428.7 -07.4987 26272.8
 25 04 2013  11 33  -21.0648 26048.6 -03428.9 -07.4989 26273.3
 25 04 2013  11 34  -21.0650 26048.0 -03428.6 -07.4985 26272.7
 25 04 2013  11 35  -21.0654 26047.9 -03428.5 -07.4983 26272.5
 25 04 2013  11 36  -21.0661 26047.7 -03428.4 -07.4982 26272.4
 25 04 2013  11 37  -21.0663 26048.2 -03428.6 -07.4983 26272.9
 25 04 2013  11 38  -21.0670 26048.1 -03428.4 -07.4981 26272.8
 25 04 2013  11 39  -21.0669 26048.2 -03428.3 -07.4977 26272.8
 25 04 2013  11 40  -21.0665 26048.8 -03428.3 -07.4977 26273.4
 25 04 2013  11 41  -21.0664 26049.1 -03428.3 -07.4975 26273.8
 25 04 2013  11 42  -21.0666 26049.2 -03428.1 -07.4972 26273.8
 25 04 2013  11 43  -21.0672 26048.9 -03427.8 -07.4966 26273.5
 25 04 2013  11 44  -21.0706 26048.4 -03427.4 -07.4957 26272.9
 25 04 2013  11 45  -21.0704 26048.7 -03427.4 -07.4957 26273.2
 25 04 2013  11 46  -21.0707 26049.0 -03427.4 -07.4955 26273.5
 25 04 2013  11 47  -21.0707 26049.3 -03427.3 -07.4953 26273.8
 25 04 2013  11 48  -21.0711 26049.3 -03427.2 -07.4950 26273.8
 25 04 2013  11 49  -21.0710 26049.8 -03427.1 -07.4948 26274.3
 25 04 2013  11 50  -21.0708 26050.5 -03427.2 -07.4948 26275.0
 25 04 2013  11 51  -21.0706 26051.3 -03427.3 -07.4947 26275.8
 25 04 2013  11 52  -21.0705 26051.8 -03427.2 -07.4944 26276.2
 25 04 2013  11 53  -21.0707 26052.0 -03427.0 -07.4939 26276.5
 25 04 2013  11 54  -21.0709 26052.5 -03427.0 -07.4937 26276.9
 25 04 2013  11 55  -21.0710 26052.9 -03426.9 -07.4935 26277.3
 25 04 2013  11 56  -21.0708 26053.5 -03426.9 -07.4932 26277.9
 25 04 2013  11 57  -21.0703 26054.3 -03426.9 -07.4931 26278.7
 25 04 2013  11 58  -21.0701 26054.9 -03426.9 -07.4929 26279.3
 25 04 2013  11 59  -21.0698 26055.1 -03426.7 -07.4923 26279.5
 25 04 2013  12 00  -21.0694 26055.4 -03426.5 -07.4919 26279.8
 25 04 2013  12 01  -21.0691 26055.8 -03426.4 -07.4916 26280.1
 25 04 2013  12 02  -21.0692 26056.2 -03426.4 -07.4915 26280.5
 25 04 2013  12 03  -21.0693 26056.8 -03426.5 -07.4914 26281.1
 25 04 2013  12 04  -21.0697 26057.2 -03426.5 -07.4913 26281.6
 25 04 2013  12 05  -21.0702 26057.1 -03426.2 -07.4908 26281.4
 25 04 2013  12 06  -21.0704 26057.4 -03426.2 -07.4906 26281.7
 25 04 2013  12 07  -21.0709 26057.8 -03426.1 -07.4903 26282.0
 25 04 2013  12 08  -21.0710 26058.3 -03426.1 -07.4902 26282.6
 25 04 2013  12 09  -21.0711 26058.8 -03426.1 -07.4900 26283.1
 25 04 2013  12 10  -21.0713 26059.3 -03426.0 -07.4896 26283.5
 25 04 2013  12 11  -21.0714 26059.6 -03425.9 -07.4893 26283.9
 25 04 2013  12 12  -21.0701 26059.6 -03425.6 -07.4887 26283.8
 25 04 2013  12 13  -21.0674 26060.3 -03425.9 -07.4891 26284.6
 25 04 2013  12 14  -21.0676 26060.6 -03425.8 -07.4890 26284.8
 25 04 2013  12 15  -21.0680 26061.1 -03425.9 -07.4889 26285.3
 25 04 2013  12 16  -21.0684 26061.5 -03425.9 -07.4888 26285.7
 25 04 2013  12 17  -21.0684 26061.6 -03425.7 -07.4884 26285.8
 25 04 2013  12 18  -21.0682 26062.1 -03425.7 -07.4882 26286.3
 25 04 2013  12 19  -21.0680 26062.6 -03425.6 -07.4879 26286.8
 25 04 2013  12 20  -21.0678 26063.2 -03425.6 -07.4877 26287.4
 25 04 2013  12 21  -21.0678 26063.7 -03425.6 -07.4875 26287.9
 25 04 2013  12 22  -21.0677 26064.2 -03425.5 -07.4873 26288.3
 25 04 2013  12 23  -21.0679 26064.8 -03425.5 -07.4870 26288.9
 25 04 2013  12 24  -21.0680 26065.6 -03425.5 -07.4868 26289.7
 25 04 2013  12 25  -21.0680 26065.9 -03425.2 -07.4862 26289.9
 25 04 2013  12 26  -21.0683 26066.1 -03425.0 -07.4856 26290.2
 25 04 2013  12 27  -21.0682 26066.4 -03424.8 -07.4851 26290.4
 25 04 2013  12 28  -21.0679 26066.1 -03424.4 -07.4844 26290.1
 25 04 2013  12 29  -21.0679 26066.2 -03424.4 -07.4842 26290.1
 25 04 2013  12 30  -21.0675 26067.0 -03424.5 -07.4843 26291.0
 25 04 2013  12 31  -21.0674 26068.5 -03424.9 -07.4847 26292.5
 25 04 2013  12 32  -21.0674 26068.8 -03424.8 -07.4843 26292.8
 25 04 2013  12 33  -21.0672 26069.3 -03424.6 -07.4839 26293.2
 25 04 2013  12 34  -21.0671 26069.9 -03424.5 -07.4834 26293.9
 25 04 2013  12 35  -21.0656 26071.5 -03424.5 -07.4829 26295.4
 25 04 2013  12 36  -21.0635 26073.3 -03424.4 -07.4822 26297.2
 25 04 2013  12 37  -21.0631 26073.5 -03423.9 -07.4812 26297.4
 25 04 2013  12 38  -21.0636 26072.6 -03423.3 -07.4801 26296.4
 25 04 2013  12 39  -21.0639 26072.4 -03423.1 -07.4797 26296.1
 25 04 2013  12 40  -21.0645 26072.2 -03422.9 -07.4794 26295.9
 25 04 2013  12 41  -21.0643 26072.5 -03423.0 -07.4795 26296.2
 25 04 2013  12 42  -21.0638 26071.6 -03422.6 -07.4789 26295.3
 25 04 2013  12 43  -21.0634 26070.7 -03422.3 -07.4785 26294.4
 25 04 2013  12 44  -21.0638 26070.9 -03422.6 -07.4790 26294.6
 25 04 2013  12 45  -21.0642 26071.4 -03423.0 -07.4797 26295.1
 25 04 2013  12 46  -21.0645 26071.2 -03423.0 -07.4798 26295.0
 25 04 2013  12 47  -21.0650 26071.5 -03423.2 -07.4802 26295.3
 25 04 2013  12 48  -21.0657 26072.1 -03423.6 -07.4808 26295.9
 25 04 2013  12 49  -21.0655 26072.0 -03423.5 -07.4807 26295.8
 25 04 2013  12 50  -21.0656 26071.3 -03423.3 -07.4804 26295.1
 25 04 2013  12 51  -21.0651 26071.0 -03423.2 -07.4803 26294.8
 25 04 2013  12 52  -21.0651 26071.4 -03423.5 -07.4808 26295.2
 25 04 2013  12 53  -21.0652 26072.6 -03424.0 -07.4817 26296.5
 25 04 2013  12 54  -21.0652 26072.9 -03424.2 -07.4818 26296.8
 25 04 2013  12 55  -21.0650 26073.7 -03424.4 -07.4822 26297.6
 25 04 2013  12 56  -21.0654 26074.3 -03424.7 -07.4825 26298.3
 25 04 2013  12 57  -21.0653 26074.1 -03424.5 -07.4823 26298.1
 25 04 2013  12 58  -21.0651 26074.2 -03424.5 -07.4822 26298.1
 25 04 2013  12 59  -21.0654 26073.9 -03424.4 -07.4821 26297.8
 25 04 2013  13 00  -21.0655 26073.6 -03424.3 -07.4820 26297.5
 25 04 2013  13 01  -21.0655 26073.3 -03424.3 -07.4819 26297.1
 25 04 2013  13 02  -21.0653 26073.3 -03424.3 -07.4820 26297.2
 25 04 2013  13 03  -21.0657 26074.1 -03424.7 -07.4827 26298.0
 25 04 2013  13 04  -21.0668 26074.9 -03425.1 -07.4833 26298.9
 25 04 2013  13 05  -21.0677 26075.5 -03425.3 -07.4835 26299.5
 25 04 2013  13 06  -21.0683 26076.0 -03425.4 -07.4836 26300.0
 25 04 2013  13 07  -21.0686 26076.4 -03425.4 -07.4836 26300.4
 25 04 2013  13 08  -21.0691 26076.4 -03425.4 -07.4834 26300.4
 25 04 2013  13 09  -21.0695 26076.0 -03425.1 -07.4831 26300.0
 25 04 2013  13 10  -21.0698 26075.9 -03425.0 -07.4829 26299.9
 25 04 2013  13 11  -21.0702 26075.7 -03424.9 -07.4827 26299.6
 25 04 2013  13 12  -21.0703 26075.3 -03424.7 -07.4824 26299.3
 25 04 2013  13 13  -21.0709 26075.0 -03424.6 -07.4822 26298.9
 25 04 2013  13 14  -21.0713 26074.9 -03424.6 -07.4822 26298.9
 25 04 2013  13 15  -21.0716 26074.9 -03424.6 -07.4821 26298.9
 25 04 2013  13 16  -21.0720 26075.2 -03424.7 -07.4823 26299.2
 25 04 2013  13 17  -21.0721 26075.5 -03424.7 -07.4822 26299.4
 25 04 2013  13 18  -21.0718 26075.6 -03424.6 -07.4820 26299.5
 25 04 2013  13 19  -21.0716 26075.4 -03424.4 -07.4816 26299.3
 25 04 2013  13 20  -21.0722 26075.9 -03424.6 -07.4819 26299.8
 25 04 2013  13 21  -21.0725 26075.9 -03424.5 -07.4818 26299.8
 25 04 2013  13 22  -21.0727 26075.9 -03424.4 -07.4816 26299.8
 25 04 2013  13 23  -21.0731 26076.1 -03424.4 -07.4815 26300.0
 25 04 2013  13 24  -21.0735 26076.7 -03424.5 -07.4815 26300.6
 25 04 2013  13 25  -21.0740 26077.0 -03424.4 -07.4813 26300.9
 25 04 2013  13 26  -21.0747 26077.4 -03424.4 -07.4811 26301.3
 25 04 2013  13 27  -21.0752 26077.5 -03424.2 -07.4807 26301.4
 25 04 2013  13 28  -21.0760 26078.0 -03424.2 -07.4806 26301.8
 25 04 2013  13 29  -21.0767 26078.5 -03424.3 -07.4805 26302.4
 25 04 2013  13 30  -21.0768 26078.6 -03424.1 -07.4801 26302.5
 25 04 2013  13 31  -21.0766 26078.4 -03423.9 -07.4797 26302.2
 25 04 2013  13 32  -21.0762 26078.7 -03423.9 -07.4797 26302.5
 25 04 2013  13 33  -21.0763 26079.3 -03424.1 -07.4799 26303.1
 25 04 2013  13 34  -21.0770 26080.1 -03424.3 -07.4801 26303.9
 25 04 2013  13 35  -21.0773 26080.9 -03424.4 -07.4802 26304.7
 25 04 2013  13 36  -21.0771 26081.3 -03424.2 -07.4796 26305.1
 25 04 2013  13 37  -21.0768 26081.5 -03424.0 -07.4790 26305.3
 25 04 2013  13 38  -21.0766 26081.7 -03423.8 -07.4786 26305.4
 25 04 2013  13 39  -21.0762 26081.6 -03423.6 -07.4782 26305.3
 25 04 2013  13 40  -21.0758 26081.0 -03423.4 -07.4778 26304.7
 25 04 2013  13 41  -21.0756 26080.6 -03423.3 -07.4778 26304.4
 25 04 2013  13 42  -21.0754 26080.0 -03423.2 -07.4777 26303.7
 25 04 2013  13 43  -21.0754 26079.3 -03423.1 -07.4776 26303.0
 25 04 2013  13 44  -21.0753 26078.6 -03423.0 -07.4777 26302.3
 25 04 2013  13 45  -21.0750 26078.0 -03422.9 -07.4777 26301.7
 25 04 2013  13 46  -21.0753 26078.0 -03423.2 -07.4783 26301.7
 25 04 2013  13 47  -21.0758 26077.8 -03423.3 -07.4786 26301.6
 25 04 2013  13 48  -21.0761 26077.6 -03423.3 -07.4786 26301.3
 25 04 2013  13 49  -21.0762 26076.9 -03423.1 -07.4784 26300.6
 25 04 2013  13 50  -21.0768 26077.3 -03423.3 -07.4787 26301.0
 25 04 2013  13 51  -21.0774 26078.0 -03423.5 -07.4791 26301.7
 25 04 2013  13 52  -21.0775 26078.7 -03423.7 -07.4792 26302.5
 25 04 2013  13 53  -21.0774 26079.2 -03423.7 -07.4791 26302.9
 25 04 2013  13 54  -21.0774 26079.2 -03423.6 -07.4788 26302.9
 25 04 2013  13 55  -21.0774 26079.2 -03423.4 -07.4785 26302.9
 25 04 2013  13 56  -21.0775 26079.2 -03423.4 -07.4783 26303.0
 25 04 2013  13 57  -21.0776 26078.8 -03423.1 -07.4779 26302.5
 25 04 2013  13 58  -21.0769 26078.1 -03422.8 -07.4773 26301.8
 25 04 2013  13 59  -21.0764 26077.5 -03422.6 -07.4772 26301.1
 25 04 2013  14 00  -21.0764 26076.5 -03422.5 -07.4771 26300.2
 25 04 2013  14 01  -21.0761 26075.5 -03422.3 -07.4771 26299.1
 25 04 2013  14 02  -21.0757 26074.7 -03422.3 -07.4773 26298.3
 25 04 2013  14 03  -21.0754 26075.0 -03422.8 -07.4783 26298.7
 25 04 2013  14 04  -21.0756 26076.1 -03423.6 -07.4796 26299.9
 25 04 2013  14 05  -21.0753 26076.6 -03423.9 -07.4801 26300.4
 25 04 2013  14 06  -21.0750 26077.0 -03424.1 -07.4805 26300.9
 25 04 2013  14 07  -21.0748 26077.5 -03424.3 -07.4809 26301.3
 25 04 2013  14 08  -21.0742 26077.4 -03424.3 -07.4809 26301.3
 25 04 2013  14 09  -21.0735 26077.2 -03424.3 -07.4808 26301.1
 25 04 2013  14 10  -21.0726 26076.9 -03424.2 -07.4808 26300.7
 25 04 2013  14 11  -21.0723 26076.3 -03424.2 -07.4810 26300.1
 25 04 2013  14 12  -21.0719 26076.0 -03424.4 -07.4814 26299.9
 25 04 2013  14 13  -21.0721 26076.1 -03424.8 -07.4822 26300.1
 25 04 2013  14 14  -21.0717 26076.0 -03424.8 -07.4824 26300.0
 25 04 2013  14 15  -21.0715 26076.0 -03424.9 -07.4825 26300.0
 25 04 2013  14 16  -21.0716 26076.3 -03424.9 -07.4825 26300.2
 25 04 2013  14 17  -21.0712 26076.0 -03424.7 -07.4822 26300.0
 25 04 2013  14 18  -21.0705 26075.7 -03424.5 -07.4817 26299.6
 25 04 2013  14 19  -21.0701 26075.6 -03424.4 -07.4816 26299.5
 25 04 2013  14 20  -21.0701 26075.6 -03424.5 -07.4819 26299.5
 25 04 2013  14 21  -21.0707 26075.7 -03424.7 -07.4821 26299.6
 25 04 2013  14 22  -21.0705 26075.4 -03424.6 -07.4821 26299.3
 25 04 2013  14 23  -21.0708 26075.7 -03424.8 -07.4824 26299.6
 25 04 2013  14 24  -21.0715 26076.3 -03425.0 -07.4827 26300.2
 25 04 2013  14 25  -21.0712 26076.4 -03424.8 -07.4823 26300.4
 25 04 2013  14 26  -21.0710 26076.8 -03424.8 -07.4820 26300.7
 25 04 2013  14 27  -21.0706 26077.4 -03424.7 -07.4818 26301.3
 25 04 2013  14 28  -21.0706 26078.0 -03424.7 -07.4816 26301.9
 25 04 2013  14 29  -21.0704 26078.8 -03424.8 -07.4815 26302.7
 25 04 2013  14 30  -21.0703 26079.0 -03424.6 -07.4810 26302.9
 25 04 2013  14 31  -21.0694 26079.0 -03424.3 -07.4804 26302.9
 25 04 2013  14 32  -21.0683 26079.0 -03424.0 -07.4798 26302.8
 25 04 2013  14 33  -21.0674 26079.2 -03423.9 -07.4795 26303.0
 25 04 2013  14 34  -21.0667 26079.4 -03423.8 -07.4791 26303.2
 25 04 2013  14 35  -21.0659 26079.6 -03423.7 -07.4789 26303.3
 25 04 2013  14 36  -21.0653 26079.6 -03423.6 -07.4786 26303.3
 25 04 2013  14 37  -21.0654 26079.8 -03423.6 -07.4787 26303.6
 25 04 2013  14 38  -21.0653 26080.2 -03423.6 -07.4786 26303.9
 25 04 2013  14 39  -21.0647 26080.0 -03423.5 -07.4783 26303.8
 25 04 2013  14 40  -21.0641 26079.6 -03423.1 -07.4777 26303.3
 25 04 2013  14 41  -21.0635 26079.1 -03423.0 -07.4775 26302.8
 25 04 2013  14 42  -21.0628 26078.3 -03422.7 -07.4771 26302.0
 25 04 2013  14 43  -21.0624 26078.3 -03422.9 -07.4775 26302.0
 25 04 2013  14 44  -21.0623 26078.0 -03423.0 -07.4778 26301.7
 25 04 2013  14 45  -21.0619 26078.1 -03423.2 -07.4783 26301.8
 25 04 2013  14 46  -21.0618 26077.9 -03423.3 -07.4786 26301.6
 25 04 2013  14 47  -21.0612 26077.5 -03423.4 -07.4788 26301.3
 25 04 2013  14 48  -21.0604 26076.5 -03423.2 -07.4787 26300.2
 25 04 2013  14 49  -21.0595 26075.3 -03423.0 -07.4786 26299.0
 25 04 2013  14 50  -21.0589 26074.6 -03423.1 -07.4791 26298.3
 25 04 2013  14 51  -21.0586 26073.8 -03423.2 -07.4796 26297.6
 25 04 2013  14 52  -21.0583 26073.1 -03423.4 -07.4801 26296.9
 25 04 2013  14 53  -21.0579 26072.5 -03423.6 -07.4807 26296.3
 25 04 2013  14 54  -21.0578 26072.0 -03423.8 -07.4814 26295.9
 25 04 2013  14 55  -21.0573 26071.1 -03423.9 -07.4818 26295.0
 25 04 2013  14 56  -21.0568 26070.2 -03424.0 -07.4823 26294.1
 25 04 2013  14 57  -21.0566 26069.4 -03424.2 -07.4829 26293.3
 25 04 2013  14 58  -21.0566 26068.8 -03424.4 -07.4836 26292.8
 25 04 2013  14 59  -21.0563 26068.2 -03424.6 -07.4841 26292.2
 25 04 2013  15 00  -21.0562 26067.9 -03424.8 -07.4847 26292.0
 25 04 2013  15 01  -21.0561 26067.4 -03425.0 -07.4851 26291.4
 25 04 2013  15 02  -21.0561 26066.9 -03425.1 -07.4855 26290.9
 25 04 2013  15 03  -21.0561 26066.6 -03425.3 -07.4861 26290.7
 25 04 2013  15 04  -21.0561 26066.7 -03425.6 -07.4867 26290.8
 25 04 2013  15 05  -21.0561 26067.1 -03425.9 -07.4873 26291.3
 25 04 2013  15 06  -21.0563 26067.4 -03426.2 -07.4877 26291.6
 25 04 2013  15 07  -21.0562 26067.5 -03426.2 -07.4878 26291.7
 25 04 2013  15 08  -21.0561 26067.1 -03426.0 -07.4875 26291.3
 25 04 2013  15 09  -21.0558 26066.1 -03425.7 -07.4870 26290.2
 25 04 2013  15 10  -21.0553 26064.7 -03425.3 -07.4866 26288.8
 25 04 2013  15 11  -21.0547 26063.3 -03425.0 -07.4863 26287.4
 25 04 2013  15 12  -21.0541 26062.4 -03424.9 -07.4864 26286.4
 25 04 2013  15 13  -21.0545 26062.5 -03425.3 -07.4872 26286.6
 25 04 2013  15 14  -21.0548 26062.6 -03425.6 -07.4878 26286.8
 25 04 2013  15 15  -21.0542 26062.2 -03425.5 -07.4878 26286.4
 25 04 2013  15 16  -21.0534 26061.5 -03425.3 -07.4875 26285.6
 25 04 2013  15 17  -21.0532 26061.7 -03425.6 -07.4880 26285.9
 25 04 2013  15 18  -21.0529 26061.7 -03425.7 -07.4884 26285.9
 25 04 2013  15 19  -21.0525 26061.8 -03425.9 -07.4887 26286.0
 25 04 2013  15 20  -21.0523 26062.0 -03426.1 -07.4890 26286.2
 25 04 2013  15 21  -21.0521 26062.1 -03426.1 -07.4892 26286.3
 25 04 2013  15 22  -21.0518 26062.1 -03426.2 -07.4892 26286.4
 25 04 2013  15 23  -21.0511 26061.9 -03426.0 -07.4890 26286.1
 25 04 2013  15 24  -21.0504 26061.7 -03426.0 -07.4889 26285.9
 25 04 2013  15 25  -21.0497 26061.7 -03426.0 -07.4890 26285.9
 25 04 2013  15 26  -21.0490 26061.5 -03425.9 -07.4888 26285.7
 25 04 2013  15 27  -21.0484 26061.1 -03425.8 -07.4888 26285.3
 25 04 2013  15 28  -21.0475 26060.2 -03425.5 -07.4884 26284.4
 25 04 2013  15 29  -21.0467 26059.4 -03425.5 -07.4885 26283.6
 25 04 2013  15 30  -21.0461 26059.2 -03425.6 -07.4889 26283.4
 25 04 2013  15 31  -21.0458 26059.1 -03425.8 -07.4894 26283.3
 25 04 2013  15 32  -21.0455 26058.9 -03425.9 -07.4896 26283.1
 25 04 2013  15 33  -21.0455 26058.7 -03426.0 -07.4898 26283.0
 25 04 2013  15 34  -21.0455 26058.4 -03426.0 -07.4900 26282.7
 25 04 2013  15 35  -21.0455 26058.6 -03426.2 -07.4904 26282.9
 25 04 2013  15 36  -21.0460 26058.6 -03426.4 -07.4906 26282.9
 25 04 2013  15 37  -21.0463 26058.3 -03426.3 -07.4906 26282.6
 25 04 2013  15 38  -21.0463 26057.9 -03426.2 -07.4904 26282.2
 25 04 2013  15 39  -21.0464 26057.6 -03426.1 -07.4903 26281.9
 25 04 2013  15 40  -21.0462 26057.2 -03425.9 -07.4901 26281.5
 25 04 2013  15 41  -21.0456 26056.7 -03425.8 -07.4899 26281.0
 25 04 2013  15 42  -21.0452 26056.1 -03425.6 -07.4898 26280.3
 25 04 2013  15 43  -21.0450 26055.9 -03425.6 -07.4898 26280.1
 25 04 2013  15 44  -21.0454 26055.8 -03425.6 -07.4898 26280.0
 25 04 2013  15 45  -21.0451 26055.7 -03425.5 -07.4897 26279.9
 25 04 2013  15 46  -21.0454 26056.1 -03425.6 -07.4898 26280.3
 25 04 2013  15 47  -21.0458 26056.6 -03425.7 -07.4898 26280.8
 25 04 2013  15 48  -21.0455 26056.3 -03425.5 -07.4894 26280.5
 25 04 2013  15 49  -21.0452 26055.9 -03425.2 -07.4889 26280.1
 25 04 2013  15 50  -21.0452 26056.0 -03425.2 -07.4889 26280.2
 25 04 2013  15 51  -21.0447 26056.1 -03425.3 -07.4891 26280.3
 25 04 2013  15 52  -21.0441 26056.5 -03425.5 -07.4894 26280.7
 25 04 2013  15 53  -21.0441 26056.9 -03425.7 -07.4898 26281.1
 25 04 2013  15 54  -21.0445 26057.5 -03426.0 -07.4902 26281.7
 25 04 2013  15 55  -21.0456 26058.8 -03426.6 -07.4910 26283.1
 25 04 2013  15 56  -21.0466 26060.2 -03427.0 -07.4915 26284.6
 25 04 2013  15 57  -21.0475 26061.2 -03427.0 -07.4913 26285.5
 25 04 2013  15 58  -21.0480 26061.6 -03426.8 -07.4907 26285.9
 25 04 2013  15 59  -21.0477 26061.5 -03426.3 -07.4897 26285.8
 25 04 2013  16 00  -21.0456 26060.3 -03425.4 -07.4881 26284.5
 25 04 2013  16 01  -21.0432 26059.0 -03424.7 -07.4869 26283.1
 25 04 2013  16 02  -21.0413 26057.6 -03424.2 -07.4862 26281.6
 25 04 2013  16 03  -21.0398 26056.9 -03424.1 -07.4863 26280.9
 25 04 2013  16 04  -21.0386 26056.3 -03424.1 -07.4864 26280.4
 25 04 2013  16 05  -21.0379 26055.9 -03424.2 -07.4867 26280.0
 25 04 2013  16 06  -21.0372 26055.5 -03424.2 -07.4869 26279.5
 25 04 2013  16 07  -21.0364 26054.9 -03424.3 -07.4872 26279.0
 25 04 2013  16 08  -21.0358 26054.4 -03424.4 -07.4876 26278.5
 25 04 2013  16 09  -21.0360 26054.5 -03424.7 -07.4883 26278.6
 25 04 2013  16 10  -21.0363 26054.6 -03425.1 -07.4889 26278.8
 25 04 2013  16 11  -21.0367 26055.1 -03425.4 -07.4895 26279.3
 25 04 2013  16 12  -21.0369 26055.2 -03425.5 -07.4896 26279.4
 25 04 2013  16 13  -21.0362 26054.6 -03425.2 -07.4892 26278.8
 25 04 2013  16 14  -21.0361 26054.6 -03425.2 -07.4894 26278.8
 25 04 2013  16 15  -21.0361 26054.5 -03425.3 -07.4895 26278.7
 25 04 2013  16 16  -21.0362 26054.7 -03425.4 -07.4897 26278.9
 25 04 2013  16 17  -21.0363 26054.5 -03425.4 -07.4896 26278.7
 25 04 2013  16 18  -21.0359 26054.1 -03425.2 -07.4893 26278.3
 25 04 2013  16 19  -21.0354 26053.3 -03424.9 -07.4889 26277.5
 25 04 2013  16 20  -21.0353 26053.0 -03424.9 -07.4890 26277.2
 25 04 2013  16 21  -21.0348 26052.6 -03424.8 -07.4890 26276.8
 25 04 2013  16 22  -21.0348 26052.6 -03424.9 -07.4892 26276.8
 25 04 2013  16 23  -21.0349 26052.4 -03424.9 -07.4893 26276.6
 25 04 2013  16 24  -21.0342 26051.7 -03424.6 -07.4889 26275.8
 25 04 2013  16 25  -21.0337 26051.3 -03424.6 -07.4890 26275.4
 25 04 2013  16 26  -21.0336 26050.5 -03424.5 -07.4888 26274.6
 25 04 2013  16 27  -21.0338 26049.7 -03424.3 -07.4888 26273.8
 25 04 2013  16 28  -21.0341 26049.0 -03424.3 -07.4889 26273.1
 25 04 2013  16 29  -21.0343 26048.5 -03424.3 -07.4890 26272.6
 25 04 2013  16 30  -21.0347 26048.0 -03424.3 -07.4891 26272.1
 25 04 2013  16 31  -21.0349 26047.8 -03424.4 -07.4894 26271.9
 25 04 2013  16 32  -21.0352 26047.5 -03424.4 -07.4896 26271.6
 25 04 2013  16 33  -21.0354 26047.3 -03424.4 -07.4897 26271.4
 25 04 2013  16 34  -21.0358 26047.0 -03424.5 -07.4899 26271.2
 25 04 2013  16 35  -21.0359 26046.5 -03424.4 -07.4898 26270.7
 25 04 2013  16 36  -21.0360 26046.4 -03424.4 -07.4899 26270.6
 25 04 2013  16 37  -21.0358 26045.9 -03424.3 -07.4898 26270.1
 25 04 2013  16 38  -21.0356 26045.6 -03424.3 -07.4899 26269.8
 25 04 2013  16 39  -21.0351 26045.4 -03424.3 -07.4900 26269.6
 25 04 2013  16 40  -21.0352 26045.0 -03424.3 -07.4901 26269.1
 25 04 2013  16 41  -21.0352 26044.7 -03424.4 -07.4903 26268.9
 25 04 2013  16 42  -21.0354 26044.8 -03424.5 -07.4906 26268.9
 25 04 2013  16 43  -21.0352 26044.2 -03424.4 -07.4906 26268.3
 25 04 2013  16 44  -21.0352 26043.6 -03424.4 -07.4906 26267.7
 25 04 2013  16 45  -21.0358 26043.2 -03424.5 -07.4909 26267.4
 25 04 2013  16 46  -21.0362 26043.0 -03424.5 -07.4911 26267.2
 25 04 2013  16 47  -21.0361 26042.7 -03424.6 -07.4913 26266.9
 25 04 2013  16 48  -21.0360 26041.9 -03424.4 -07.4912 26266.1
 25 04 2013  16 49  -21.0358 26041.2 -03424.4 -07.4914 26265.4
 25 04 2013  16 50  -21.0363 26041.1 -03424.7 -07.4919 26265.3
 25 04 2013  16 51  -21.0372 26041.2 -03424.9 -07.4925 26265.4
 25 04 2013  16 52  -21.0387 26041.8 -03425.4 -07.4934 26266.1
 25 04 2013  16 53  -21.0395 26041.8 -03425.4 -07.4934 26266.1
 25 04 2013  16 54  -21.0395 26041.5 -03425.3 -07.4932 26265.8
 25 04 2013  16 55  -21.0393 26040.8 -03425.0 -07.4929 26265.0
 25 04 2013  16 56  -21.0393 26039.9 -03424.8 -07.4927 26264.1
 25 04 2013  16 57  -21.0390 26038.7 -03424.6 -07.4924 26262.9
 25 04 2013  16 58  -21.0385 26037.5 -03424.4 -07.4924 26261.7
 25 04 2013  16 59  -21.0381 26036.5 -03424.4 -07.4926 26260.8
 25 04 2013  17 00  -21.0382 26035.8 -03424.5 -07.4931 26260.0
 25 04 2013  17 01  -21.0390 26035.5 -03424.8 -07.4938 26259.8
 25 04 2013  17 02  -21.0396 26035.6 -03425.2 -07.4946 26259.9
 25 04 2013  17 03  -21.0404 26035.7 -03425.5 -07.4952 26260.0
 25 04 2013  17 04  -21.0414 26035.9 -03425.8 -07.4959 26260.3
 25 04 2013  17 05  -21.0424 26035.9 -03426.0 -07.4963 26260.3
 25 04 2013  17 06  -21.0434 26035.7 -03426.1 -07.4967 26260.2
 25 04 2013  17 07  -21.0446 26035.8 -03426.4 -07.4971 26260.2
 25 04 2013  17 08  -21.0447 26035.2 -03426.3 -07.4971 26259.7
 25 04 2013  17 09  -21.0445 26034.1 -03425.9 -07.4967 26258.6
 25 04 2013  17 10  -21.0439 26033.2 -03425.7 -07.4965 26257.6
 25 04 2013  17 11  -21.0432 26032.1 -03425.5 -07.4963 26256.5
 25 04 2013  17 12  -21.0423 26031.1 -03425.4 -07.4963 26255.5
 25 04 2013  17 13  -21.0414 26030.3 -03425.4 -07.4965 26254.7
 25 04 2013  17 14  -21.0416 26029.8 -03425.5 -07.4970 26254.2
 25 04 2013  17 15  -21.0421 26029.3 -03425.7 -07.4975 26253.7
 25 04 2013  17 16  -21.0432 26029.0 -03425.9 -07.4980 26253.5
 25 04 2013  17 17  -21.0441 26029.1 -03426.1 -07.4986 26253.7
 25 04 2013  17 18  -21.0449 26028.9 -03426.2 -07.4987 26253.5
 25 04 2013  17 19  -21.0445 26028.3 -03426.1 -07.4987 26252.8
 25 04 2013  17 20  -21.0435 26027.0 -03425.8 -07.4984 26251.5
 25 04 2013  17 21  -21.0426 26025.4 -03425.6 -07.4985 26249.9
 25 04 2013  17 22  -21.0418 26023.6 -03425.6 -07.4989 26248.1
 25 04 2013  17 23  -21.0416 26022.3 -03425.8 -07.4997 26246.9
 25 04 2013  17 24  -21.0416 26021.4 -03426.0 -07.5006 26246.0
 25 04 2013  17 25  -21.0413 26021.1 -03426.5 -07.5016 26245.7
 25 04 2013  17 26  -21.0402 26020.4 -03426.6 -07.5020 26245.1
 25 04 2013  17 27  -21.0395 26019.7 -03426.7 -07.5025 26244.3
 25 04 2013  17 28  -21.0394 26018.9 -03426.9 -07.5031 26243.6
 25 04 2013  17 29  -21.0400 26018.7 -03427.4 -07.5043 26243.5
 25 04 2013  17 30  -21.0413 26018.7 -03428.0 -07.5055 26243.5
 25 04 2013  17 31  -21.0430 26018.8 -03428.5 -07.5067 26243.7
 25 04 2013  17 32  -21.0441 26019.0 -03429.0 -07.5075 26244.0
 25 04 2013  17 33  -21.0445 26019.0 -03429.2 -07.5081 26244.0
 25 04 2013  17 34  -21.0443 26018.7 -03429.3 -07.5083 26243.7
 25 04 2013  17 35  -21.0443 26018.2 -03429.3 -07.5085 26243.3
 25 04 2013  17 36  -21.0442 26017.8 -03429.3 -07.5087 26242.8
 25 04 2013  17 37  -21.0442 26017.6 -03429.5 -07.5091 26242.6
 25 04 2013  17 38  -21.0442 26017.5 -03429.6 -07.5094 26242.5
 25 04 2013  17 39  -21.0441 26017.3 -03429.7 -07.5095 26242.4
 25 04 2013  17 40  -21.0440 26017.0 -03429.7 -07.5097 26242.1
 25 04 2013  17 41  -21.0442 26016.6 -03429.7 -07.5098 26241.7
 25 04 2013  17 42  -21.0447 26016.3 -03429.7 -07.5100 26241.4
 25 04 2013  17 43  -21.0448 26016.1 -03429.8 -07.5101 26241.2
 25 04 2013  17 44  -21.0446 26016.0 -03429.8 -07.5102 26241.1
 25 04 2013  17 45  -21.0441 26015.4 -03429.7 -07.5101 26240.5
 25 04 2013  17 46  -21.0441 26014.9 -03429.6 -07.5101 26240.0
 25 04 2013  17 47  -21.0452 26015.5 -03430.0 -07.5108 26240.6
 25 04 2013  17 48  -21.0461 26015.8 -03430.1 -07.5109 26240.9
 25 04 2013  17 49  -21.0461 26015.6 -03429.8 -07.5104 26240.7
 25 04 2013  17 50  -21.0458 26015.2 -03429.6 -07.5099 26240.2
 25 04 2013  17 51  -21.0455 26014.7 -03429.4 -07.5097 26239.8
 25 04 2013  17 52  -21.0453 26013.9 -03429.1 -07.5093 26238.9
 25 04 2013  17 53  -21.0451 26013.5 -03429.0 -07.5092 26238.6
 25 04 2013  17 54  -21.0456 26013.8 -03429.2 -07.5095 26238.8
 25 04 2013  17 55  -21.0455 26013.8 -03429.2 -07.5095 26238.9
 25 04 2013  17 56  -21.0455 26013.8 -03429.1 -07.5093 26238.8
 25 04 2013  17 57  -21.0451 26013.2 -03428.8 -07.5089 26238.2
 25 04 2013  17 58  -21.0444 26012.7 -03428.6 -07.5085 26237.7
 25 04 2013  17 59  -21.0447 26012.7 -03428.7 -07.5087 26237.7
 25 04 2013  18 00  -21.0447 26012.6 -03428.6 -07.5087 26237.5
 25 04 2013  18 01  -21.0443 26011.9 -03428.4 -07.5083 26236.8
 25 04 2013  18 02  -21.0444 26011.4 -03428.3 -07.5084 26236.4
 25 04 2013  18 03  -21.0449 26011.4 -03428.5 -07.5087 26236.4
 25 04 2013  18 04  -21.0460 26012.0 -03428.8 -07.5093 26237.0
 25 04 2013  18 05  -21.0468 26012.4 -03429.0 -07.5096 26237.4
 25 04 2013  18 06  -21.0476 26012.6 -03429.1 -07.5096 26237.7
 25 04 2013  18 07  -21.0480 26012.7 -03429.0 -07.5095 26237.8
 25 04 2013  18 08  -21.0483 26013.0 -03429.1 -07.5095 26238.0
 25 04 2013  18 09  -21.0486 26012.9 -03429.0 -07.5095 26237.9
 25 04 2013  18 10  -21.0485 26012.2 -03428.8 -07.5092 26237.2
 25 04 2013  18 11  -21.0480 26011.6 -03428.7 -07.5091 26236.6
 25 04 2013  18 12  -21.0486 26010.9 -03428.7 -07.5093 26235.9
 25 04 2013  18 13  -21.0488 26010.4 -03428.7 -07.5094 26235.4
 25 04 2013  18 14  -21.0499 26011.1 -03429.0 -07.5099 26236.1
 25 04 2013  18 15  -21.0507 26011.8 -03429.3 -07.5102 26236.8
 25 04 2013  18 16  -21.0503 26011.9 -03429.2 -07.5100 26237.0
 25 04 2013  18 17  -21.0507 26012.6 -03429.3 -07.5102 26237.7
 25 04 2013  18 18  -21.0517 26013.3 -03429.6 -07.5105 26238.4
 25 04 2013  18 19  -21.0521 26013.4 -03429.4 -07.5102 26238.5
 25 04 2013  18 20  -21.0531 26013.7 -03429.5 -07.5102 26238.8
 25 04 2013  18 21  -21.0533 26013.0 -03429.1 -07.5095 26238.0
 25 04 2013  18 22  -21.0532 26012.3 -03428.8 -07.5091 26237.3
 25 04 2013  18 23  -21.0535 26012.0 -03428.8 -07.5092 26237.0
 25 04 2013  18 24  -21.0537 26012.0 -03428.9 -07.5095 26237.0
 25 04 2013  18 25  -21.0541 26012.1 -03429.1 -07.5099 26237.1
 25 04 2013  18 26  -21.0546 26012.3 -03429.4 -07.5104 26237.4
 25 04 2013  18 27  -21.0576 26012.4 -03429.5 -07.5106 26237.5
 25 04 2013  18 28  -21.0589 26012.2 -03429.5 -07.5105 26237.3
 25 04 2013  18 29  -21.0596 26012.1 -03429.6 -07.5108 26237.2
 25 04 2013  18 30  -21.0590 26011.6 -03429.4 -07.5107 26236.7
 25 04 2013  18 31  -21.0587 26011.2 -03429.5 -07.5109 26236.3
 25 04 2013  18 32  -21.0577 26010.3 -03429.3 -07.5107 26235.4
 25 04 2013  18 33  -21.0568 26009.2 -03429.1 -07.5106 26234.2
 25 04 2013  18 34  -21.0559 26008.1 -03428.9 -07.5105 26233.1
 25 04 2013  18 35  -21.0552 26007.4 -03428.9 -07.5107 26232.4
 25 04 2013  18 36  -21.0545 26007.2 -03429.1 -07.5112 26232.3
 25 04 2013  18 37  -21.0539 26006.9 -03429.2 -07.5116 26232.1
 25 04 2013  18 38  -21.0531 26006.5 -03429.2 -07.5117 26231.6
 25 04 2013  18 39  -21.0528 26006.3 -03429.3 -07.5120 26231.4
 25 04 2013  18 40  -21.0528 26006.2 -03429.5 -07.5124 26231.3
 25 04 2013  18 41  -21.0529 26006.2 -03429.7 -07.5128 26231.4
 25 04 2013  18 42  -21.0523 26006.2 -03429.8 -07.5131 26231.4
 25 04 2013  18 43  -21.0522 26006.0 -03429.9 -07.5133 26231.2
 25 04 2013  18 44  -21.0522 26005.9 -03430.0 -07.5135 26231.1
 25 04 2013  18 45  -21.0521 26005.5 -03430.0 -07.5136 26230.7
 25 04 2013  18 46  -21.0522 26005.5 -03430.1 -07.5139 26230.7
 25 04 2013  18 47  -21.0522 26005.4 -03430.3 -07.5143 26230.7
 25 04 2013  18 48  -21.0525 26005.3 -03430.4 -07.5145 26230.6
 25 04 2013  18 49  -21.0501 26005.7 -03430.7 -07.5152 26231.0
 25 04 2013  18 50  -21.0491 26005.8 -03431.0 -07.5157 26231.2
 25 04 2013  18 51  -21.0491 26005.7 -03431.0 -07.5158 26231.1
 25 04 2013  18 52  -21.0494 26005.9 -03431.2 -07.5163 26231.2
 25 04 2013  18 53  -21.0497 26006.1 -03431.5 -07.5167 26231.5
 25 04 2013  18 54  -21.0494 26005.9 -03431.5 -07.5168 26231.3
 25 04 2013  18 55  -21.0495 26005.7 -03431.4 -07.5167 26231.1
 25 04 2013  18 56  -21.0490 26005.0 -03431.2 -07.5164 26230.4
 25 04 2013  18 57  -21.0486 26004.6 -03431.1 -07.5163 26230.0
 25 04 2013  18 58  -21.0480 26004.2 -03431.0 -07.5162 26229.5
 25 04 2013  18 59  -21.0477 26004.1 -03431.1 -07.5164 26229.5
 25 04 2013  19 00  -21.0474 26004.0 -03431.2 -07.5167 26229.4
 25 04 2013  19 01  -21.0474 26004.2 -03431.4 -07.5170 26229.6
 25 04 2013  19 02  -21.0475 26004.3 -03431.5 -07.5173 26229.8
 25 04 2013  19 03  -21.0471 26004.3 -03431.5 -07.5173 26229.7
 25 04 2013  19 04  -21.0468 26004.3 -03431.6 -07.5175 26229.8
 25 04 2013  19 05  -21.0468 26004.8 -03432.0 -07.5181 26230.3
 25 04 2013  19 06  -21.0468 26005.0 -03432.1 -07.5184 26230.5
 25 04 2013  19 07  -21.0465 26005.0 -03432.2 -07.5186 26230.5
 25 04 2013  19 08  -21.0468 26005.5 -03432.4 -07.5188 26231.0
 25 04 2013  19 09  -21.0468 26005.9 -03432.6 -07.5191 26231.4
 25 04 2013  19 10  -21.0464 26005.7 -03432.5 -07.5190 26231.2
 25 04 2013  19 11  -21.0459 26005.3 -03432.4 -07.5189 26230.8
 25 04 2013  19 12  -21.0459 26005.1 -03432.4 -07.5191 26230.7
 25 04 2013  19 13  -21.0462 26005.2 -03432.6 -07.5193 26230.8
 25 04 2013  19 14  -21.0465 26005.2 -03432.6 -07.5195 26230.7
 25 04 2013  19 15  -21.0470 26005.1 -03432.7 -07.5196 26230.7
 25 04 2013  19 16  -21.0472 26004.9 -03432.6 -07.5194 26230.5
 25 04 2013  19 17  -21.0470 26004.6 -03432.4 -07.5192 26230.1
 25 04 2013  19 18  -21.0468 26004.3 -03432.3 -07.5191 26229.8
 25 04 2013  19 19  -21.0470 26004.0 -03432.3 -07.5190 26229.5
 25 04 2013  19 20  -21.0470 26003.9 -03432.2 -07.5190 26229.4
 25 04 2013  19 21  -21.0467 26003.6 -03432.1 -07.5187 26229.1
 25 04 2013  19 22  -21.0476 26003.0 -03431.8 -07.5182 26228.4
 25 04 2013  19 23  -21.0483 26002.3 -03431.5 -07.5178 26227.8
 25 04 2013  19 24  -21.0482 26002.4 -03431.6 -07.5180 26227.8
 25 04 2013  19 25  -21.0481 26002.3 -03431.5 -07.5179 26227.7
 25 04 2013  19 26  -21.0478 26002.2 -03431.5 -07.5178 26227.6
 25 04 2013  19 27  -21.0474 26002.2 -03431.4 -07.5177 26227.6
 25 04 2013  19 28  -21.0470 26002.2 -03431.4 -07.5176 26227.7
 25 04 2013  19 29  -21.0468 26002.2 -03431.4 -07.5176 26227.7
 25 04 2013  19 30  -21.0460 26002.2 -03431.3 -07.5175 26227.6
 25 04 2013  19 31  -21.0438 26002.7 -03431.7 -07.5181 26228.2
 25 04 2013  19 32  -21.0436 26002.8 -03431.7 -07.5180 26228.2
 25 04 2013  19 33  -21.0436 26003.0 -03431.8 -07.5182 26228.5
 25 04 2013  19 34  -21.0432 26003.0 -03431.8 -07.5182 26228.5
 25 04 2013  19 35  -21.0427 26003.0 -03431.7 -07.5181 26228.5
 25 04 2013  19 36  -21.0423 26003.1 -03431.7 -07.5181 26228.5
 25 04 2013  19 37  -21.0421 26003.2 -03431.8 -07.5182 26228.7
 25 04 2013  19 38  -21.0417 26003.4 -03431.9 -07.5185 26228.9
 25 04 2013  19 39  -21.0412 26003.7 -03432.1 -07.5188 26229.3
 25 04 2013  19 40  -21.0406 26003.8 -03432.2 -07.5189 26229.3
 25 04 2013  19 41  -21.0399 26003.7 -03432.2 -07.5189 26229.3
 25 04 2013  19 42  -21.0389 26003.5 -03432.2 -07.5190 26229.0
 25 04 2013  19 43  -21.0378 26003.4 -03432.2 -07.5191 26228.9
 25 04 2013  19 44  -21.0367 26003.2 -03432.2 -07.5191 26228.7
 25 04 2013  19 45  -21.0357 26002.9 -03432.2 -07.5192 26228.5
 25 04 2013  19 46  -21.0347 26002.7 -03432.2 -07.5193 26228.2
 25 04 2013  19 47  -21.0338 26002.7 -03432.4 -07.5196 26228.3
 25 04 2013  19 48  -21.0331 26002.8 -03432.5 -07.5199 26228.3
 25 04 2013  19 49  -21.0323 26002.5 -03432.5 -07.5199 26228.0
 25 04 2013  19 50  -21.0316 26002.2 -03432.5 -07.5200 26227.7
 25 04 2013  19 51  -21.0308 26002.0 -03432.5 -07.5200 26227.5
 25 04 2013  19 52  -21.0301 26001.9 -03432.5 -07.5202 26227.5
 25 04 2013  19 53  -21.0296 26001.7 -03432.6 -07.5204 26227.3
 25 04 2013  19 54  -21.0290 26001.5 -03432.7 -07.5206 26227.1
 25 04 2013  19 55  -21.0283 26001.4 -03432.7 -07.5208 26227.0
 25 04 2013  19 56  -21.0279 26001.5 -03432.9 -07.5211 26227.2
 25 04 2013  19 57  -21.0277 26001.9 -03433.2 -07.5215 26227.5
 25 04 2013  19 58  -21.0275 26002.2 -03433.3 -07.5218 26227.9
 25 04 2013  19 59  -21.0275 26002.5 -03433.4 -07.5220 26228.2
 25 04 2013  20 00  -21.0273 26002.7 -03433.5 -07.5221 26228.4
 25 04 2013  20 01  -21.0272 26002.8 -03433.5 -07.5220 26228.5
 25 04 2013  20 02  -21.0271 26003.0 -03433.5 -07.5220 26228.7
 25 04 2013  20 03  -21.0269 26003.2 -03433.6 -07.5220 26228.9
 25 04 2013  20 04  -21.0268 26003.4 -03433.6 -07.5220 26229.1
 25 04 2013  20 05  -21.0268 26003.6 -03433.6 -07.5221 26229.3
 25 04 2013  20 06  -21.0268 26004.0 -03433.8 -07.5222 26229.7
 25 04 2013  20 07  -21.0267 26004.3 -03433.8 -07.5221 26230.0
 25 04 2013  20 08  -21.0269 26004.6 -03433.8 -07.5221 26230.3
 25 04 2013  20 09  -21.0270 26005.0 -03433.9 -07.5222 26230.7
 25 04 2013  20 10  -21.0270 26005.3 -03433.9 -07.5222 26231.1
 25 04 2013  20 11  -21.0271 26005.7 -03434.0 -07.5222 26231.5
 25 04 2013  20 12  -21.0273 26006.2 -03434.1 -07.5222 26232.0
 25 04 2013  20 13  -21.0274 26006.6 -03434.1 -07.5222 26232.4
 25 04 2013  20 14  -21.0273 26006.7 -03434.0 -07.5220 26232.5
 25 04 2013  20 15  -21.0273 26006.9 -03433.9 -07.5217 26232.7
 25 04 2013  20 16  -21.0274 26007.0 -03433.8 -07.5215 26232.7
 25 04 2013  20 17  -21.0274 26007.2 -03433.8 -07.5213 26232.9
 25 04 2013  20 18  -21.0277 26007.4 -03433.7 -07.5212 26233.1
 25 04 2013  20 19  -21.0280 26007.7 -03433.7 -07.5211 26233.4
 25 04 2013  20 20  -21.0283 26008.0 -03433.7 -07.5210 26233.7
 25 04 2013  20 21  -21.0287 26008.4 -03433.8 -07.5210 26234.0
 25 04 2013  20 22  -21.0289 26008.6 -03433.7 -07.5209 26234.3
 25 04 2013  20 23  -21.0292 26008.8 -03433.7 -07.5206 26234.5
 25 04 2013  20 24  -21.0294 26009.1 -03433.7 -07.5205 26234.8
 25 04 2013  20 25  -21.0295 26009.4 -03433.6 -07.5204 26235.1
 25 04 2013  20 26  -21.0297 26009.7 -03433.7 -07.5204 26235.4
 25 04 2013  20 27  -21.0300 26010.0 -03433.6 -07.5203 26235.7
 25 04 2013  20 28  -21.0303 26010.4 -03433.7 -07.5202 26236.0
 25 04 2013  20 29  -21.0304 26010.5 -03433.6 -07.5200 26236.2
 25 04 2013  20 30  -21.0303 26010.6 -03433.5 -07.5197 26236.3
 25 04 2013  20 31  -21.0305 26011.0 -03433.5 -07.5196 26236.6
 25 04 2013  20 32  -21.0306 26011.4 -03433.5 -07.5196 26237.1
 25 04 2013  20 33  -21.0310 26011.7 -03433.6 -07.5196 26237.4
 25 04 2013  20 34  -21.0312 26011.7 -03433.4 -07.5192 26237.3
 25 04 2013  20 35  -21.0313 26011.5 -03433.2 -07.5189 26237.1
 25 04 2013  20 36  -21.0313 26011.6 -03433.1 -07.5186 26237.2
 25 04 2013  20 37  -21.0312 26011.7 -03433.1 -07.5185 26237.3
 25 04 2013  20 38  -21.0311 26011.7 -03433.0 -07.5183 26237.3
 25 04 2013  20 39  -21.0312 26011.9 -03432.9 -07.5181 26237.4
 25 04 2013  20 40  -21.0315 26012.3 -03433.0 -07.5182 26237.8
 25 04 2013  20 41  -21.0320 26012.6 -03433.1 -07.5183 26238.2
 25 04 2013  20 42  -21.0327 26012.9 -03433.1 -07.5183 26238.5
 25 04 2013  20 43  -21.0334 26013.1 -03433.1 -07.5181 26238.6
 25 04 2013  20 44  -21.0338 26013.2 -03433.0 -07.5179 26238.7
 25 04 2013  20 45  -21.0343 26013.5 -03433.0 -07.5179 26239.0
 25 04 2013  20 46  -21.0347 26013.6 -03433.0 -07.5177 26239.1
 25 04 2013  20 47  -21.0351 26013.7 -03432.9 -07.5175 26239.2
 25 04 2013  20 48  -21.0354 26013.8 -03432.8 -07.5174 26239.3
 25 04 2013  20 49  -21.0356 26014.0 -03432.8 -07.5172 26239.5
 25 04 2013  20 50  -21.0359 26013.9 -03432.6 -07.5169 26239.4
 25 04 2013  20 51  -21.0361 26013.8 -03432.4 -07.5166 26239.2
 25 04 2013  20 52  -21.0362 26013.6 -03432.2 -07.5162 26239.0
 25 04 2013  20 53  -21.0364 26013.6 -03432.2 -07.5161 26239.0
 25 04 2013  20 54  -21.0366 26013.5 -03432.1 -07.5160 26239.0
 25 04 2013  20 55  -21.0368 26013.5 -03432.0 -07.5157 26238.9
 25 04 2013  20 56  -21.0368 26013.4 -03432.0 -07.5157 26238.8
 25 04 2013  20 57  -21.0369 26013.2 -03431.9 -07.5156 26238.6
 25 04 2013  20 58  -21.0370 26013.1 -03431.8 -07.5155 26238.5
 25 04 2013  20 59  -21.0371 26013.1 -03431.8 -07.5154 26238.5
 25 04 2013  21 00  -21.0372 26013.1 -03431.8 -07.5154 26238.5
 25 04 2013  21 01  -21.0374 26013.1 -03431.8 -07.5154 26238.5
 25 04 2013  21 02  -21.0377 26013.2 -03431.9 -07.5155 26238.6
 25 04 2013  21 03  -21.0380 26013.4 -03432.0 -07.5157 26238.8
 25 04 2013  21 04  -21.0383 26013.7 -03432.0 -07.5157 26239.1
 25 04 2013  21 05  -21.0386 26013.8 -03432.1 -07.5159 26239.3
 25 04 2013  21 06  -21.0389 26013.9 -03432.2 -07.5159 26239.3
 25 04 2013  21 07  -21.0392 26013.9 -03432.1 -07.5159 26239.4
 25 04 2013  21 08  -21.0395 26014.2 -03432.2 -07.5160 26239.6
 25 04 2013  21 09  -21.0398 26014.6 -03432.4 -07.5162 26240.0
 25 04 2013  21 10  -21.0400 26015.0 -03432.5 -07.5164 26240.5
 25 04 2013  21 11  -21.0404 26015.5 -03432.7 -07.5166 26241.0
 25 04 2013  21 12  -21.0406 26015.8 -03432.8 -07.5167 26241.3
 25 04 2013  21 13  -21.0409 26016.1 -03432.8 -07.5167 26241.6
 25 04 2013  21 14  -21.0413 26016.2 -03432.8 -07.5166 26241.7
 25 04 2013  21 15  -21.0417 26016.3 -03432.7 -07.5165 26241.8
 25 04 2013  21 16  -21.0422 26016.3 -03432.7 -07.5164 26241.8
 25 04 2013  21 17  -21.0426 26016.3 -03432.6 -07.5162 26241.8
 25 04 2013  21 18  -21.0429 26016.3 -03432.5 -07.5160 26241.8
 25 04 2013  21 19  -21.0433 26016.5 -03432.5 -07.5159 26241.9
 25 04 2013  21 20  -21.0437 26016.5 -03432.4 -07.5158 26242.0
 25 04 2013  21 21  -21.0442 26016.5 -03432.3 -07.5156 26242.0
 25 04 2013  21 22  -21.0445 26016.6 -03432.3 -07.5154 26242.1
 25 04 2013  21 23  -21.0449 26016.7 -03432.2 -07.5153 26242.1
 25 04 2013  21 24  -21.0450 26016.8 -03432.2 -07.5152 26242.2
 25 04 2013  21 25  -21.0454 26016.9 -03432.1 -07.5149 26242.3
 25 04 2013  21 26  -21.0456 26017.1 -03432.1 -07.5148 26242.5
 25 04 2013  21 27  -21.0459 26017.3 -03432.1 -07.5149 26242.7
 25 04 2013  21 28  -21.0461 26017.5 -03432.2 -07.5149 26242.9
 25 04 2013  21 29  -21.0463 26017.8 -03432.2 -07.5149 26243.2
 25 04 2013  21 30  -21.0464 26018.1 -03432.3 -07.5150 26243.5
 25 04 2013  21 31  -21.0466 26018.3 -03432.3 -07.5149 26243.7
 25 04 2013  21 32  -21.0469 26018.5 -03432.2 -07.5148 26243.9
 25 04 2013  21 33  -21.0472 26018.7 -03432.3 -07.5148 26244.1
 25 04 2013  21 34  -21.0474 26018.8 -03432.2 -07.5146 26244.2
 25 04 2013  21 35  -21.0478 26018.9 -03432.2 -07.5145 26244.3
 25 04 2013  21 36  -21.0482 26019.0 -03432.1 -07.5143 26244.4
 25 04 2013  21 37  -21.0486 26019.1 -03432.0 -07.5141 26244.5
 25 04 2013  21 38  -21.0490 26019.2 -03431.9 -07.5138 26244.6
 25 04 2013  21 39  -21.0493 26019.2 -03431.9 -07.5137 26244.6
 25 04 2013  21 40  -21.0494 26019.3 -03431.8 -07.5136 26244.6
 25 04 2013  21 41  -21.0495 26019.3 -03431.7 -07.5134 26244.6
 25 04 2013  21 42  -21.0497 26019.3 -03431.6 -07.5131 26244.6
 25 04 2013  21 43  -21.0499 26019.3 -03431.5 -07.5130 26244.6
 25 04 2013  21 44  -21.0500 26019.4 -03431.5 -07.5129 26244.7
 25 04 2013  21 45  -21.0500 26019.6 -03431.5 -07.5129 26244.9
 25 04 2013  21 46  -21.0501 26019.8 -03431.5 -07.5129 26245.1
 25 04 2013  21 47  -21.0503 26020.1 -03431.6 -07.5130 26245.4
 25 04 2013  21 48  -21.0506 26020.4 -03431.7 -07.5130 26245.7
 25 04 2013  21 49  -21.0510 26020.7 -03431.8 -07.5131 26246.0
 25 04 2013  21 50  -21.0514 26020.8 -03431.7 -07.5130 26246.2
 25 04 2013  21 51  -21.0517 26021.0 -03431.7 -07.5130 26246.3
 25 04 2013  21 52  -21.0520 26021.1 -03431.7 -07.5129 26246.4
 25 04 2013  21 53  -21.0521 26021.2 -03431.7 -07.5127 26246.5
 25 04 2013  21 54  -21.0523 26021.5 -03431.7 -07.5127 26246.9
 25 04 2013  21 55  -21.0525 26022.0 -03431.8 -07.5129 26247.3
 25 04 2013  21 56  -21.0526 26022.3 -03431.9 -07.5130 26247.6
 25 04 2013  21 57  -21.0529 26022.5 -03432.0 -07.5130 26247.9
 25 04 2013  21 58  -21.0531 26022.5 -03431.8 -07.5128 26247.9
 25 04 2013  21 59  -21.0533 26022.7 -03431.8 -07.5126 26248.0
 25 04 2013  22 00  -21.0535 26022.8 -03431.7 -07.5125 26248.1
 25 04 2013  22 01  -21.0537 26023.0 -03431.7 -07.5123 26248.3
 25 04 2013  22 02  -21.0537 26023.1 -03431.6 -07.5122 26248.4
 25 04 2013  22 03  -21.0539 26023.0 -03431.5 -07.5119 26248.3
 25 04 2013  22 04  -21.0540 26023.2 -03431.5 -07.5119 26248.4
 25 04 2013  22 05  -21.0541 26023.2 -03431.5 -07.5118 26248.5
 25 04 2013  22 06  -21.0541 26023.2 -03431.4 -07.5116 26248.4
 25 04 2013  22 07  -21.0542 26023.2 -03431.3 -07.5114 26248.4
 25 04 2013  22 08  -21.0544 26023.1 -03431.2 -07.5113 26248.3
 25 04 2013  22 09  -21.0545 26023.0 -03431.1 -07.5111 26248.2
 25 04 2013  22 10  -21.0546 26023.0 -03431.0 -07.5109 26248.2
 25 04 2013  22 11  -21.0548 26022.9 -03431.0 -07.5108 26248.1
 25 04 2013  22 12  -21.0549 26022.9 -03430.9 -07.5107 26248.1
 25 04 2013  22 13  -21.0550 26022.9 -03430.9 -07.5106 26248.1
 25 04 2013  22 14  -21.0549 26023.0 -03430.9 -07.5106 26248.2
 25 04 2013  22 15  -21.0548 26023.0 -03430.8 -07.5105 26248.2
 25 04 2013  22 16  -21.0550 26023.0 -03430.8 -07.5104 26248.2
 25 04 2013  22 17  -21.0553 26022.5 -03430.6 -07.5101 26247.7
 25 04 2013  22 18  -21.0560 26021.9 -03430.3 -07.5095 26247.0
 25 04 2013  22 19  -21.0567 26021.5 -03430.0 -07.5091 26246.6
 25 04 2013  22 20  -21.0570 26021.2 -03429.9 -07.5089 26246.3
 25 04 2013  22 21  -21.0572 26021.0 -03429.7 -07.5086 26246.1
 25 04 2013  22 22  -21.0570 26021.1 -03429.7 -07.5085 26246.1
 25 04 2013  22 23  -21.0569 26021.3 -03429.8 -07.5088 26246.4
 25 04 2013  22 24  -21.0568 26021.3 -03429.9 -07.5088 26246.4
 25 04 2013  22 25  -21.0568 26021.8 -03430.0 -07.5091 26246.8
 25 04 2013  22 26  -21.0571 26021.7 -03430.1 -07.5092 26246.8
 25 04 2013  22 27  -21.0576 26021.5 -03430.0 -07.5091 26246.6
 25 04 2013  22 28  -21.0581 26021.3 -03429.9 -07.5089 26246.3
 25 04 2013  22 29  -21.0583 26021.3 -03429.9 -07.5088 26246.3
 25 04 2013  22 30  -21.0583 26021.3 -03429.9 -07.5089 26246.4
 25 04 2013  22 31  -21.0582 26021.1 -03429.7 -07.5086 26246.2
 25 04 2013  22 32  -21.0583 26021.1 -03429.7 -07.5085 26246.1
 25 04 2013  22 33  -21.0583 26020.9 -03429.6 -07.5085 26246.0
 25 04 2013  22 34  -21.0582 26020.9 -03429.6 -07.5084 26246.0
 25 04 2013  22 35  -21.0582 26020.9 -03429.7 -07.5085 26246.0
 25 04 2013  22 36  -21.0580 26020.9 -03429.6 -07.5084 26245.9
 25 04 2013  22 37  -21.0581 26020.8 -03429.6 -07.5084 26245.9
 25 04 2013  22 38  -21.0579 26020.8 -03429.6 -07.5084 26245.8
 25 04 2013  22 39  -21.0578 26020.9 -03429.6 -07.5085 26245.9
 25 04 2013  22 40  -21.0576 26020.9 -03429.6 -07.5085 26245.9
 25 04 2013  22 41  -21.0576 26021.0 -03429.7 -07.5086 26246.0
 25 04 2013  22 42  -21.0576 26021.2 -03429.8 -07.5088 26246.3
 25 04 2013  22 43  -21.0575 26021.5 -03430.0 -07.5091 26246.6
 25 04 2013  22 44  -21.0575 26021.7 -03430.1 -07.5093 26246.8
 25 04 2013  22 45  -21.0575 26022.0 -03430.2 -07.5094 26247.1
 25 04 2013  22 46  -21.0571 26022.5 -03430.4 -07.5097 26247.6
 25 04 2013  22 47  -21.0569 26022.8 -03430.6 -07.5099 26248.0
 25 04 2013  22 48  -21.0568 26023.2 -03430.7 -07.5102 26248.4
 25 04 2013  22 49  -21.0568 26023.5 -03430.9 -07.5104 26248.6
 25 04 2013  22 50  -21.0567 26023.7 -03430.9 -07.5104 26248.9
 25 04 2013  22 51  -21.0566 26023.7 -03430.9 -07.5104 26248.9
 25 04 2013  22 52  -21.0567 26023.7 -03430.8 -07.5102 26248.9
 25 04 2013  22 53  -21.0567 26023.8 -03430.8 -07.5102 26249.0
 25 04 2013  22 54  -21.0566 26024.1 -03430.9 -07.5103 26249.3
 25 04 2013  22 55  -21.0564 26024.3 -03431.0 -07.5105 26249.5
 25 04 2013  22 56  -21.0562 26024.7 -03431.2 -07.5107 26249.9
 25 04 2013  22 57  -21.0559 26025.0 -03431.2 -07.5108 26250.2
 25 04 2013  22 58  -21.0558 26025.1 -03431.3 -07.5109 26250.4
 25 04 2013  22 59  -21.0558 26025.1 -03431.3 -07.5108 26250.3
 25 04 2013  23 00  -21.0560 26024.7 -03431.1 -07.5105 26249.9
 25 04 2013  23 01  -21.0562 26024.4 -03430.9 -07.5102 26249.6
 25 04 2013  23 02  -21.0565 26023.8 -03430.6 -07.5097 26248.9
 25 04 2013  23 03  -21.0566 26023.3 -03430.3 -07.5092 26248.4
 25 04 2013  23 04  -21.0567 26023.0 -03430.2 -07.5090 26248.1
 25 04 2013  23 05  -21.0566 26023.0 -03430.1 -07.5090 26248.1
 25 04 2013  23 06  -21.0563 26023.2 -03430.2 -07.5091 26248.3
 25 04 2013  23 07  -21.0560 26023.2 -03430.3 -07.5092 26248.3
 25 04 2013  23 08  -21.0558 26023.3 -03430.4 -07.5094 26248.5
 25 04 2013  23 09  -21.0559 26023.4 -03430.4 -07.5095 26248.5
 25 04 2013  23 10  -21.0559 26023.7 -03430.6 -07.5098 26248.8
 25 04 2013  23 11  -21.0559 26023.8 -03430.7 -07.5100 26249.0
 25 04 2013  23 12  -21.0557 26023.6 -03430.6 -07.5098 26248.8
 25 04 2013  23 13  -21.0557 26023.4 -03430.5 -07.5096 26248.5
 25 04 2013  23 14  -21.0556 26023.6 -03430.6 -07.5097 26248.7
 25 04 2013  23 15  -21.0552 26023.8 -03430.7 -07.5099 26248.9
 25 04 2013  23 16  -21.0549 26024.2 -03430.9 -07.5102 26249.4
 25 04 2013  23 17  -21.0546 26024.6 -03431.1 -07.5106 26249.8
 25 04 2013  23 18  -21.0544 26024.6 -03431.2 -07.5107 26249.9
 25 04 2013  23 19  -21.0545 26024.3 -03431.0 -07.5105 26249.5
 25 04 2013  23 20  -21.0546 26024.5 -03431.1 -07.5106 26249.7
 25 04 2013  23 21  -21.0543 26025.3 -03431.5 -07.5111 26250.6
 25 04 2013  23 22  -21.0541 26025.9 -03431.7 -07.5116 26251.1
 25 04 2013  23 23  -21.0541 26025.9 -03431.8 -07.5117 26251.2
 25 04 2013  23 24  -21.0539 26026.2 -03431.8 -07.5117 26251.5
 25 04 2013  23 25  -21.0538 26026.5 -03432.0 -07.5119 26251.8
 25 04 2013  23 26  -21.0532 26026.9 -03432.1 -07.5121 26252.2
 25 04 2013  23 27  -21.0529 26026.8 -03432.0 -07.5119 26252.1
 25 04 2013  23 28  -21.0527 26026.8 -03432.0 -07.5119 26252.1
 25 04 2013  23 29  -21.0529 26026.4 -03431.8 -07.5116 26251.7
 25 04 2013  23 30  -21.0526 26026.5 -03431.8 -07.5116 26251.8
 25 04 2013  23 31  -21.0524 26026.8 -03431.9 -07.5117 26252.1
 25 04 2013  23 32  -21.0522 26026.8 -03431.9 -07.5117 26252.1
 25 04 2013  23 33  -21.0522 26027.0 -03432.0 -07.5118 26252.3
 25 04 2013  23 34  -21.0521 26027.5 -03432.2 -07.5121 26252.8
 25 04 2013  23 35  -21.0519 26027.7 -03432.3 -07.5122 26253.1
 25 04 2013  23 36  -21.0521 26027.7 -03432.3 -07.5122 26253.0
 25 04 2013  23 37  -21.0523 26027.2 -03432.0 -07.5118 26252.5
 25 04 2013  23 38  -21.0523 26027.1 -03431.9 -07.5116 26252.4
 25 04 2013  23 39  -21.0524 26027.0 -03431.8 -07.5114 26252.3
 25 04 2013  23 40  -21.0521 26027.0 -03431.7 -07.5113 26252.2
 25 04 2013  23 41  -21.0518 26027.0 -03431.7 -07.5112 26252.3
 25 04 2013  23 42  -21.0514 26027.2 -03431.8 -07.5114 26252.5
 25 04 2013  23 43  -21.0511 26027.6 -03431.9 -07.5115 26252.8
 25 04 2013  23 44  -21.0506 26028.1 -03432.2 -07.5120 26253.4
 25 04 2013  23 45  -21.0506 26028.2 -03432.3 -07.5121 26253.5
 25 04 2013  23 46  -21.0508 26028.2 -03432.3 -07.5121 26253.5
 25 04 2013  23 47  -21.0511 26027.9 -03432.1 -07.5119 26253.2
 25 04 2013  23 48  -21.0514 26027.5 -03431.9 -07.5115 26252.8
 25 04 2013  23 49  -21.0515 26026.9 -03431.6 -07.5109 26252.2
 25 04 2013  23 50  -21.0516 26026.7 -03431.4 -07.5106 26252.0
 25 04 2013  23 51  -21.0516 26026.4 -03431.2 -07.5103 26251.6
 25 04 2013  23 52  -21.0515 26026.3 -03431.2 -07.5103 26251.5
 25 04 2013  23 53  -21.0516 26025.9 -03431.0 -07.5100 26251.1
 25 04 2013  23 54  -21.0516 26025.8 -03431.0 -07.5099 26250.9
 25 04 2013  23 55  -21.0517 26025.6 -03430.9 -07.5099 26250.7
 25 04 2013  23 56  -21.0517 26025.4 -03430.9 -07.5098 26250.6
 25 04 2013  23 57  -21.0518 26025.1 -03430.8 -07.5097 26250.3
 25 04 2013  23 58  -21.0516 26024.9 -03430.7 -07.5096 26250.1
