SAO LUIS EMBRACE-03 <051> 1 Min. Reported data

 DD MM YYYY  HH MM   D(Deg)  H(nT)   Z(nT)   I(Deg)   F(nT)

 20 02 2013  00 00  -21.0455 26046.6 -03411.5 -07.4620 26269.1
 20 02 2013  00 01  -21.0454 26046.3 -03411.4 -07.4618 26268.8
 20 02 2013  00 02  -21.0452 26046.2 -03411.3 -07.4617 26268.6
 20 02 2013  00 03  -21.0451 26046.0 -03411.3 -07.4617 26268.4
 20 02 2013  00 04  -21.0451 26045.9 -03411.3 -07.4618 26268.4
 20 02 2013  00 05  -21.0452 26045.9 -03411.4 -07.4619 26268.3
 20 02 2013  00 06  -21.0453 26045.9 -03411.5 -07.4621 26268.4
 20 02 2013  00 07  -21.0455 26045.8 -03411.5 -07.4621 26268.3
 20 02 2013  00 08  -21.0457 26045.7 -03411.5 -07.4621 26268.1
 20 02 2013  00 09  -21.0457 26045.6 -03411.5 -07.4621 26268.1
 20 02 2013  00 10  -21.0458 26045.6 -03411.5 -07.4622 26268.0
 20 02 2013  00 11  -21.0460 26045.5 -03411.5 -07.4622 26268.0
 20 02 2013  00 12  -21.0462 26045.6 -03411.5 -07.4623 26268.1
 20 02 2013  00 13  -21.0463 26045.7 -03411.6 -07.4624 26268.2
 20 02 2013  00 14  -21.0462 26045.6 -03411.6 -07.4623 26268.1
 20 02 2013  00 15  -21.0465 26045.8 -03411.7 -07.4627 26268.3
 20 02 2013  00 16  -21.0466 26045.9 -03411.8 -07.4628 26268.4
 20 02 2013  00 17  -21.0467 26045.8 -03411.8 -07.4628 26268.3
 20 02 2013  00 18  -21.0469 26045.8 -03411.8 -07.4628 26268.3
 20 02 2013  00 19  -21.0470 26045.8 -03411.8 -07.4628 26268.3
 20 02 2013  00 20  -21.0471 26045.8 -03411.8 -07.4628 26268.3
 20 02 2013  00 21  -21.0472 26045.7 -03411.7 -07.4627 26268.2
 20 02 2013  00 22  -21.0474 26045.5 -03411.6 -07.4625 26268.0
 20 02 2013  00 23  -21.0475 26045.4 -03411.6 -07.4625 26267.9
 20 02 2013  00 24  -21.0475 26045.4 -03411.6 -07.4624 26267.9
 20 02 2013  00 25  -21.0474 26045.1 -03411.5 -07.4622 26267.6
 20 02 2013  00 26  -21.0474 26045.0 -03411.4 -07.4622 26267.5
 20 02 2013  00 27  -21.0473 26045.3 -03411.6 -07.4624 26267.8
 20 02 2013  00 28  -21.0473 26044.9 -03411.4 -07.4621 26267.4
 20 02 2013  00 29  -21.0472 26044.8 -03411.3 -07.4621 26267.3
 20 02 2013  00 30  -21.0471 26044.9 -03411.4 -07.4622 26267.4
 20 02 2013  00 31  -21.0471 26044.8 -03411.4 -07.4621 26267.2
 20 02 2013  00 32  -21.0470 26044.7 -03411.3 -07.4621 26267.1
 20 02 2013  00 33  -21.0471 26044.5 -03411.3 -07.4621 26267.0
 20 02 2013  00 34  -21.0470 26044.3 -03411.2 -07.4620 26266.8
 20 02 2013  00 35  -21.0470 26044.2 -03411.2 -07.4619 26266.6
 20 02 2013  00 36  -21.0470 26043.9 -03411.1 -07.4618 26266.4
 20 02 2013  00 37  -21.0469 26043.8 -03411.1 -07.4618 26266.3
 20 02 2013  00 38  -21.0468 26043.8 -03411.1 -07.4618 26266.2
 20 02 2013  00 39  -21.0468 26043.7 -03411.1 -07.4618 26266.1
 20 02 2013  00 40  -21.0467 26043.6 -03411.1 -07.4619 26266.0
 20 02 2013  00 41  -21.0467 26043.6 -03411.1 -07.4619 26266.0
 20 02 2013  00 42  -21.0465 26043.5 -03411.1 -07.4618 26265.9
 20 02 2013  00 43  -21.0463 26043.5 -03411.1 -07.4619 26265.9
 20 02 2013  00 44  -21.0462 26043.7 -03411.3 -07.4622 26266.2
 20 02 2013  00 45  -21.0457 26043.8 -03411.4 -07.4624 26266.3
 20 02 2013  00 46  -21.0454 26043.9 -03411.4 -07.4625 26266.4
 20 02 2013  00 47  -21.0449 26044.2 -03411.6 -07.4628 26266.7
 20 02 2013  00 48  -21.0447 26044.0 -03411.6 -07.4628 26266.5
 20 02 2013  00 49  -21.0448 26044.4 -03411.8 -07.4633 26266.9
 20 02 2013  00 50  -21.0446 26044.4 -03411.8 -07.4633 26266.9
 20 02 2013  00 51  -21.0443 26044.4 -03411.9 -07.4633 26266.9
 20 02 2013  00 52  -21.0442 26044.0 -03411.6 -07.4629 26266.5
 20 02 2013  00 53  -21.0444 26044.6 -03412.0 -07.4635 26267.2
 20 02 2013  00 54  -21.0445 26045.1 -03412.3 -07.4640 26267.7
 20 02 2013  00 55  -21.0446 26045.0 -03412.3 -07.4640 26267.6
 20 02 2013  00 56  -21.0446 26045.1 -03412.3 -07.4641 26267.7
 20 02 2013  00 57  -21.0449 26045.2 -03412.4 -07.4642 26267.8
 20 02 2013  00 58  -21.0450 26045.2 -03412.3 -07.4641 26267.8
 20 02 2013  00 59  -21.0450 26045.1 -03412.2 -07.4639 26267.7
 20 02 2013  01 00  -21.0448 26045.0 -03412.1 -07.4637 26267.5
 20 02 2013  01 01  -21.0449 26044.8 -03412.0 -07.4636 26267.4
 20 02 2013  01 02  -21.0450 26044.7 -03412.0 -07.4635 26267.3
 20 02 2013  01 03  -21.0451 26044.7 -03412.0 -07.4635 26267.2
 20 02 2013  01 04  -21.0452 26044.6 -03411.9 -07.4635 26267.2
 20 02 2013  01 05  -21.0452 26044.6 -03411.9 -07.4634 26267.1
 20 02 2013  01 06  -21.0452 26044.5 -03411.9 -07.4634 26267.0
 20 02 2013  01 07  -21.0451 26044.5 -03411.9 -07.4634 26267.0
 20 02 2013  01 08  -21.0451 26044.5 -03411.9 -07.4634 26267.0
 20 02 2013  01 09  -21.0451 26044.4 -03411.9 -07.4634 26267.0
 20 02 2013  01 10  -21.0451 26044.4 -03411.9 -07.4634 26266.9
 20 02 2013  01 11  -21.0451 26044.2 -03411.8 -07.4633 26266.8
 20 02 2013  01 12  -21.0450 26044.1 -03411.8 -07.4632 26266.6
 20 02 2013  01 13  -21.0449 26043.8 -03411.6 -07.4630 26266.3
 20 02 2013  01 14  -21.0447 26043.5 -03411.5 -07.4628 26266.0
 20 02 2013  01 15  -21.0446 26043.7 -03411.6 -07.4630 26266.2
 20 02 2013  01 16  -21.0445 26043.8 -03411.7 -07.4632 26266.3
 20 02 2013  01 17  -21.0445 26043.9 -03411.9 -07.4635 26266.4
 20 02 2013  01 18  -21.0446 26044.0 -03412.0 -07.4636 26266.6
 20 02 2013  01 19  -21.0448 26044.1 -03412.0 -07.4638 26266.6
 20 02 2013  01 20  -21.0450 26044.2 -03412.2 -07.4640 26266.8
 20 02 2013  01 21  -21.0450 26044.3 -03412.2 -07.4641 26266.9
 20 02 2013  01 22  -21.0450 26044.4 -03412.2 -07.4642 26267.0
 20 02 2013  01 23  -21.0450 26044.5 -03412.3 -07.4643 26267.1
 20 02 2013  01 24  -21.0451 26044.7 -03412.4 -07.4644 26267.2
 20 02 2013  01 25  -21.0452 26044.8 -03412.5 -07.4645 26267.4
 20 02 2013  01 26  -21.0452 26044.9 -03412.5 -07.4646 26267.5
 20 02 2013  01 27  -21.0452 26045.1 -03412.6 -07.4646 26267.7
 20 02 2013  01 28  -21.0451 26045.2 -03412.7 -07.4648 26267.8
 20 02 2013  01 29  -21.0451 26045.2 -03412.7 -07.4648 26267.9
 20 02 2013  01 30  -21.0451 26045.2 -03412.7 -07.4648 26267.9
 20 02 2013  01 31  -21.0450 26045.3 -03412.6 -07.4647 26267.9
 20 02 2013  01 32  -21.0451 26045.2 -03412.6 -07.4647 26267.8
 20 02 2013  01 33  -21.0451 26045.0 -03412.4 -07.4644 26267.6
 20 02 2013  01 34  -21.0451 26044.7 -03412.3 -07.4642 26267.3
 20 02 2013  01 35  -21.0451 26044.5 -03412.2 -07.4641 26267.1
 20 02 2013  01 36  -21.0451 26044.4 -03412.2 -07.4640 26267.0
 20 02 2013  01 37  -21.0450 26044.3 -03412.2 -07.4640 26266.9
 20 02 2013  01 38  -21.0451 26044.5 -03412.2 -07.4641 26267.0
 20 02 2013  01 39  -21.0453 26044.5 -03412.3 -07.4642 26267.1
 20 02 2013  01 40  -21.0455 26044.4 -03412.3 -07.4643 26267.0
 20 02 2013  01 41  -21.0456 26044.5 -03412.4 -07.4644 26267.1
 20 02 2013  01 42  -21.0459 26044.7 -03412.5 -07.4645 26267.3
 20 02 2013  01 43  -21.0460 26044.9 -03412.6 -07.4647 26267.5
 20 02 2013  01 44  -21.0461 26045.1 -03412.6 -07.4648 26267.7
 20 02 2013  01 45  -21.0461 26045.2 -03412.7 -07.4648 26267.8
 20 02 2013  01 46  -21.0459 26045.2 -03412.7 -07.4649 26267.9
 20 02 2013  01 47  -21.0457 26045.3 -03412.7 -07.4648 26267.9
 20 02 2013  01 48  -21.0454 26045.3 -03412.7 -07.4648 26267.9
 20 02 2013  01 49  -21.0452 26045.2 -03412.6 -07.4647 26267.9
 20 02 2013  01 50  -21.0452 26045.3 -03412.6 -07.4647 26267.9
 20 02 2013  01 51  -21.0449 26045.3 -03412.6 -07.4648 26267.9
 20 02 2013  01 52  -21.0449 26045.5 -03412.7 -07.4649 26268.1
 20 02 2013  01 53  -21.0452 26045.5 -03412.8 -07.4649 26268.2
 20 02 2013  01 54  -21.0454 26045.8 -03412.9 -07.4653 26268.5
 20 02 2013  01 55  -21.0456 26045.9 -03413.0 -07.4653 26268.6
 20 02 2013  01 56  -21.0455 26045.9 -03413.0 -07.4653 26268.6
 20 02 2013  01 57  -21.0453 26045.9 -03412.9 -07.4652 26268.5
 20 02 2013  01 58  -21.0454 26045.9 -03412.9 -07.4651 26268.6
 20 02 2013  01 59  -21.0456 26045.7 -03412.8 -07.4650 26268.4
 20 02 2013  02 00  -21.0460 26045.6 -03412.7 -07.4649 26268.2
 20 02 2013  02 01  -21.0461 26045.4 -03412.6 -07.4647 26268.0
 20 02 2013  02 02  -21.0462 26045.1 -03412.5 -07.4644 26267.7
 20 02 2013  02 03  -21.0461 26044.9 -03412.3 -07.4642 26267.5
 20 02 2013  02 04  -21.0459 26044.8 -03412.3 -07.4641 26267.4
 20 02 2013  02 05  -21.0457 26044.7 -03412.3 -07.4641 26267.3
 20 02 2013  02 06  -21.0457 26044.7 -03412.2 -07.4641 26267.2
 20 02 2013  02 07  -21.0457 26044.7 -03412.3 -07.4642 26267.3
 20 02 2013  02 08  -21.0460 26044.7 -03412.4 -07.4643 26267.3
 20 02 2013  02 09  -21.0461 26044.8 -03412.5 -07.4645 26267.4
 20 02 2013  02 10  -21.0458 26044.8 -03412.5 -07.4645 26267.4
 20 02 2013  02 11  -21.0452 26044.9 -03412.5 -07.4645 26267.5
 20 02 2013  02 12  -21.0448 26045.2 -03412.6 -07.4647 26267.8
 20 02 2013  02 13  -21.0448 26045.7 -03412.9 -07.4652 26268.3
 20 02 2013  02 14  -21.0449 26046.4 -03413.3 -07.4659 26269.1
 20 02 2013  02 15  -21.0450 26046.9 -03413.6 -07.4664 26269.6
 20 02 2013  02 16  -21.0450 26047.3 -03413.8 -07.4667 26270.0
 20 02 2013  02 17  -21.0449 26047.7 -03414.0 -07.4669 26270.5
 20 02 2013  02 18  -21.0449 26048.1 -03414.1 -07.4671 26270.8
 20 02 2013  02 19  -21.0446 26048.1 -03414.0 -07.4670 26270.9
 20 02 2013  02 20  -21.0442 26047.9 -03413.9 -07.4667 26270.7
 20 02 2013  02 21  -21.0440 26047.7 -03413.7 -07.4664 26270.4
 20 02 2013  02 22  -21.0441 26047.5 -03413.6 -07.4661 26270.2
 20 02 2013  02 23  -21.0443 26047.1 -03413.3 -07.4658 26269.8
 20 02 2013  02 24  -21.0444 26046.9 -03413.2 -07.4656 26269.6
 20 02 2013  02 25  -21.0446 26046.7 -03413.1 -07.4654 26269.4
 20 02 2013  02 26  -21.0448 26046.6 -03413.1 -07.4653 26269.3
 20 02 2013  02 27  -21.0450 26046.6 -03413.1 -07.4653 26269.3
 20 02 2013  02 28  -21.0453 26046.7 -03413.1 -07.4654 26269.4
 20 02 2013  02 29  -21.0455 26046.8 -03413.2 -07.4655 26269.5
 20 02 2013  02 30  -21.0456 26047.0 -03413.3 -07.4656 26269.7
 20 02 2013  02 31  -21.0457 26047.1 -03413.3 -07.4657 26269.8
 20 02 2013  02 32  -21.0456 26047.1 -03413.3 -07.4656 26269.8
 20 02 2013  02 33  -21.0457 26047.2 -03413.3 -07.4657 26269.9
 20 02 2013  02 34  -21.0459 26047.2 -03413.3 -07.4656 26269.9
 20 02 2013  02 35  -21.0460 26047.2 -03413.2 -07.4655 26269.8
 20 02 2013  02 36  -21.0463 26047.1 -03413.2 -07.4655 26269.8
 20 02 2013  02 37  -21.0466 26047.0 -03413.1 -07.4653 26269.7
 20 02 2013  02 38  -21.0465 26046.9 -03413.1 -07.4652 26269.6
 20 02 2013  02 39  -21.0465 26046.9 -03413.0 -07.4651 26269.5
 20 02 2013  02 40  -21.0466 26046.8 -03412.9 -07.4650 26269.4
 20 02 2013  02 41  -21.0465 26046.7 -03412.9 -07.4649 26269.3
 20 02 2013  02 42  -21.0465 26046.7 -03412.9 -07.4649 26269.3
 20 02 2013  02 43  -21.0464 26046.6 -03412.9 -07.4648 26269.3
 20 02 2013  02 44  -21.0463 26046.6 -03412.8 -07.4648 26269.2
 20 02 2013  02 45  -21.0462 26046.6 -03412.9 -07.4649 26269.3
 20 02 2013  02 46  -21.0462 26046.7 -03412.9 -07.4649 26269.3
 20 02 2013  02 47  -21.0462 26046.7 -03412.9 -07.4650 26269.4
 20 02 2013  02 48  -21.0462 26046.8 -03413.0 -07.4650 26269.4
 20 02 2013  02 49  -21.0463 26046.8 -03413.0 -07.4650 26269.4
 20 02 2013  02 50  -21.0463 26046.8 -03413.0 -07.4651 26269.5
 20 02 2013  02 51  -21.0464 26046.7 -03412.9 -07.4650 26269.4
 20 02 2013  02 52  -21.0463 26046.6 -03412.9 -07.4649 26269.3
 20 02 2013  02 53  -21.0463 26046.5 -03412.8 -07.4648 26269.2
 20 02 2013  02 54  -21.0462 26046.5 -03412.8 -07.4648 26269.1
 20 02 2013  02 55  -21.0463 26046.3 -03412.8 -07.4647 26269.0
 20 02 2013  02 56  -21.0463 26046.2 -03412.7 -07.4647 26268.9
 20 02 2013  02 57  -21.0462 26046.1 -03412.7 -07.4646 26268.7
 20 02 2013  02 58  -21.0462 26046.0 -03412.6 -07.4645 26268.6
 20 02 2013  02 59  -21.0461 26045.9 -03412.6 -07.4646 26268.5
 20 02 2013  03 00  -21.0461 26045.8 -03412.7 -07.4646 26268.5
 20 02 2013  03 01  -21.0463 26045.8 -03412.7 -07.4647 26268.4
 20 02 2013  03 02  -21.0465 26045.8 -03412.7 -07.4648 26268.5
 20 02 2013  03 03  -21.0467 26045.8 -03412.8 -07.4649 26268.5
 20 02 2013  03 04  -21.0468 26045.9 -03412.8 -07.4649 26268.5
 20 02 2013  03 05  -21.0470 26045.9 -03412.8 -07.4650 26268.6
 20 02 2013  03 06  -21.0472 26045.9 -03412.8 -07.4650 26268.5
 20 02 2013  03 07  -21.0473 26046.0 -03412.9 -07.4651 26268.6
 20 02 2013  03 08  -21.0474 26046.0 -03412.9 -07.4651 26268.7
 20 02 2013  03 09  -21.0475 26046.0 -03412.9 -07.4652 26268.7
 20 02 2013  03 10  -21.0475 26046.0 -03413.0 -07.4652 26268.7
 20 02 2013  03 11  -21.0475 26046.2 -03413.1 -07.4654 26268.9
 20 02 2013  03 12  -21.0475 26046.3 -03413.1 -07.4655 26269.0
 20 02 2013  03 13  -21.0474 26046.3 -03413.1 -07.4655 26269.0
 20 02 2013  03 14  -21.0473 26046.3 -03413.1 -07.4655 26269.0
 20 02 2013  03 15  -21.0472 26046.3 -03413.1 -07.4655 26269.0
 20 02 2013  03 16  -21.0472 26046.4 -03413.2 -07.4656 26269.0
 20 02 2013  03 17  -21.0473 26046.4 -03413.2 -07.4657 26269.1
 20 02 2013  03 18  -21.0475 26046.5 -03413.3 -07.4658 26269.2
 20 02 2013  03 19  -21.0476 26046.6 -03413.3 -07.4658 26269.3
 20 02 2013  03 20  -21.0477 26046.5 -03413.3 -07.4658 26269.2
 20 02 2013  03 21  -21.0478 26046.4 -03413.2 -07.4657 26269.0
 20 02 2013  03 22  -21.0479 26046.3 -03413.2 -07.4656 26269.0
 20 02 2013  03 23  -21.0482 26046.1 -03413.1 -07.4656 26268.8
 20 02 2013  03 24  -21.0485 26046.1 -03413.1 -07.4656 26268.8
 20 02 2013  03 25  -21.0488 26046.0 -03413.1 -07.4655 26268.7
 20 02 2013  03 26  -21.0490 26045.7 -03412.9 -07.4653 26268.4
 20 02 2013  03 27  -21.0494 26045.4 -03412.8 -07.4650 26268.0
 20 02 2013  03 28  -21.0496 26045.2 -03412.7 -07.4649 26267.8
 20 02 2013  03 29  -21.0499 26044.8 -03412.5 -07.4646 26267.4
 20 02 2013  03 30  -21.0502 26044.4 -03412.4 -07.4644 26267.0
 20 02 2013  03 31  -21.0505 26044.0 -03412.2 -07.4642 26266.6
 20 02 2013  03 32  -21.0506 26043.7 -03412.1 -07.4640 26266.2
 20 02 2013  03 33  -21.0507 26043.3 -03411.9 -07.4638 26265.9
 20 02 2013  03 34  -21.0508 26043.0 -03411.8 -07.4636 26265.5
 20 02 2013  03 35  -21.0510 26042.8 -03411.7 -07.4635 26265.3
 20 02 2013  03 36  -21.0512 26042.6 -03411.7 -07.4635 26265.1
 20 02 2013  03 37  -21.0514 26042.4 -03411.7 -07.4634 26264.9
 20 02 2013  03 38  -21.0516 26042.3 -03411.7 -07.4635 26264.9
 20 02 2013  03 39  -21.0520 26042.3 -03411.7 -07.4637 26264.8
 20 02 2013  03 40  -21.0523 26042.2 -03411.8 -07.4637 26264.7
 20 02 2013  03 41  -21.0526 26042.1 -03411.8 -07.4638 26264.7
 20 02 2013  03 42  -21.0529 26042.2 -03411.8 -07.4639 26264.8
 20 02 2013  03 43  -21.0532 26042.3 -03411.9 -07.4641 26264.9
 20 02 2013  03 44  -21.0536 26042.6 -03412.1 -07.4643 26265.1
 20 02 2013  03 45  -21.0541 26042.9 -03412.3 -07.4647 26265.5
 20 02 2013  03 46  -21.0548 26043.1 -03412.4 -07.4649 26265.8
 20 02 2013  03 47  -21.0553 26043.3 -03412.5 -07.4650 26265.9
 20 02 2013  03 48  -21.0557 26043.4 -03412.5 -07.4650 26266.0
 20 02 2013  03 49  -21.0560 26043.5 -03412.5 -07.4650 26266.1
 20 02 2013  03 50  -21.0562 26043.7 -03412.6 -07.4651 26266.3
 20 02 2013  03 51  -21.0562 26043.9 -03412.6 -07.4651 26266.6
 20 02 2013  03 52  -21.0561 26044.1 -03412.6 -07.4651 26266.7
 20 02 2013  03 53  -21.0562 26044.2 -03412.7 -07.4651 26266.9
 20 02 2013  03 54  -21.0563 26044.4 -03412.7 -07.4651 26267.1
 20 02 2013  03 55  -21.0562 26044.6 -03412.8 -07.4652 26267.3
 20 02 2013  03 56  -21.0563 26044.8 -03412.8 -07.4653 26267.5
 20 02 2013  03 57  -21.0562 26045.0 -03412.9 -07.4654 26267.7
 20 02 2013  03 58  -21.0560 26045.2 -03412.9 -07.4654 26267.8
 20 02 2013  03 59  -21.0557 26045.0 -03412.8 -07.4652 26267.7
 20 02 2013  04 00  -21.0553 26044.9 -03412.7 -07.4649 26267.6
 20 02 2013  04 01  -21.0549 26044.8 -03412.6 -07.4647 26267.4
 20 02 2013  04 02  -21.0545 26044.6 -03412.4 -07.4645 26267.2
 20 02 2013  04 03  -21.0540 26044.3 -03412.3 -07.4642 26266.9
 20 02 2013  04 04  -21.0536 26044.1 -03412.1 -07.4640 26266.6
 20 02 2013  04 05  -21.0534 26043.8 -03412.0 -07.4637 26266.4
 20 02 2013  04 06  -21.0533 26043.7 -03411.9 -07.4637 26266.2
 20 02 2013  04 07  -21.0533 26043.6 -03411.9 -07.4636 26266.2
 20 02 2013  04 08  -21.0535 26043.6 -03412.0 -07.4638 26266.2
 20 02 2013  04 09  -21.0535 26043.7 -03412.0 -07.4639 26266.2
 20 02 2013  04 10  -21.0537 26043.7 -03412.1 -07.4640 26266.3
 20 02 2013  04 11  -21.0538 26043.8 -03412.1 -07.4640 26266.3
 20 02 2013  04 12  -21.0540 26043.8 -03412.1 -07.4640 26266.4
 20 02 2013  04 13  -21.0541 26043.8 -03412.1 -07.4640 26266.4
 20 02 2013  04 14  -21.0542 26043.8 -03412.1 -07.4640 26266.4
 20 02 2013  04 15  -21.0543 26043.9 -03412.1 -07.4640 26266.4
 20 02 2013  04 16  -21.0544 26043.9 -03412.1 -07.4639 26266.5
 20 02 2013  04 17  -21.0545 26043.9 -03412.0 -07.4638 26266.4
 20 02 2013  04 18  -21.0545 26043.8 -03412.0 -07.4637 26266.4
 20 02 2013  04 19  -21.0547 26043.8 -03411.9 -07.4636 26266.3
 20 02 2013  04 20  -21.0548 26043.8 -03411.9 -07.4635 26266.3
 20 02 2013  04 21  -21.0549 26043.9 -03411.9 -07.4635 26266.4
 20 02 2013  04 22  -21.0549 26044.0 -03411.9 -07.4636 26266.5
 20 02 2013  04 23  -21.0550 26044.0 -03411.9 -07.4635 26266.6
 20 02 2013  04 24  -21.0550 26044.0 -03411.9 -07.4635 26266.5
 20 02 2013  04 25  -21.0549 26044.1 -03411.9 -07.4635 26266.6
 20 02 2013  04 26  -21.0547 26044.0 -03411.8 -07.4633 26266.5
 20 02 2013  04 27  -21.0547 26044.0 -03411.8 -07.4632 26266.5
 20 02 2013  04 28  -21.0546 26044.2 -03411.9 -07.4634 26266.7
 20 02 2013  04 29  -21.0547 26044.2 -03411.8 -07.4633 26266.7
 20 02 2013  04 30  -21.0548 26044.2 -03411.9 -07.4634 26266.8
 20 02 2013  04 31  -21.0549 26044.2 -03411.8 -07.4633 26266.8
 20 02 2013  04 32  -21.0549 26044.1 -03411.8 -07.4632 26266.6
 20 02 2013  04 33  -21.0548 26044.1 -03411.7 -07.4631 26266.6
 20 02 2013  04 34  -21.0549 26044.0 -03411.7 -07.4631 26266.5
 20 02 2013  04 35  -21.0551 26043.9 -03411.6 -07.4629 26266.4
 20 02 2013  04 36  -21.0551 26043.9 -03411.6 -07.4630 26266.4
 20 02 2013  04 37  -21.0553 26043.8 -03411.6 -07.4628 26266.3
 20 02 2013  04 38  -21.0553 26043.8 -03411.5 -07.4628 26266.3
 20 02 2013  04 39  -21.0555 26044.0 -03411.6 -07.4629 26266.5
 20 02 2013  04 40  -21.0557 26044.1 -03411.7 -07.4631 26266.6
 20 02 2013  04 41  -21.0558 26044.4 -03411.8 -07.4633 26266.9
 20 02 2013  04 42  -21.0562 26044.1 -03411.7 -07.4632 26266.7
 20 02 2013  04 43  -21.0561 26044.2 -03411.7 -07.4631 26266.7
 20 02 2013  04 44  -21.0558 26044.0 -03411.6 -07.4629 26266.5
 20 02 2013  04 45  -21.0556 26043.7 -03411.4 -07.4626 26266.2
 20 02 2013  04 46  -21.0554 26044.0 -03411.5 -07.4627 26266.5
 20 02 2013  04 47  -21.0555 26043.9 -03411.5 -07.4627 26266.4
 20 02 2013  04 48  -21.0552 26044.1 -03411.6 -07.4629 26266.6
 20 02 2013  04 49  -21.0550 26044.1 -03411.6 -07.4629 26266.6
 20 02 2013  04 50  -21.0546 26044.0 -03411.6 -07.4628 26266.5
 20 02 2013  04 51  -21.0542 26044.2 -03411.6 -07.4629 26266.7
 20 02 2013  04 52  -21.0540 26044.4 -03411.8 -07.4631 26266.9
 20 02 2013  04 53  -21.0537 26044.5 -03411.9 -07.4633 26267.1
 20 02 2013  04 54  -21.0536 26044.6 -03411.9 -07.4634 26267.2
 20 02 2013  04 55  -21.0536 26044.6 -03412.0 -07.4635 26267.2
 20 02 2013  04 56  -21.0534 26044.6 -03411.9 -07.4634 26267.1
 20 02 2013  04 57  -21.0531 26044.4 -03411.8 -07.4632 26267.0
 20 02 2013  04 58  -21.0528 26044.3 -03411.7 -07.4631 26266.8
 20 02 2013  04 59  -21.0525 26044.0 -03411.6 -07.4629 26266.5
 20 02 2013  05 00  -21.0523 26043.9 -03411.5 -07.4628 26266.4
 20 02 2013  05 01  -21.0521 26043.7 -03411.5 -07.4627 26266.2
 20 02 2013  05 02  -21.0520 26043.7 -03411.5 -07.4627 26266.2
 20 02 2013  05 03  -21.0519 26043.9 -03411.6 -07.4630 26266.4
 20 02 2013  05 04  -21.0521 26043.9 -03411.7 -07.4632 26266.4
 20 02 2013  05 05  -21.0523 26044.1 -03411.8 -07.4634 26266.6
 20 02 2013  05 06  -21.0525 26044.2 -03412.0 -07.4636 26266.7
 20 02 2013  05 07  -21.0526 26044.3 -03412.0 -07.4636 26266.8
 20 02 2013  05 08  -21.0525 26044.4 -03412.0 -07.4637 26267.0
 20 02 2013  05 09  -21.0525 26044.4 -03412.0 -07.4636 26266.9
 20 02 2013  05 10  -21.0525 26044.4 -03412.0 -07.4636 26266.9
 20 02 2013  05 11  -21.0527 26044.4 -03412.0 -07.4636 26267.0
 20 02 2013  05 12  -21.0528 26044.5 -03412.0 -07.4636 26267.0
 20 02 2013  05 13  -21.0529 26044.4 -03412.0 -07.4636 26266.9
 20 02 2013  05 14  -21.0530 26044.4 -03412.0 -07.4636 26266.9
 20 02 2013  05 15  -21.0532 26044.4 -03411.9 -07.4635 26266.9
 20 02 2013  05 16  -21.0533 26044.3 -03411.9 -07.4635 26266.9
 20 02 2013  05 17  -21.0535 26044.3 -03411.9 -07.4635 26266.9
 20 02 2013  05 18  -21.0537 26044.3 -03411.9 -07.4634 26266.8
 20 02 2013  05 19  -21.0538 26044.3 -03411.9 -07.4634 26266.8
 20 02 2013  05 20  -21.0540 26044.3 -03411.9 -07.4634 26266.8
 20 02 2013  05 21  -21.0541 26044.3 -03411.9 -07.4634 26266.9
 20 02 2013  05 22  -21.0542 26044.2 -03411.8 -07.4633 26266.8
 20 02 2013  05 23  -21.0543 26044.2 -03411.8 -07.4632 26266.8
 20 02 2013  05 24  -21.0544 26044.3 -03411.8 -07.4632 26266.8
 20 02 2013  05 25  -21.0545 26044.3 -03411.8 -07.4633 26266.8
 20 02 2013  05 26  -21.0546 26044.4 -03411.9 -07.4633 26266.9
 20 02 2013  05 27  -21.0547 26044.5 -03411.9 -07.4634 26267.1
 20 02 2013  05 28  -21.0548 26044.7 -03412.0 -07.4636 26267.2
 20 02 2013  05 29  -21.0549 26044.9 -03412.1 -07.4636 26267.4
 20 02 2013  05 30  -21.0549 26045.0 -03412.1 -07.4637 26267.6
 20 02 2013  05 31  -21.0549 26045.0 -03412.1 -07.4637 26267.6
 20 02 2013  05 32  -21.0547 26045.2 -03412.2 -07.4637 26267.8
 20 02 2013  05 33  -21.0548 26045.3 -03412.2 -07.4638 26267.9
 20 02 2013  05 34  -21.0546 26045.4 -03412.2 -07.4638 26268.0
 20 02 2013  05 35  -21.0545 26045.5 -03412.2 -07.4639 26268.0
 20 02 2013  05 36  -21.0545 26045.5 -03412.2 -07.4639 26268.0
 20 02 2013  05 37  -21.0545 26045.5 -03412.2 -07.4638 26268.1
 20 02 2013  05 38  -21.0544 26045.6 -03412.3 -07.4639 26268.1
 20 02 2013  05 39  -21.0545 26045.6 -03412.3 -07.4638 26268.2
 20 02 2013  05 40  -21.0547 26045.7 -03412.3 -07.4639 26268.3
 20 02 2013  05 41  -21.0547 26045.8 -03412.3 -07.4639 26268.3
 20 02 2013  05 42  -21.0547 26045.6 -03412.2 -07.4637 26268.2
 20 02 2013  05 43  -21.0547 26045.5 -03412.1 -07.4636 26268.1
 20 02 2013  05 44  -21.0548 26045.2 -03412.0 -07.4634 26267.7
 20 02 2013  05 45  -21.0547 26044.9 -03411.8 -07.4631 26267.5
 20 02 2013  05 46  -21.0546 26044.7 -03411.7 -07.4630 26267.2
 20 02 2013  05 47  -21.0545 26044.5 -03411.6 -07.4628 26267.0
 20 02 2013  05 48  -21.0543 26044.3 -03411.6 -07.4627 26266.8
 20 02 2013  05 49  -21.0542 26044.2 -03411.5 -07.4627 26266.7
 20 02 2013  05 50  -21.0543 26044.1 -03411.5 -07.4627 26266.6
 20 02 2013  05 51  -21.0543 26044.1 -03411.6 -07.4628 26266.6
 20 02 2013  05 52  -21.0542 26044.2 -03411.7 -07.4630 26266.7
 20 02 2013  05 53  -21.0544 26044.3 -03411.8 -07.4632 26266.9
 20 02 2013  05 54  -21.0545 26044.6 -03412.0 -07.4635 26267.1
 20 02 2013  05 55  -21.0546 26044.8 -03412.1 -07.4637 26267.3
 20 02 2013  05 56  -21.0547 26044.9 -03412.2 -07.4639 26267.5
 20 02 2013  05 57  -21.0549 26045.1 -03412.3 -07.4641 26267.7
 20 02 2013  05 58  -21.0550 26045.1 -03412.3 -07.4641 26267.7
 20 02 2013  05 59  -21.0549 26045.0 -03412.3 -07.4640 26267.6
 20 02 2013  06 00  -21.0547 26044.8 -03412.2 -07.4638 26267.4
 20 02 2013  06 01  -21.0546 26044.6 -03412.0 -07.4636 26267.1
 20 02 2013  06 02  -21.0543 26044.3 -03411.9 -07.4633 26266.8
 20 02 2013  06 03  -21.0538 26044.1 -03411.7 -07.4632 26266.6
 20 02 2013  06 04  -21.0534 26043.9 -03411.7 -07.4631 26266.4
 20 02 2013  06 05  -21.0533 26043.7 -03411.6 -07.4630 26266.2
 20 02 2013  06 06  -21.0534 26043.5 -03411.6 -07.4630 26266.0
 20 02 2013  06 07  -21.0539 26043.4 -03411.6 -07.4631 26265.9
 20 02 2013  06 08  -21.0543 26043.2 -03411.6 -07.4631 26265.7
 20 02 2013  06 09  -21.0544 26043.2 -03411.6 -07.4630 26265.7
 20 02 2013  06 10  -21.0547 26043.3 -03411.6 -07.4631 26265.8
 20 02 2013  06 11  -21.0548 26043.4 -03411.7 -07.4633 26265.9
 20 02 2013  06 12  -21.0547 26043.7 -03411.9 -07.4636 26266.2
 20 02 2013  06 13  -21.0546 26044.0 -03412.1 -07.4639 26266.6
 20 02 2013  06 14  -21.0546 26044.6 -03412.4 -07.4644 26267.2
 20 02 2013  06 15  -21.0545 26045.1 -03412.7 -07.4649 26267.7
 20 02 2013  06 16  -21.0543 26045.5 -03412.9 -07.4652 26268.1
 20 02 2013  06 17  -21.0542 26045.7 -03413.0 -07.4654 26268.4
 20 02 2013  06 18  -21.0539 26045.7 -03413.0 -07.4655 26268.4
 20 02 2013  06 19  -21.0535 26045.7 -03412.9 -07.4652 26268.3
 20 02 2013  06 20  -21.0532 26045.4 -03412.7 -07.4650 26268.1
 20 02 2013  06 21  -21.0527 26045.1 -03412.5 -07.4646 26267.7
 20 02 2013  06 22  -21.0525 26044.8 -03412.4 -07.4643 26267.4
 20 02 2013  06 23  -21.0523 26044.7 -03412.3 -07.4642 26267.3
 20 02 2013  06 24  -21.0520 26044.7 -03412.3 -07.4643 26267.3
 20 02 2013  06 25  -21.0521 26044.8 -03412.4 -07.4644 26267.4
 20 02 2013  06 26  -21.0520 26044.9 -03412.5 -07.4646 26267.5
 20 02 2013  06 27  -21.0519 26045.0 -03412.6 -07.4647 26267.6
 20 02 2013  06 28  -21.0519 26045.1 -03412.7 -07.4649 26267.8
 20 02 2013  06 29  -21.0518 26045.2 -03412.7 -07.4650 26267.8
 20 02 2013  06 30  -21.0520 26045.3 -03412.8 -07.4651 26267.9
 20 02 2013  06 31  -21.0521 26045.4 -03412.9 -07.4652 26268.1
 20 02 2013  06 32  -21.0524 26045.6 -03412.9 -07.4653 26268.3
 20 02 2013  06 33  -21.0526 26045.8 -03413.1 -07.4655 26268.5
 20 02 2013  06 34  -21.0528 26046.0 -03413.2 -07.4657 26268.7
 20 02 2013  06 35  -21.0530 26046.2 -03413.2 -07.4658 26268.9
 20 02 2013  06 36  -21.0531 26046.6 -03413.4 -07.4660 26269.3
 20 02 2013  06 37  -21.0533 26047.0 -03413.6 -07.4663 26269.7
 20 02 2013  06 38  -21.0535 26047.2 -03413.7 -07.4665 26270.0
 20 02 2013  06 39  -21.0538 26047.6 -03413.8 -07.4667 26270.4
 20 02 2013  06 40  -21.0541 26047.8 -03413.9 -07.4668 26270.6
 20 02 2013  06 41  -21.0544 26048.0 -03413.9 -07.4668 26270.8
 20 02 2013  06 42  -21.0550 26048.1 -03413.9 -07.4668 26270.8
 20 02 2013  06 43  -21.0556 26048.0 -03413.8 -07.4666 26270.8
 20 02 2013  06 44  -21.0558 26047.8 -03413.6 -07.4662 26270.5
 20 02 2013  06 45  -21.0558 26047.4 -03413.3 -07.4656 26270.1
 20 02 2013  06 46  -21.0560 26047.1 -03413.1 -07.4652 26269.8
 20 02 2013  06 47  -21.0559 26047.0 -03412.9 -07.4649 26269.7
 20 02 2013  06 48  -21.0559 26046.9 -03412.8 -07.4647 26269.5
 20 02 2013  06 49  -21.0560 26046.8 -03412.8 -07.4646 26269.5
 20 02 2013  06 50  -21.0561 26046.9 -03412.8 -07.4646 26269.5
 20 02 2013  06 51  -21.0562 26046.9 -03412.8 -07.4646 26269.5
 20 02 2013  06 52  -21.0562 26047.0 -03412.8 -07.4647 26269.6
 20 02 2013  06 53  -21.0560 26047.1 -03412.8 -07.4646 26269.7
 20 02 2013  06 54  -21.0557 26047.1 -03412.8 -07.4647 26269.8
 20 02 2013  06 55  -21.0553 26047.2 -03412.8 -07.4647 26269.9
 20 02 2013  06 56  -21.0551 26047.4 -03412.9 -07.4648 26270.0
 20 02 2013  06 57  -21.0549 26047.7 -03413.1 -07.4650 26270.3
 20 02 2013  06 58  -21.0550 26047.9 -03413.2 -07.4653 26270.6
 20 02 2013  06 59  -21.0551 26048.2 -03413.4 -07.4656 26270.9
 20 02 2013  07 00  -21.0551 26048.3 -03413.4 -07.4656 26271.0
 20 02 2013  07 01  -21.0550 26048.4 -03413.5 -07.4656 26271.1
 20 02 2013  07 02  -21.0548 26048.6 -03413.5 -07.4657 26271.3
 20 02 2013  07 03  -21.0546 26048.8 -03413.5 -07.4657 26271.5
 20 02 2013  07 04  -21.0544 26048.9 -03413.6 -07.4658 26271.6
 20 02 2013  07 05  -21.0540 26048.9 -03413.5 -07.4657 26271.6
 20 02 2013  07 06  -21.0538 26048.7 -03413.4 -07.4654 26271.4
 20 02 2013  07 07  -21.0535 26048.5 -03413.3 -07.4652 26271.2
 20 02 2013  07 08  -21.0531 26048.5 -03413.2 -07.4651 26271.2
 20 02 2013  07 09  -21.0528 26048.6 -03413.2 -07.4651 26271.2
 20 02 2013  07 10  -21.0526 26048.7 -03413.3 -07.4653 26271.4
 20 02 2013  07 11  -21.0522 26048.9 -03413.4 -07.4654 26271.6
 20 02 2013  07 12  -21.0521 26049.0 -03413.4 -07.4655 26271.7
 20 02 2013  07 13  -21.0524 26049.1 -03413.5 -07.4656 26271.8
 20 02 2013  07 14  -21.0529 26049.2 -03413.6 -07.4657 26271.9
 20 02 2013  07 15  -21.0530 26049.1 -03413.5 -07.4656 26271.8
 20 02 2013  07 16  -21.0530 26048.9 -03413.4 -07.4653 26271.6
 20 02 2013  07 17  -21.0528 26048.9 -03413.3 -07.4652 26271.6
 20 02 2013  07 18  -21.0525 26048.9 -03413.3 -07.4652 26271.6
 20 02 2013  07 19  -21.0523 26048.9 -03413.3 -07.4651 26271.6
 20 02 2013  07 20  -21.0522 26048.7 -03413.2 -07.4650 26271.4
 20 02 2013  07 21  -21.0521 26048.5 -03413.1 -07.4648 26271.1
 20 02 2013  07 22  -21.0521 26048.2 -03412.9 -07.4646 26270.9
 20 02 2013  07 23  -21.0522 26048.1 -03412.8 -07.4644 26270.7
 20 02 2013  07 24  -21.0523 26047.9 -03412.7 -07.4642 26270.5
 20 02 2013  07 25  -21.0524 26048.0 -03412.8 -07.4643 26270.6
 20 02 2013  07 26  -21.0526 26048.1 -03412.9 -07.4645 26270.7
 20 02 2013  07 27  -21.0529 26048.2 -03413.0 -07.4647 26270.8
 20 02 2013  07 28  -21.0529 26048.3 -03413.0 -07.4647 26270.9
 20 02 2013  07 29  -21.0527 26048.5 -03413.1 -07.4648 26271.1
 20 02 2013  07 30  -21.0525 26048.6 -03413.2 -07.4650 26271.3
 20 02 2013  07 31  -21.0525 26048.8 -03413.3 -07.4651 26271.5
 20 02 2013  07 32  -21.0523 26048.8 -03413.2 -07.4651 26271.5
 20 02 2013  07 33  -21.0520 26048.7 -03413.2 -07.4649 26271.4
 20 02 2013  07 34  -21.0517 26048.6 -03413.1 -07.4648 26271.3
 20 02 2013  07 35  -21.0517 26048.6 -03413.1 -07.4648 26271.2
 20 02 2013  07 36  -21.0518 26048.6 -03413.1 -07.4648 26271.2
 20 02 2013  07 37  -21.0517 26048.5 -03413.1 -07.4648 26271.2
 20 02 2013  07 38  -21.0517 26048.5 -03413.1 -07.4648 26271.1
 20 02 2013  07 39  -21.0517 26048.5 -03413.1 -07.4648 26271.2
 20 02 2013  07 40  -21.0517 26048.6 -03413.1 -07.4648 26271.2
 20 02 2013  07 41  -21.0518 26048.6 -03413.1 -07.4649 26271.3
 20 02 2013  07 42  -21.0517 26048.6 -03413.2 -07.4650 26271.3
 20 02 2013  07 43  -21.0517 26048.7 -03413.2 -07.4650 26271.3
 20 02 2013  07 44  -21.0517 26048.7 -03413.2 -07.4650 26271.4
 20 02 2013  07 45  -21.0517 26048.7 -03413.2 -07.4650 26271.4
 20 02 2013  07 46  -21.0516 26048.7 -03413.2 -07.4650 26271.4
 20 02 2013  07 47  -21.0516 26048.8 -03413.2 -07.4650 26271.5
 20 02 2013  07 48  -21.0516 26048.9 -03413.3 -07.4651 26271.5
 20 02 2013  07 49  -21.0515 26049.0 -03413.3 -07.4652 26271.6
 20 02 2013  07 50  -21.0514 26049.0 -03413.3 -07.4652 26271.7
 20 02 2013  07 51  -21.0514 26049.1 -03413.4 -07.4653 26271.8
 20 02 2013  07 52  -21.0515 26049.1 -03413.4 -07.4654 26271.8
 20 02 2013  07 53  -21.0516 26049.2 -03413.4 -07.4654 26271.9
 20 02 2013  07 54  -21.0517 26049.1 -03413.4 -07.4653 26271.8
 20 02 2013  07 55  -21.0520 26049.0 -03413.3 -07.4652 26271.7
 20 02 2013  07 56  -21.0522 26048.9 -03413.3 -07.4651 26271.6
 20 02 2013  07 57  -21.0523 26048.9 -03413.3 -07.4651 26271.6
 20 02 2013  07 58  -21.0523 26048.9 -03413.3 -07.4652 26271.6
 20 02 2013  07 59  -21.0526 26048.9 -03413.3 -07.4652 26271.6
 20 02 2013  08 00  -21.0526 26049.0 -03413.3 -07.4652 26271.6
 20 02 2013  08 01  -21.0527 26049.0 -03413.4 -07.4653 26271.7
 20 02 2013  08 02  -21.0528 26049.0 -03413.4 -07.4653 26271.7
 20 02 2013  08 03  -21.0528 26048.9 -03413.3 -07.4652 26271.6
 20 02 2013  08 04  -21.0528 26048.9 -03413.3 -07.4652 26271.6
 20 02 2013  08 05  -21.0528 26048.8 -03413.3 -07.4652 26271.5
 20 02 2013  08 06  -21.0528 26048.8 -03413.3 -07.4652 26271.5
 20 02 2013  08 07  -21.0528 26048.8 -03413.3 -07.4652 26271.5
 20 02 2013  08 08  -21.0528 26048.7 -03413.3 -07.4652 26271.4
 20 02 2013  08 09  -21.0528 26048.7 -03413.3 -07.4652 26271.4
 20 02 2013  08 10  -21.0529 26048.7 -03413.3 -07.4652 26271.4
 20 02 2013  08 11  -21.0529 26048.8 -03413.3 -07.4653 26271.5
 20 02 2013  08 12  -21.0530 26048.9 -03413.4 -07.4654 26271.6
 20 02 2013  08 13  -21.0530 26049.1 -03413.5 -07.4656 26271.8
 20 02 2013  08 14  -21.0530 26049.1 -03413.5 -07.4656 26271.8
 20 02 2013  08 15  -21.0529 26049.3 -03413.6 -07.4657 26272.0
 20 02 2013  08 16  -21.0529 26049.3 -03413.6 -07.4658 26272.0
 20 02 2013  08 17  -21.0530 26049.5 -03413.7 -07.4659 26272.2
 20 02 2013  08 18  -21.0531 26049.5 -03413.7 -07.4660 26272.2
 20 02 2013  08 19  -21.0530 26049.6 -03413.8 -07.4660 26272.4
 20 02 2013  08 20  -21.0530 26049.7 -03413.8 -07.4660 26272.5
 20 02 2013  08 21  -21.0529 26049.8 -03413.8 -07.4660 26272.6
 20 02 2013  08 22  -21.0530 26050.0 -03413.8 -07.4660 26272.7
 20 02 2013  08 23  -21.0530 26050.2 -03414.0 -07.4662 26273.0
 20 02 2013  08 24  -21.0531 26050.3 -03414.0 -07.4663 26273.1
 20 02 2013  08 25  -21.0531 26050.5 -03414.1 -07.4664 26273.3
 20 02 2013  08 26  -21.0531 26050.6 -03414.1 -07.4664 26273.4
 20 02 2013  08 27  -21.0528 26051.0 -03414.3 -07.4668 26273.8
 20 02 2013  08 28  -21.0528 26051.2 -03414.3 -07.4668 26274.0
 20 02 2013  08 29  -21.0527 26051.4 -03414.5 -07.4670 26274.2
 20 02 2013  08 30  -21.0526 26051.6 -03414.5 -07.4670 26274.4
 20 02 2013  08 31  -21.0524 26051.8 -03414.6 -07.4671 26274.6
 20 02 2013  08 32  -21.0522 26052.0 -03414.6 -07.4671 26274.8
 20 02 2013  08 33  -21.0522 26052.0 -03414.6 -07.4670 26274.9
 20 02 2013  08 34  -21.0517 26052.1 -03414.6 -07.4671 26275.0
 20 02 2013  08 35  -21.0513 26052.2 -03414.6 -07.4670 26275.0
 20 02 2013  08 36  -21.0511 26052.2 -03414.5 -07.4668 26275.0
 20 02 2013  08 37  -21.0509 26052.1 -03414.4 -07.4667 26274.9
 20 02 2013  08 38  -21.0507 26052.1 -03414.4 -07.4666 26274.9
 20 02 2013  08 39  -21.0507 26052.1 -03414.4 -07.4666 26274.9
 20 02 2013  08 40  -21.0506 26051.9 -03414.2 -07.4664 26274.7
 20 02 2013  08 41  -21.0504 26051.8 -03414.2 -07.4662 26274.6
 20 02 2013  08 42  -21.0500 26051.8 -03414.1 -07.4661 26274.6
 20 02 2013  08 43  -21.0498 26051.8 -03414.1 -07.4661 26274.6
 20 02 2013  08 44  -21.0496 26051.8 -03414.1 -07.4661 26274.6
 20 02 2013  08 45  -21.0493 26051.7 -03414.0 -07.4659 26274.4
 20 02 2013  08 46  -21.0490 26051.5 -03413.9 -07.4658 26274.3
 20 02 2013  08 47  -21.0488 26051.4 -03413.8 -07.4656 26274.1
 20 02 2013  08 48  -21.0483 26051.5 -03413.8 -07.4655 26274.2
 20 02 2013  08 49  -21.0481 26051.7 -03413.9 -07.4657 26274.4
 20 02 2013  08 50  -21.0477 26051.8 -03414.0 -07.4658 26274.5
 20 02 2013  08 51  -21.0472 26052.0 -03414.1 -07.4659 26274.8
 20 02 2013  08 52  -21.0468 26052.3 -03414.2 -07.4661 26275.1
 20 02 2013  08 53  -21.0463 26052.5 -03414.3 -07.4663 26275.3
 20 02 2013  08 54  -21.0458 26052.7 -03414.4 -07.4664 26275.5
 20 02 2013  08 55  -21.0456 26052.8 -03414.4 -07.4664 26275.5
 20 02 2013  08 56  -21.0453 26052.7 -03414.5 -07.4666 26275.5
 20 02 2013  08 57  -21.0453 26052.6 -03414.5 -07.4666 26275.4
 20 02 2013  08 58  -21.0455 26052.4 -03414.4 -07.4666 26275.2
 20 02 2013  08 59  -21.0457 26052.2 -03414.4 -07.4666 26275.0
 20 02 2013  09 00  -21.0459 26052.1 -03414.4 -07.4667 26274.9
 20 02 2013  09 01  -21.0462 26052.1 -03414.5 -07.4669 26274.9
 20 02 2013  09 02  -21.0462 26052.2 -03414.7 -07.4672 26275.1
 20 02 2013  09 03  -21.0463 26052.4 -03414.8 -07.4675 26275.3
 20 02 2013  09 04  -21.0465 26052.6 -03415.0 -07.4678 26275.4
 20 02 2013  09 05  -21.0463 26052.9 -03415.3 -07.4683 26275.8
 20 02 2013  09 06  -21.0466 26053.2 -03415.5 -07.4687 26276.1
 20 02 2013  09 07  -21.0467 26052.9 -03415.5 -07.4688 26275.8
 20 02 2013  09 08  -21.0469 26052.5 -03415.3 -07.4685 26275.4
 20 02 2013  09 09  -21.0470 26052.3 -03415.2 -07.4683 26275.2
 20 02 2013  09 10  -21.0472 26051.8 -03415.1 -07.4682 26274.7
 20 02 2013  09 11  -21.0471 26051.3 -03414.9 -07.4679 26274.2
 20 02 2013  09 12  -21.0473 26050.9 -03414.7 -07.4676 26273.7
 20 02 2013  09 13  -21.0477 26050.3 -03414.5 -07.4675 26273.1
 20 02 2013  09 14  -21.0477 26049.7 -03414.3 -07.4672 26272.5
 20 02 2013  09 15  -21.0477 26049.2 -03414.3 -07.4671 26272.0
 20 02 2013  09 16  -21.0477 26048.6 -03414.2 -07.4672 26271.4
 20 02 2013  09 17  -21.0475 26047.7 -03413.9 -07.4668 26270.5
 20 02 2013  09 18  -21.0484 26047.2 -03413.8 -07.4668 26269.9
 20 02 2013  09 19  -21.0497 26046.6 -03413.7 -07.4666 26269.3
 20 02 2013  09 20  -21.0506 26045.8 -03413.4 -07.4664 26268.5
 20 02 2013  09 21  -21.0502 26045.2 -03413.2 -07.4661 26267.9
 20 02 2013  09 22  -21.0493 26044.7 -03413.3 -07.4662 26267.4
 20 02 2013  09 23  -21.0491 26044.7 -03413.6 -07.4670 26267.5
 20 02 2013  09 24  -21.0490 26045.0 -03414.1 -07.4680 26267.8
 20 02 2013  09 25  -21.0488 26045.3 -03414.5 -07.4689 26268.1
 20 02 2013  09 26  -21.0488 26045.5 -03414.9 -07.4697 26268.4
 20 02 2013  09 27  -21.0492 26045.5 -03415.1 -07.4700 26268.5
 20 02 2013  09 28  -21.0497 26045.6 -03415.3 -07.4705 26268.6
 20 02 2013  09 29  -21.0499 26045.9 -03415.5 -07.4708 26268.9
 20 02 2013  09 30  -21.0500 26046.1 -03415.6 -07.4709 26269.1
 20 02 2013  09 31  -21.0501 26046.3 -03415.7 -07.4711 26269.3
 20 02 2013  09 32  -21.0501 26046.6 -03415.8 -07.4713 26269.6
 20 02 2013  09 33  -21.0508 26046.8 -03416.0 -07.4716 26269.8
 20 02 2013  09 34  -21.0514 26047.1 -03416.1 -07.4718 26270.1
 20 02 2013  09 35  -21.0517 26047.2 -03416.1 -07.4717 26270.2
 20 02 2013  09 36  -21.0518 26046.9 -03415.9 -07.4714 26269.9
 20 02 2013  09 37  -21.0532 26046.8 -03415.8 -07.4712 26269.8
 20 02 2013  09 38  -21.0553 26046.9 -03415.8 -07.4711 26269.9
 20 02 2013  09 39  -21.0566 26046.9 -03415.7 -07.4709 26269.9
 20 02 2013  09 40  -21.0569 26046.6 -03415.5 -07.4705 26269.6
 20 02 2013  09 41  -21.0576 26046.4 -03415.4 -07.4704 26269.3
 20 02 2013  09 42  -21.0582 26046.3 -03415.3 -07.4703 26269.2
 20 02 2013  09 43  -21.0594 26046.3 -03415.4 -07.4705 26269.3
 20 02 2013  09 44  -21.0598 26046.4 -03415.5 -07.4706 26269.4
 20 02 2013  09 45  -21.0606 26046.8 -03415.6 -07.4708 26269.8
 20 02 2013  09 46  -21.0618 26047.2 -03415.7 -07.4709 26270.2
 20 02 2013  09 47  -21.0633 26047.7 -03415.8 -07.4710 26270.7
 20 02 2013  09 48  -21.0648 26048.5 -03416.0 -07.4711 26271.6
 20 02 2013  09 49  -21.0657 26049.2 -03416.1 -07.4710 26272.2
 20 02 2013  09 50  -21.0666 26050.1 -03416.2 -07.4711 26273.1
 20 02 2013  09 51  -21.0684 26051.0 -03416.4 -07.4712 26274.1
 20 02 2013  09 52  -21.0703 26051.8 -03416.4 -07.4709 26274.9
 20 02 2013  09 53  -21.0722 26052.2 -03416.0 -07.4702 26275.2
 20 02 2013  09 54  -21.0733 26052.2 -03415.6 -07.4692 26275.2
 20 02 2013  09 55  -21.0736 26051.7 -03415.1 -07.4683 26274.6
 20 02 2013  09 56  -21.0731 26050.9 -03414.5 -07.4671 26273.7
 20 02 2013  09 57  -21.0733 26050.3 -03414.1 -07.4666 26273.1
 20 02 2013  09 58  -21.0735 26049.8 -03413.9 -07.4663 26272.5
 20 02 2013  09 59  -21.0739 26049.6 -03413.9 -07.4663 26272.4
 20 02 2013  10 00  -21.0751 26050.0 -03414.2 -07.4667 26272.8
 20 02 2013  10 01  -21.0767 26050.3 -03414.3 -07.4669 26273.1
 20 02 2013  10 02  -21.0785 26050.6 -03414.4 -07.4670 26273.4
 20 02 2013  10 03  -21.0786 26050.5 -03414.2 -07.4666 26273.3
 20 02 2013  10 04  -21.0798 26050.4 -03414.0 -07.4662 26273.2
 20 02 2013  10 05  -21.0806 26050.9 -03414.0 -07.4662 26273.6
 20 02 2013  10 06  -21.0808 26051.0 -03413.9 -07.4659 26273.7
 20 02 2013  10 07  -21.0825 26051.2 -03413.9 -07.4658 26274.0
 20 02 2013  10 08  -21.0819 26051.2 -03413.7 -07.4654 26273.9
 20 02 2013  10 09  -21.0817 26051.4 -03413.6 -07.4651 26274.1
 20 02 2013  10 10  -21.0835 26052.0 -03413.8 -07.4653 26274.7
 20 02 2013  10 11  -21.0831 26052.0 -03413.5 -07.4648 26274.6
 20 02 2013  10 12  -21.0831 26051.9 -03413.3 -07.4643 26274.5
 20 02 2013  10 13  -21.0833 26051.8 -03413.2 -07.4641 26274.5
 20 02 2013  10 14  -21.0840 26052.1 -03413.1 -07.4639 26274.7
 20 02 2013  10 15  -21.0849 26052.2 -03413.1 -07.4637 26274.9
 20 02 2013  10 16  -21.0848 26052.1 -03412.9 -07.4633 26274.7
 20 02 2013  10 17  -21.0853 26052.4 -03412.9 -07.4632 26275.0
 20 02 2013  10 18  -21.0856 26052.4 -03412.8 -07.4631 26275.0
 20 02 2013  10 19  -21.0853 26052.1 -03412.5 -07.4625 26274.6
 20 02 2013  10 20  -21.0860 26052.4 -03412.6 -07.4626 26274.9
 20 02 2013  10 21  -21.0862 26052.7 -03412.6 -07.4625 26275.2
 20 02 2013  10 22  -21.0859 26052.6 -03412.3 -07.4620 26275.1
 20 02 2013  10 23  -21.0870 26053.1 -03412.4 -07.4621 26275.6
 20 02 2013  10 24  -21.0867 26052.8 -03412.2 -07.4616 26275.3
 20 02 2013  10 25  -21.0863 26052.3 -03411.9 -07.4613 26274.7
 20 02 2013  10 26  -21.0858 26051.7 -03411.8 -07.4611 26274.1
 20 02 2013  10 27  -21.0849 26051.3 -03411.8 -07.4611 26273.8
 20 02 2013  10 28  -21.0851 26051.3 -03411.9 -07.4615 26273.8
 20 02 2013  10 29  -21.0851 26051.4 -03412.1 -07.4619 26273.9
 20 02 2013  10 30  -21.0852 26051.5 -03412.3 -07.4622 26274.0
 20 02 2013  10 31  -21.0848 26051.5 -03412.3 -07.4623 26274.0
 20 02 2013  10 32  -21.0848 26051.7 -03412.5 -07.4626 26274.3
 20 02 2013  10 33  -21.0855 26052.0 -03412.6 -07.4628 26274.5
 20 02 2013  10 34  -21.0852 26051.6 -03412.4 -07.4625 26274.2
 20 02 2013  10 35  -21.0849 26051.4 -03412.4 -07.4624 26273.9
 20 02 2013  10 36  -21.0840 26051.1 -03412.3 -07.4624 26273.6
 20 02 2013  10 37  -21.0843 26051.3 -03412.5 -07.4627 26273.9
 20 02 2013  10 38  -21.0836 26051.1 -03412.5 -07.4628 26273.7
 20 02 2013  10 39  -21.0838 26051.0 -03412.5 -07.4629 26273.6
 20 02 2013  10 40  -21.0836 26051.1 -03412.6 -07.4630 26273.7
 20 02 2013  10 41  -21.0837 26051.2 -03412.7 -07.4632 26273.8
 20 02 2013  10 42  -21.0834 26051.2 -03412.7 -07.4632 26273.8
 20 02 2013  10 43  -21.0833 26051.2 -03412.6 -07.4630 26273.8
 20 02 2013  10 44  -21.0834 26051.3 -03412.6 -07.4630 26273.9
 20 02 2013  10 45  -21.0836 26051.5 -03412.6 -07.4630 26274.1
 20 02 2013  10 46  -21.0830 26051.4 -03412.5 -07.4627 26273.9
 20 02 2013  10 47  -21.0828 26050.8 -03412.2 -07.4623 26273.3
 20 02 2013  10 48  -21.0821 26050.3 -03412.1 -07.4621 26272.9
 20 02 2013  10 49  -21.0830 26050.5 -03412.3 -07.4626 26273.0
 20 02 2013  10 50  -21.0833 26050.9 -03412.6 -07.4630 26273.4
 20 02 2013  10 51  -21.0822 26051.2 -03412.7 -07.4633 26273.8
 20 02 2013  10 52  -21.0807 26051.0 -03412.6 -07.4630 26273.6
 20 02 2013  10 53  -21.0810 26051.3 -03412.7 -07.4632 26273.9
 20 02 2013  10 54  -21.0819 26051.9 -03412.9 -07.4635 26274.5
 20 02 2013  10 55  -21.0827 26052.2 -03412.8 -07.4633 26274.8
 20 02 2013  10 56  -21.0829 26052.1 -03412.6 -07.4628 26274.7
 20 02 2013  10 57  -21.0825 26051.7 -03412.3 -07.4622 26274.2
 20 02 2013  10 58  -21.0830 26051.5 -03412.1 -07.4619 26274.0
 20 02 2013  10 59  -21.0834 26051.3 -03412.0 -07.4617 26273.8
 20 02 2013  11 00  -21.0824 26051.5 -03411.9 -07.4615 26274.0
 20 02 2013  11 01  -21.0824 26051.6 -03411.9 -07.4613 26274.0
 20 02 2013  11 02  -21.0826 26051.9 -03411.9 -07.4612 26274.4
 20 02 2013  11 03  -21.0818 26052.2 -03411.8 -07.4610 26274.7
 20 02 2013  11 04  -21.0814 26052.5 -03411.7 -07.4607 26274.9
 20 02 2013  11 05  -21.0817 26052.9 -03411.7 -07.4605 26275.3
 20 02 2013  11 06  -21.0810 26052.8 -03411.4 -07.4599 26275.2
 20 02 2013  11 07  -21.0803 26052.6 -03411.2 -07.4595 26274.9
 20 02 2013  11 08  -21.0802 26052.7 -03411.2 -07.4595 26275.1
 20 02 2013  11 09  -21.0797 26052.4 -03411.0 -07.4592 26274.7
 20 02 2013  11 10  -21.0796 26052.6 -03411.1 -07.4593 26275.0
 20 02 2013  11 11  -21.0785 26052.3 -03410.9 -07.4591 26274.6
 20 02 2013  11 12  -21.0780 26052.0 -03410.9 -07.4590 26274.3
 20 02 2013  11 13  -21.0798 26052.5 -03411.2 -07.4595 26274.8
 20 02 2013  11 14  -21.0804 26053.4 -03411.5 -07.4601 26275.8
 20 02 2013  11 15  -21.0807 26053.9 -03411.6 -07.4600 26276.3
 20 02 2013  11 16  -21.0805 26053.7 -03411.4 -07.4596 26276.1
 20 02 2013  11 17  -21.0803 26053.1 -03411.1 -07.4592 26275.4
 20 02 2013  11 18  -21.0800 26052.8 -03411.1 -07.4592 26275.2
 20 02 2013  11 19  -21.0804 26052.6 -03411.1 -07.4595 26274.9
 20 02 2013  11 20  -21.0796 26052.2 -03411.1 -07.4594 26274.5
 20 02 2013  11 21  -21.0788 26051.8 -03410.9 -07.4592 26274.1
 20 02 2013  11 22  -21.0778 26052.0 -03411.1 -07.4596 26274.4
 20 02 2013  11 23  -21.0781 26052.2 -03411.3 -07.4600 26274.6
 20 02 2013  11 24  -21.0788 26052.3 -03411.5 -07.4602 26274.7
 20 02 2013  11 25  -21.0787 26052.4 -03411.5 -07.4603 26274.8
 20 02 2013  11 26  -21.0783 26052.3 -03411.4 -07.4601 26274.7
 20 02 2013  11 27  -21.0779 26052.3 -03411.4 -07.4600 26274.7
 20 02 2013  11 28  -21.0773 26052.8 -03411.5 -07.4601 26275.2
 20 02 2013  11 29  -21.0763 26053.6 -03411.7 -07.4603 26276.0
 20 02 2013  11 30  -21.0756 26053.7 -03411.5 -07.4599 26276.1
 20 02 2013  11 31  -21.0747 26053.5 -03411.3 -07.4595 26275.9
 20 02 2013  11 32  -21.0741 26053.2 -03411.1 -07.4592 26275.6
 20 02 2013  11 33  -21.0737 26053.2 -03411.1 -07.4591 26275.5
 20 02 2013  11 34  -21.0730 26053.4 -03411.2 -07.4594 26275.8
 20 02 2013  11 35  -21.0730 26053.7 -03411.4 -07.4597 26276.1
 20 02 2013  11 36  -21.0737 26054.0 -03411.6 -07.4601 26276.4
 20 02 2013  11 37  -21.0740 26054.3 -03411.8 -07.4603 26276.7
 20 02 2013  11 38  -21.0730 26054.1 -03411.7 -07.4601 26276.5
 20 02 2013  11 39  -21.0723 26054.0 -03411.6 -07.4601 26276.4
 20 02 2013  11 40  -21.0726 26054.2 -03411.8 -07.4604 26276.6
 20 02 2013  11 41  -21.0721 26054.3 -03411.8 -07.4605 26276.7
 20 02 2013  11 42  -21.0717 26054.3 -03411.9 -07.4605 26276.7
 20 02 2013  11 43  -21.0715 26054.4 -03411.9 -07.4606 26276.8
 20 02 2013  11 44  -21.0714 26054.3 -03411.9 -07.4606 26276.8
 20 02 2013  11 45  -21.0706 26054.3 -03411.9 -07.4607 26276.7
 20 02 2013  11 46  -21.0699 26053.9 -03411.8 -07.4605 26276.3
 20 02 2013  11 47  -21.0695 26053.6 -03411.8 -07.4605 26276.0
 20 02 2013  11 48  -21.0692 26053.3 -03411.8 -07.4606 26275.7
 20 02 2013  11 49  -21.0693 26053.2 -03411.8 -07.4608 26275.6
 20 02 2013  11 50  -21.0700 26053.3 -03412.0 -07.4611 26275.8
 20 02 2013  11 51  -21.0707 26053.6 -03412.3 -07.4616 26276.1
 20 02 2013  11 52  -21.0710 26053.5 -03412.3 -07.4617 26276.0
 20 02 2013  11 53  -21.0706 26053.1 -03412.1 -07.4615 26275.6
 20 02 2013  11 54  -21.0700 26052.8 -03412.1 -07.4614 26275.3
 20 02 2013  11 55  -21.0701 26052.8 -03412.1 -07.4615 26275.3
 20 02 2013  11 56  -21.0702 26053.1 -03412.2 -07.4617 26275.6
 20 02 2013  11 57  -21.0703 26054.0 -03412.4 -07.4619 26276.5
 20 02 2013  11 58  -21.0706 26054.4 -03412.3 -07.4615 26276.9
 20 02 2013  11 59  -21.0705 26053.8 -03411.8 -07.4605 26276.2
 20 02 2013  12 00  -21.0700 26053.3 -03411.5 -07.4600 26275.7
 20 02 2013  12 01  -21.0699 26052.8 -03411.3 -07.4596 26275.2
 20 02 2013  12 02  -21.0694 26053.0 -03411.3 -07.4598 26275.4
 20 02 2013  12 03  -21.0687 26053.4 -03411.5 -07.4599 26275.8
 20 02 2013  12 04  -21.0685 26053.5 -03411.6 -07.4601 26276.0
 20 02 2013  12 05  -21.0686 26054.0 -03411.7 -07.4604 26276.4
 20 02 2013  12 06  -21.0690 26053.9 -03411.7 -07.4604 26276.4
 20 02 2013  12 07  -21.0690 26053.7 -03411.6 -07.4602 26276.1
 20 02 2013  12 08  -21.0691 26053.8 -03411.7 -07.4603 26276.3
 20 02 2013  12 09  -21.0688 26054.0 -03411.7 -07.4603 26276.4
 20 02 2013  12 10  -21.0680 26053.9 -03411.6 -07.4602 26276.3
 20 02 2013  12 11  -21.0676 26054.2 -03411.8 -07.4604 26276.7
 20 02 2013  12 12  -21.0672 26054.7 -03412.0 -07.4606 26277.1
 20 02 2013  12 13  -21.0672 26055.0 -03412.1 -07.4608 26277.5
 20 02 2013  12 14  -21.0674 26055.2 -03412.0 -07.4606 26277.7
 20 02 2013  12 15  -21.0681 26055.7 -03412.1 -07.4606 26278.2
 20 02 2013  12 16  -21.0684 26056.2 -03412.1 -07.4605 26278.7
 20 02 2013  12 17  -21.0685 26056.6 -03412.0 -07.4602 26279.1
 20 02 2013  12 18  -21.0685 26056.5 -03411.8 -07.4597 26279.0
 20 02 2013  12 19  -21.0682 26056.7 -03411.6 -07.4593 26279.1
 20 02 2013  12 20  -21.0679 26057.0 -03411.5 -07.4590 26279.4
 20 02 2013  12 21  -21.0680 26057.4 -03411.5 -07.4588 26279.8
 20 02 2013  12 22  -21.0683 26057.9 -03411.4 -07.4586 26280.3
 20 02 2013  12 23  -21.0687 26058.0 -03411.2 -07.4581 26280.3
 20 02 2013  12 24  -21.0685 26058.1 -03411.0 -07.4577 26280.4
 20 02 2013  12 25  -21.0679 26058.1 -03410.9 -07.4573 26280.4
 20 02 2013  12 26  -21.0673 26058.1 -03410.7 -07.4569 26280.4
 20 02 2013  12 27  -21.0666 26058.3 -03410.6 -07.4568 26280.5
 20 02 2013  12 28  -21.0657 26058.5 -03410.6 -07.4566 26280.8
 20 02 2013  12 29  -21.0653 26058.4 -03410.4 -07.4563 26280.6
 20 02 2013  12 30  -21.0651 26058.6 -03410.4 -07.4562 26280.8
 20 02 2013  12 31  -21.0646 26058.3 -03410.2 -07.4558 26280.5
 20 02 2013  12 32  -21.0637 26058.4 -03410.2 -07.4557 26280.6
 20 02 2013  12 33  -21.0631 26058.9 -03410.3 -07.4559 26281.1
 20 02 2013  12 34  -21.0626 26058.9 -03410.3 -07.4558 26281.0
 20 02 2013  12 35  -21.0623 26059.2 -03410.3 -07.4558 26281.4
 20 02 2013  12 36  -21.0620 26060.1 -03410.6 -07.4562 26282.3
 20 02 2013  12 37  -21.0619 26060.7 -03410.7 -07.4563 26282.9
 20 02 2013  12 38  -21.0612 26061.1 -03410.7 -07.4561 26283.3
 20 02 2013  12 39  -21.0597 26061.4 -03410.6 -07.4558 26283.6
 20 02 2013  12 40  -21.0590 26061.5 -03410.5 -07.4555 26283.7
 20 02 2013  12 41  -21.0594 26062.0 -03410.6 -07.4556 26284.2
 20 02 2013  12 42  -21.0594 26061.7 -03410.4 -07.4552 26283.9
 20 02 2013  12 43  -21.0589 26061.0 -03410.0 -07.4546 26283.1
 20 02 2013  12 44  -21.0590 26060.7 -03409.9 -07.4545 26282.8
 20 02 2013  12 45  -21.0590 26060.4 -03409.9 -07.4545 26282.6
 20 02 2013  12 46  -21.0589 26059.8 -03409.7 -07.4544 26282.0
 20 02 2013  12 47  -21.0589 26059.5 -03409.8 -07.4545 26281.6
 20 02 2013  12 48  -21.0592 26059.3 -03409.9 -07.4548 26281.5
 20 02 2013  12 49  -21.0590 26059.1 -03409.9 -07.4550 26281.3
 20 02 2013  12 50  -21.0590 26059.3 -03410.2 -07.4555 26281.5
 20 02 2013  12 51  -21.0592 26059.0 -03410.3 -07.4557 26281.2
 20 02 2013  12 52  -21.0591 26058.7 -03410.3 -07.4558 26280.9
 20 02 2013  12 53  -21.0594 26058.6 -03410.4 -07.4562 26280.8
 20 02 2013  12 54  -21.0601 26058.7 -03410.6 -07.4565 26280.9
 20 02 2013  12 55  -21.0605 26058.9 -03410.7 -07.4567 26281.1
 20 02 2013  12 56  -21.0608 26059.1 -03410.8 -07.4569 26281.4
 20 02 2013  12 57  -21.0607 26059.4 -03410.8 -07.4569 26281.7
 20 02 2013  12 58  -21.0607 26059.6 -03410.8 -07.4568 26281.8
 20 02 2013  12 59  -21.0604 26059.5 -03410.8 -07.4567 26281.7
 20 02 2013  13 00  -21.0599 26059.2 -03410.6 -07.4565 26281.4
 20 02 2013  13 01  -21.0594 26058.9 -03410.6 -07.4565 26281.1
 20 02 2013  13 02  -21.0589 26058.5 -03410.6 -07.4566 26280.8
 20 02 2013  13 03  -21.0585 26058.4 -03410.7 -07.4569 26280.6
 20 02 2013  13 04  -21.0585 26058.5 -03410.9 -07.4572 26280.8
 20 02 2013  13 05  -21.0583 26058.7 -03411.0 -07.4575 26281.0
 20 02 2013  13 06  -21.0582 26058.5 -03411.1 -07.4576 26280.9
 20 02 2013  13 07  -21.0583 26058.6 -03411.1 -07.4578 26280.9
 20 02 2013  13 08  -21.0584 26058.8 -03411.3 -07.4580 26281.2
 20 02 2013  13 09  -21.0588 26059.0 -03411.3 -07.4581 26281.3
 20 02 2013  13 10  -21.0591 26059.0 -03411.3 -07.4579 26281.3
 20 02 2013  13 11  -21.0589 26058.6 -03411.0 -07.4575 26280.9
 20 02 2013  13 12  -21.0585 26058.0 -03410.8 -07.4572 26280.3
 20 02 2013  13 13  -21.0579 26057.8 -03410.7 -07.4571 26280.0
 20 02 2013  13 14  -21.0574 26057.9 -03410.9 -07.4574 26280.2
 20 02 2013  13 15  -21.0570 26057.9 -03410.9 -07.4575 26280.2
 20 02 2013  13 16  -21.0569 26057.7 -03410.9 -07.4575 26280.0
 20 02 2013  13 17  -21.0565 26058.0 -03411.0 -07.4575 26280.3
 20 02 2013  13 18  -21.0557 26059.0 -03411.2 -07.4578 26281.3
 20 02 2013  13 19  -21.0550 26059.2 -03411.1 -07.4575 26281.5
 20 02 2013  13 20  -21.0544 26059.5 -03411.1 -07.4573 26281.8
 20 02 2013  13 21  -21.0539 26059.9 -03411.1 -07.4573 26282.2
 20 02 2013  13 22  -21.0535 26060.1 -03411.0 -07.4569 26282.3
 20 02 2013  13 23  -21.0528 26060.2 -03410.9 -07.4567 26282.5
 20 02 2013  13 24  -21.0521 26060.7 -03410.9 -07.4566 26283.0
 20 02 2013  13 25  -21.0515 26060.9 -03410.7 -07.4562 26283.1
 20 02 2013  13 26  -21.0510 26060.7 -03410.5 -07.4559 26282.9
 20 02 2013  13 27  -21.0508 26060.5 -03410.3 -07.4555 26282.7
 20 02 2013  13 28  -21.0508 26060.3 -03410.2 -07.4553 26282.5
 20 02 2013  13 29  -21.0503 26060.1 -03410.1 -07.4551 26282.2
 20 02 2013  13 30  -21.0502 26060.4 -03410.3 -07.4554 26282.5
 20 02 2013  13 31  -21.0504 26060.5 -03410.3 -07.4554 26282.7
 20 02 2013  13 32  -21.0502 26060.6 -03410.2 -07.4552 26282.8
 20 02 2013  13 33  -21.0502 26060.9 -03410.2 -07.4551 26283.0
 20 02 2013  13 34  -21.0505 26061.3 -03410.2 -07.4549 26283.5
 20 02 2013  13 35  -21.0504 26061.7 -03410.1 -07.4547 26283.9
 20 02 2013  13 36  -21.0500 26062.0 -03410.0 -07.4544 26284.2
 20 02 2013  13 37  -21.0492 26062.3 -03409.9 -07.4539 26284.5
 20 02 2013  13 38  -21.0484 26062.7 -03409.8 -07.4536 26284.8
 20 02 2013  13 39  -21.0477 26062.4 -03409.5 -07.4531 26284.5
 20 02 2013  13 40  -21.0467 26062.2 -03409.3 -07.4527 26284.3
 20 02 2013  13 41  -21.0464 26062.9 -03409.5 -07.4529 26284.9
 20 02 2013  13 42  -21.0461 26063.5 -03409.6 -07.4531 26285.5
 20 02 2013  13 43  -21.0459 26064.1 -03409.8 -07.4533 26286.2
 20 02 2013  13 44  -21.0462 26064.6 -03409.9 -07.4533 26286.7
 20 02 2013  13 45  -21.0459 26064.6 -03409.7 -07.4529 26286.6
 20 02 2013  13 46  -21.0456 26065.3 -03409.8 -07.4529 26287.4
 20 02 2013  13 47  -21.0453 26065.5 -03409.6 -07.4526 26287.6
 20 02 2013  13 48  -21.0447 26064.9 -03409.2 -07.4518 26286.9
 20 02 2013  13 49  -21.0446 26064.8 -03409.1 -07.4516 26286.8
 20 02 2013  13 50  -21.0450 26064.5 -03409.0 -07.4514 26286.5
 20 02 2013  13 51  -21.0446 26063.7 -03408.7 -07.4510 26285.6
 20 02 2013  13 52  -21.0437 26062.6 -03408.3 -07.4506 26284.5
 20 02 2013  13 53  -21.0428 26062.0 -03408.4 -07.4509 26284.0
 20 02 2013  13 54  -21.0424 26062.0 -03408.8 -07.4517 26284.0
 20 02 2013  13 55  -21.0425 26062.1 -03409.2 -07.4526 26284.1
 20 02 2013  13 56  -21.0428 26061.9 -03409.6 -07.4535 26284.0
 20 02 2013  13 57  -21.0433 26061.7 -03409.9 -07.4543 26283.8
 20 02 2013  13 58  -21.0438 26061.7 -03410.3 -07.4550 26283.9
 20 02 2013  13 59  -21.0441 26061.6 -03410.5 -07.4556 26283.8
 20 02 2013  14 00  -21.0442 26061.2 -03410.6 -07.4558 26283.4
 20 02 2013  14 01  -21.0450 26061.1 -03410.7 -07.4560 26283.3
 20 02 2013  14 02  -21.0455 26060.7 -03410.6 -07.4559 26282.9
 20 02 2013  14 03  -21.0461 26060.3 -03410.5 -07.4560 26282.5
 20 02 2013  14 04  -21.0458 26059.6 -03410.4 -07.4558 26281.8
 20 02 2013  14 05  -21.0456 26059.4 -03410.5 -07.4560 26281.6
 20 02 2013  14 06  -21.0465 26059.9 -03410.8 -07.4566 26282.1
 20 02 2013  14 07  -21.0473 26060.3 -03411.0 -07.4570 26282.6
 20 02 2013  14 08  -21.0478 26060.5 -03411.1 -07.4572 26282.8
 20 02 2013  14 09  -21.0480 26060.2 -03411.0 -07.4571 26282.5
 20 02 2013  14 10  -21.0483 26060.2 -03411.0 -07.4570 26282.4
 20 02 2013  14 11  -21.0486 26060.3 -03411.1 -07.4571 26282.5
 20 02 2013  14 12  -21.0484 26059.7 -03410.9 -07.4569 26282.0
 20 02 2013  14 13  -21.0483 26059.2 -03410.8 -07.4568 26281.4
 20 02 2013  14 14  -21.0477 26058.2 -03410.6 -07.4566 26280.5
 20 02 2013  14 15  -21.0477 26057.5 -03410.6 -07.4568 26279.7
 20 02 2013  14 16  -21.0478 26056.7 -03410.6 -07.4571 26279.0
 20 02 2013  14 17  -21.0478 26056.4 -03410.8 -07.4576 26278.7
 20 02 2013  14 18  -21.0468 26055.7 -03410.8 -07.4578 26278.0
 20 02 2013  14 19  -21.0461 26054.9 -03410.8 -07.4580 26277.2
 20 02 2013  14 20  -21.0460 26054.3 -03410.9 -07.4585 26276.7
 20 02 2013  14 21  -21.0457 26054.0 -03411.2 -07.4592 26276.4
 20 02 2013  14 22  -21.0456 26053.2 -03411.3 -07.4597 26275.6
 20 02 2013  14 23  -21.0459 26052.6 -03411.5 -07.4603 26275.0
 20 02 2013  14 24  -21.0455 26052.2 -03411.8 -07.4610 26274.6
 20 02 2013  14 25  -21.0451 26051.7 -03412.0 -07.4617 26274.2
 20 02 2013  14 26  -21.0448 26051.2 -03412.3 -07.4623 26273.7
 20 02 2013  14 27  -21.0446 26050.8 -03412.5 -07.4630 26273.4
 20 02 2013  14 28  -21.0448 26050.5 -03412.9 -07.4639 26273.1
 20 02 2013  14 29  -21.0447 26050.5 -03413.4 -07.4648 26273.2
 20 02 2013  14 30  -21.0454 26050.9 -03413.9 -07.4660 26273.6
 20 02 2013  14 31  -21.0460 26050.9 -03414.3 -07.4667 26273.7
 20 02 2013  14 32  -21.0464 26050.8 -03414.4 -07.4671 26273.6
 20 02 2013  14 33  -21.0468 26050.7 -03414.6 -07.4675 26273.5
 20 02 2013  14 34  -21.0478 26050.6 -03414.8 -07.4679 26273.4
 20 02 2013  14 35  -21.0487 26051.0 -03415.1 -07.4685 26273.8
 20 02 2013  14 36  -21.0499 26051.2 -03415.3 -07.4689 26274.2
 20 02 2013  14 37  -21.0500 26051.1 -03415.3 -07.4689 26274.0
 20 02 2013  14 38  -21.0505 26051.7 -03415.6 -07.4693 26274.6
 20 02 2013  14 39  -21.0511 26052.2 -03415.8 -07.4695 26275.2
 20 02 2013  14 40  -21.0516 26052.4 -03415.7 -07.4695 26275.4
 20 02 2013  14 41  -21.0519 26052.8 -03415.8 -07.4694 26275.7
 20 02 2013  14 42  -21.0524 26053.4 -03415.9 -07.4695 26276.4
 20 02 2013  14 43  -21.0527 26053.7 -03415.9 -07.4694 26276.7
 20 02 2013  14 44  -21.0531 26054.0 -03415.8 -07.4690 26276.9
 20 02 2013  14 45  -21.0537 26053.9 -03415.6 -07.4687 26276.8
 20 02 2013  14 46  -21.0543 26053.3 -03415.2 -07.4681 26276.2
 20 02 2013  14 47  -21.0553 26053.6 -03415.3 -07.4681 26276.5
 20 02 2013  14 48  -21.0563 26053.7 -03415.2 -07.4679 26276.6
 20 02 2013  14 49  -21.0571 26053.2 -03414.9 -07.4674 26276.1
 20 02 2013  14 50  -21.0579 26053.1 -03414.7 -07.4670 26275.9
 20 02 2013  14 51  -21.0582 26052.7 -03414.4 -07.4666 26275.5
 20 02 2013  14 52  -21.0592 26052.8 -03414.4 -07.4665 26275.6
 20 02 2013  14 53  -21.0597 26052.5 -03414.2 -07.4662 26275.3
 20 02 2013  14 54  -21.0599 26052.8 -03414.3 -07.4662 26275.5
 20 02 2013  14 55  -21.0609 26053.1 -03414.3 -07.4661 26275.9
 20 02 2013  14 56  -21.0616 26053.1 -03414.1 -07.4658 26275.8
 20 02 2013  14 57  -21.0630 26053.1 -03413.9 -07.4654 26275.8
 20 02 2013  14 58  -21.0640 26053.3 -03413.9 -07.4653 26276.1
 20 02 2013  14 59  -21.0643 26053.8 -03413.8 -07.4649 26276.5
 20 02 2013  15 00  -21.0648 26054.4 -03413.8 -07.4646 26277.1
 20 02 2013  15 01  -21.0648 26053.8 -03413.2 -07.4635 26276.4
 20 02 2013  15 02  -21.0651 26052.9 -03412.5 -07.4624 26275.4
 20 02 2013  15 03  -21.0654 26052.6 -03412.2 -07.4617 26275.1
 20 02 2013  15 04  -21.0654 26052.4 -03411.8 -07.4610 26274.8
 20 02 2013  15 05  -21.0653 26052.2 -03411.5 -07.4604 26274.7
 20 02 2013  15 06  -21.0652 26052.2 -03411.2 -07.4597 26274.6
 20 02 2013  15 07  -21.0652 26052.4 -03411.0 -07.4591 26274.8
 20 02 2013  15 08  -21.0652 26052.2 -03410.5 -07.4583 26274.5
 20 02 2013  15 09  -21.0648 26052.1 -03410.1 -07.4574 26274.4
 20 02 2013  15 10  -21.0639 26052.8 -03410.0 -07.4568 26275.0
 20 02 2013  15 11  -21.0628 26053.5 -03409.8 -07.4564 26275.7
 20 02 2013  15 12  -21.0612 26053.7 -03409.5 -07.4556 26275.8
 20 02 2013  15 13  -21.0599 26053.6 -03409.2 -07.4550 26275.7
 20 02 2013  15 14  -21.0595 26054.3 -03409.3 -07.4549 26276.4
 20 02 2013  15 15  -21.0591 26055.1 -03409.4 -07.4550 26277.2
 20 02 2013  15 16  -21.0577 26056.0 -03409.4 -07.4548 26278.1
 20 02 2013  15 17  -21.0563 26057.1 -03409.6 -07.4548 26279.2
 20 02 2013  15 18  -21.0551 26057.9 -03409.6 -07.4547 26280.0
 20 02 2013  15 19  -21.0542 26058.5 -03409.5 -07.4543 26280.6
 20 02 2013  15 20  -21.0534 26059.0 -03409.4 -07.4540 26281.1
 20 02 2013  15 21  -21.0523 26059.0 -03409.2 -07.4534 26281.1
 20 02 2013  15 22  -21.0511 26058.9 -03408.9 -07.4528 26280.9
 20 02 2013  15 23  -21.0504 26058.4 -03408.6 -07.4523 26280.4
 20 02 2013  15 24  -21.0500 26058.0 -03408.4 -07.4520 26280.0
 20 02 2013  15 25  -21.0503 26058.0 -03408.5 -07.4523 26280.0
 20 02 2013  15 26  -21.0501 26057.8 -03408.5 -07.4523 26279.8
 20 02 2013  15 27  -21.0496 26058.0 -03408.7 -07.4526 26280.0
 20 02 2013  15 28  -21.0492 26058.4 -03408.9 -07.4530 26280.5
 20 02 2013  15 29  -21.0485 26058.5 -03409.0 -07.4532 26280.5
 20 02 2013  15 30  -21.0478 26058.4 -03409.1 -07.4535 26280.5
 20 02 2013  15 31  -21.0466 26057.9 -03409.1 -07.4536 26280.0
 20 02 2013  15 32  -21.0457 26057.2 -03409.2 -07.4539 26279.2
 20 02 2013  15 33  -21.0457 26056.8 -03409.4 -07.4545 26278.9
 20 02 2013  15 34  -21.0460 26056.9 -03409.8 -07.4554 26279.0
 20 02 2013  15 35  -21.0457 26056.6 -03410.0 -07.4559 26278.8
 20 02 2013  15 36  -21.0451 26056.3 -03410.1 -07.4562 26278.5
 20 02 2013  15 37  -21.0448 26056.2 -03410.4 -07.4568 26278.5
 20 02 2013  15 38  -21.0450 26056.7 -03410.9 -07.4577 26279.0
 20 02 2013  15 39  -21.0453 26057.2 -03411.2 -07.4583 26279.6
 20 02 2013  15 40  -21.0448 26057.1 -03411.2 -07.4584 26279.4
 20 02 2013  15 41  -21.0436 26055.8 -03410.9 -07.4580 26278.1
 20 02 2013  15 42  -21.0429 26055.0 -03411.0 -07.4584 26277.3
 20 02 2013  15 43  -21.0432 26054.8 -03411.4 -07.4594 26277.2
 20 02 2013  15 44  -21.0444 26055.0 -03412.0 -07.4606 26277.4
 20 02 2013  15 45  -21.0452 26054.6 -03412.2 -07.4612 26277.1
 20 02 2013  15 46  -21.0453 26054.5 -03412.5 -07.4619 26277.0
 20 02 2013  15 47  -21.0449 26054.3 -03412.8 -07.4626 26276.8
 20 02 2013  15 48  -21.0440 26054.3 -03413.2 -07.4634 26276.9
 20 02 2013  15 49  -21.0427 26054.5 -03413.7 -07.4644 26277.1
 20 02 2013  15 50  -21.0426 26055.3 -03414.4 -07.4656 26278.0
 20 02 2013  15 51  -21.0434 26056.3 -03415.0 -07.4668 26279.2
 20 02 2013  15 52  -21.0456 26057.9 -03415.6 -07.4677 26280.8
 20 02 2013  15 53  -21.0483 26059.1 -03416.0 -07.4680 26282.0
 20 02 2013  15 54  -21.0502 26059.5 -03415.8 -07.4676 26282.4
 20 02 2013  15 55  -21.0509 26059.1 -03415.3 -07.4666 26282.0
 20 02 2013  15 56  -21.0510 26058.8 -03415.0 -07.4659 26281.7
 20 02 2013  15 57  -21.0509 26058.3 -03414.6 -07.4654 26281.1
 20 02 2013  15 58  -21.0506 26057.6 -03414.3 -07.4650 26280.3
 20 02 2013  15 59  -21.0504 26057.2 -03414.3 -07.4649 26280.0
 20 02 2013  16 00  -21.0503 26057.5 -03414.5 -07.4653 26280.3
 20 02 2013  16 01  -21.0502 26057.3 -03414.5 -07.4653 26280.1
 20 02 2013  16 02  -21.0503 26057.0 -03414.4 -07.4653 26279.8
 20 02 2013  16 03  -21.0508 26057.2 -03414.6 -07.4657 26280.0
 20 02 2013  16 04  -21.0513 26057.4 -03414.8 -07.4660 26280.2
 20 02 2013  16 05  -21.0517 26057.5 -03414.8 -07.4661 26280.3
 20 02 2013  16 06  -21.0517 26057.4 -03414.8 -07.4660 26280.2
 20 02 2013  16 07  -21.0517 26057.3 -03414.7 -07.4658 26280.1
 20 02 2013  16 08  -21.0520 26057.1 -03414.6 -07.4657 26279.9
 20 02 2013  16 09  -21.0521 26056.9 -03414.6 -07.4656 26279.7
 20 02 2013  16 10  -21.0524 26056.8 -03414.5 -07.4655 26279.5
 20 02 2013  16 11  -21.0527 26056.7 -03414.4 -07.4654 26279.5
 20 02 2013  16 12  -21.0529 26056.6 -03414.3 -07.4651 26279.3
 20 02 2013  16 13  -21.0531 26056.2 -03414.1 -07.4648 26278.9
 20 02 2013  16 14  -21.0529 26056.0 -03414.0 -07.4646 26278.7
 20 02 2013  16 15  -21.0528 26055.9 -03413.9 -07.4645 26278.6
 20 02 2013  16 16  -21.0528 26055.9 -03413.9 -07.4644 26278.6
 20 02 2013  16 17  -21.0527 26055.7 -03413.7 -07.4642 26278.4
 20 02 2013  16 18  -21.0526 26055.8 -03413.7 -07.4641 26278.4
 20 02 2013  16 19  -21.0524 26055.8 -03413.7 -07.4640 26278.5
 20 02 2013  16 20  -21.0525 26055.9 -03413.6 -07.4639 26278.5
 20 02 2013  16 21  -21.0525 26055.9 -03413.5 -07.4637 26278.5
 20 02 2013  16 22  -21.0526 26056.0 -03413.4 -07.4634 26278.6
 20 02 2013  16 23  -21.0524 26056.0 -03413.3 -07.4631 26278.6
 20 02 2013  16 24  -21.0523 26055.9 -03413.1 -07.4628 26278.5
 20 02 2013  16 25  -21.0522 26056.1 -03413.1 -07.4626 26278.7
 20 02 2013  16 26  -21.0523 26056.2 -03413.0 -07.4624 26278.8
 20 02 2013  16 27  -21.0522 26056.4 -03412.9 -07.4622 26279.0
 20 02 2013  16 28  -21.0521 26056.7 -03412.9 -07.4620 26279.2
 20 02 2013  16 29  -21.0520 26057.0 -03412.8 -07.4618 26279.5
 20 02 2013  16 30  -21.0518 26057.1 -03412.7 -07.4615 26279.7
 20 02 2013  16 31  -21.0515 26057.1 -03412.5 -07.4610 26279.6
 20 02 2013  16 32  -21.0513 26057.3 -03412.3 -07.4607 26279.8
 20 02 2013  16 33  -21.0511 26057.5 -03412.2 -07.4603 26279.9
 20 02 2013  16 34  -21.0508 26057.6 -03412.0 -07.4600 26280.0
 20 02 2013  16 35  -21.0506 26057.8 -03411.9 -07.4597 26280.2
 20 02 2013  16 36  -21.0502 26057.9 -03411.8 -07.4593 26280.3
 20 02 2013  16 37  -21.0500 26058.0 -03411.6 -07.4589 26280.4
 20 02 2013  16 38  -21.0495 26058.2 -03411.5 -07.4586 26280.6
 20 02 2013  16 39  -21.0492 26058.1 -03411.2 -07.4580 26280.4
 20 02 2013  16 40  -21.0488 26058.1 -03411.0 -07.4575 26280.4
 20 02 2013  16 41  -21.0486 26058.2 -03410.8 -07.4571 26280.5
 20 02 2013  16 42  -21.0481 26058.0 -03410.5 -07.4565 26280.2
 20 02 2013  16 43  -21.0475 26057.8 -03410.3 -07.4561 26280.1
 20 02 2013  16 44  -21.0470 26057.9 -03410.2 -07.4558 26280.0
 20 02 2013  16 45  -21.0464 26057.9 -03410.0 -07.4556 26280.1
 20 02 2013  16 46  -21.0458 26058.0 -03410.0 -07.4554 26280.2
 20 02 2013  16 47  -21.0453 26058.0 -03409.8 -07.4551 26280.2
 20 02 2013  16 48  -21.0446 26058.1 -03409.7 -07.4548 26280.2
 20 02 2013  16 49  -21.0441 26058.4 -03409.7 -07.4548 26280.5
 20 02 2013  16 50  -21.0434 26058.7 -03409.8 -07.4548 26280.9
 20 02 2013  16 51  -21.0429 26059.1 -03409.8 -07.4547 26281.2
 20 02 2013  16 52  -21.0425 26059.4 -03409.8 -07.4545 26281.5
 20 02 2013  16 53  -21.0420 26059.6 -03409.6 -07.4542 26281.7
 20 02 2013  16 54  -21.0416 26059.9 -03409.6 -07.4540 26282.0
 20 02 2013  16 55  -21.0410 26059.9 -03409.4 -07.4537 26282.0
 20 02 2013  16 56  -21.0406 26060.1 -03409.3 -07.4534 26282.1
 20 02 2013  16 57  -21.0400 26060.1 -03409.1 -07.4530 26282.1
 20 02 2013  16 58  -21.0396 26060.2 -03409.0 -07.4527 26282.2
 20 02 2013  16 59  -21.0390 26060.2 -03408.9 -07.4525 26282.2
 20 02 2013  17 00  -21.0386 26060.3 -03408.8 -07.4522 26282.3
 20 02 2013  17 01  -21.0380 26060.5 -03408.7 -07.4520 26282.4
 20 02 2013  17 02  -21.0375 26060.7 -03408.7 -07.4519 26282.6
 20 02 2013  17 03  -21.0370 26061.0 -03408.7 -07.4518 26282.9
 20 02 2013  17 04  -21.0366 26061.2 -03408.6 -07.4516 26283.2
 20 02 2013  17 05  -21.0362 26061.4 -03408.5 -07.4514 26283.3
 20 02 2013  17 06  -21.0357 26061.4 -03408.4 -07.4511 26283.4
 20 02 2013  17 07  -21.0352 26061.5 -03408.4 -07.4509 26283.5
 20 02 2013  17 08  -21.0347 26061.6 -03408.2 -07.4505 26283.5
 20 02 2013  17 09  -21.0342 26061.6 -03408.1 -07.4503 26283.4
 20 02 2013  17 10  -21.0335 26061.5 -03407.9 -07.4500 26283.3
 20 02 2013  17 11  -21.0330 26061.4 -03407.8 -07.4498 26283.3
 20 02 2013  17 12  -21.0330 26061.4 -03407.7 -07.4496 26283.3
 20 02 2013  17 13  -21.0325 26061.6 -03407.7 -07.4495 26283.5
 20 02 2013  17 14  -21.0323 26061.8 -03407.7 -07.4494 26283.7
 20 02 2013  17 15  -21.0322 26062.2 -03407.7 -07.4492 26284.0
 20 02 2013  17 16  -21.0321 26062.6 -03407.7 -07.4491 26284.4
 20 02 2013  17 17  -21.0316 26062.7 -03407.5 -07.4488 26284.5
 20 02 2013  17 18  -21.0310 26062.9 -03407.5 -07.4487 26284.7
 20 02 2013  17 19  -21.0305 26063.1 -03407.5 -07.4485 26284.9
 20 02 2013  17 20  -21.0302 26063.3 -03407.4 -07.4484 26285.0
 20 02 2013  17 21  -21.0296 26063.4 -03407.3 -07.4482 26285.2
 20 02 2013  17 22  -21.0288 26063.6 -03407.3 -07.4480 26285.4
 20 02 2013  17 23  -21.0285 26063.8 -03407.3 -07.4479 26285.5
 20 02 2013  17 24  -21.0281 26063.9 -03407.2 -07.4478 26285.6
 20 02 2013  17 25  -21.0276 26063.9 -03407.1 -07.4476 26285.6
 20 02 2013  17 26  -21.0272 26063.8 -03407.0 -07.4474 26285.6
 20 02 2013  17 27  -21.0269 26063.7 -03406.9 -07.4471 26285.4
 20 02 2013  17 28  -21.0267 26063.6 -03406.8 -07.4469 26285.3
 20 02 2013  17 29  -21.0266 26063.5 -03406.7 -07.4467 26285.2
 20 02 2013  17 30  -21.0267 26063.4 -03406.6 -07.4466 26285.1
 20 02 2013  17 31  -21.0268 26063.4 -03406.5 -07.4463 26285.0
 20 02 2013  17 32  -21.0276 26063.6 -03406.5 -07.4462 26285.2
 20 02 2013  17 33  -21.0282 26063.6 -03406.3 -07.4458 26285.2
 20 02 2013  17 34  -21.0283 26063.4 -03405.9 -07.4451 26285.0
 20 02 2013  17 35  -21.0281 26063.1 -03405.6 -07.4446 26284.6
 20 02 2013  17 36  -21.0276 26062.9 -03405.4 -07.4442 26284.4
 20 02 2013  17 37  -21.0271 26062.6 -03405.3 -07.4439 26284.2
 20 02 2013  17 38  -21.0272 26062.8 -03405.3 -07.4439 26284.4
 20 02 2013  17 39  -21.0270 26062.9 -03405.3 -07.4439 26284.5
 20 02 2013  17 40  -21.0269 26063.1 -03405.3 -07.4438 26284.6
 20 02 2013  17 41  -21.0267 26063.1 -03405.2 -07.4436 26284.6
 20 02 2013  17 42  -21.0266 26063.2 -03405.2 -07.4436 26284.7
 20 02 2013  17 43  -21.0265 26063.2 -03405.2 -07.4435 26284.7
 20 02 2013  17 44  -21.0262 26063.1 -03405.1 -07.4435 26284.6
 20 02 2013  17 45  -21.0261 26063.0 -03405.1 -07.4434 26284.5
 20 02 2013  17 46  -21.0256 26062.7 -03404.9 -07.4432 26284.2
 20 02 2013  17 47  -21.0252 26062.6 -03404.9 -07.4432 26284.1
 20 02 2013  17 48  -21.0252 26062.6 -03405.0 -07.4433 26284.1
 20 02 2013  17 49  -21.0255 26062.6 -03405.0 -07.4434 26284.1
 20 02 2013  17 50  -21.0251 26062.5 -03405.0 -07.4433 26284.0
 20 02 2013  17 51  -21.0251 26062.5 -03405.0 -07.4434 26283.9
 20 02 2013  17 52  -21.0253 26062.5 -03405.1 -07.4435 26284.0
 20 02 2013  17 53  -21.0254 26062.5 -03405.1 -07.4436 26284.0
 20 02 2013  17 54  -21.0255 26062.5 -03405.1 -07.4436 26284.0
 20 02 2013  17 55  -21.0256 26062.5 -03405.2 -07.4437 26284.0
 20 02 2013  17 56  -21.0252 26062.4 -03405.1 -07.4437 26283.9
 20 02 2013  17 57  -21.0251 26062.4 -03405.2 -07.4438 26283.9
 20 02 2013  17 58  -21.0252 26062.6 -03405.4 -07.4442 26284.2
 20 02 2013  17 59  -21.0257 26062.9 -03405.5 -07.4444 26284.5
 20 02 2013  18 00  -21.0256 26063.2 -03405.6 -07.4445 26284.8
 20 02 2013  18 01  -21.0255 26063.4 -03405.7 -07.4445 26285.0
 20 02 2013  18 02  -21.0252 26063.6 -03405.7 -07.4445 26285.1
 20 02 2013  18 03  -21.0252 26063.7 -03405.7 -07.4446 26285.2
 20 02 2013  18 04  -21.0249 26063.7 -03405.7 -07.4446 26285.3
 20 02 2013  18 05  -21.0244 26063.5 -03405.6 -07.4444 26285.0
 20 02 2013  18 06  -21.0247 26063.7 -03405.7 -07.4445 26285.3
 20 02 2013  18 07  -21.0255 26064.1 -03405.8 -07.4446 26285.7
 20 02 2013  18 08  -21.0258 26064.2 -03405.7 -07.4444 26285.7
 20 02 2013  18 09  -21.0263 26064.2 -03405.6 -07.4441 26285.7
 20 02 2013  18 10  -21.0265 26063.9 -03405.3 -07.4436 26285.4
 20 02 2013  18 11  -21.0261 26063.5 -03405.0 -07.4431 26284.9
 20 02 2013  18 12  -21.0258 26063.2 -03404.8 -07.4427 26284.6
 20 02 2013  18 13  -21.0259 26063.3 -03404.9 -07.4429 26284.8
 20 02 2013  18 14  -21.0259 26063.4 -03404.9 -07.4429 26284.9
 20 02 2013  18 15  -21.0258 26063.4 -03404.9 -07.4428 26284.8
 20 02 2013  18 16  -21.0255 26063.3 -03404.8 -07.4427 26284.8
 20 02 2013  18 17  -21.0255 26063.3 -03404.8 -07.4427 26284.8
 20 02 2013  18 18  -21.0252 26063.3 -03404.7 -07.4426 26284.8
 20 02 2013  18 19  -21.0251 26063.4 -03404.7 -07.4425 26284.8
 20 02 2013  18 20  -21.0246 26063.1 -03404.6 -07.4424 26284.5
 20 02 2013  18 21  -21.0242 26062.9 -03404.5 -07.4423 26284.3
 20 02 2013  18 22  -21.0238 26062.5 -03404.5 -07.4422 26284.0
 20 02 2013  18 23  -21.0239 26062.4 -03404.5 -07.4423 26283.9
 20 02 2013  18 24  -21.0239 26062.3 -03404.5 -07.4423 26283.7
 20 02 2013  18 25  -21.0237 26062.0 -03404.4 -07.4422 26283.4
 20 02 2013  18 26  -21.0236 26061.7 -03404.4 -07.4422 26283.1
 20 02 2013  18 27  -21.0231 26061.4 -03404.3 -07.4423 26282.8
 20 02 2013  18 28  -21.0229 26061.1 -03404.4 -07.4424 26282.5
 20 02 2013  18 29  -21.0228 26060.9 -03404.4 -07.4426 26282.3
 20 02 2013  18 30  -21.0228 26060.8 -03404.6 -07.4429 26282.2
 20 02 2013  18 31  -21.0228 26060.7 -03404.7 -07.4432 26282.1
 20 02 2013  18 32  -21.0227 26060.6 -03404.8 -07.4435 26282.1
 20 02 2013  18 33  -21.0229 26060.7 -03405.0 -07.4439 26282.2
 20 02 2013  18 34  -21.0232 26060.8 -03405.2 -07.4443 26282.3
 20 02 2013  18 35  -21.0234 26060.7 -03405.3 -07.4445 26282.2
 20 02 2013  18 36  -21.0237 26060.6 -03405.3 -07.4446 26282.1
 20 02 2013  18 37  -21.0240 26060.5 -03405.5 -07.4449 26282.1
 20 02 2013  18 38  -21.0245 26060.6 -03405.6 -07.4453 26282.2
 20 02 2013  18 39  -21.0249 26060.7 -03405.7 -07.4455 26282.2
 20 02 2013  18 40  -21.0253 26060.8 -03405.8 -07.4456 26282.4
 20 02 2013  18 41  -21.0258 26060.9 -03405.9 -07.4459 26282.5
 20 02 2013  18 42  -21.0262 26060.9 -03406.0 -07.4460 26282.6
 20 02 2013  18 43  -21.0268 26061.1 -03406.1 -07.4461 26282.7
 20 02 2013  18 44  -21.0274 26061.2 -03406.1 -07.4462 26282.8
 20 02 2013  18 45  -21.0279 26061.3 -03406.2 -07.4462 26283.0
 20 02 2013  18 46  -21.0284 26061.5 -03406.3 -07.4464 26283.2
 20 02 2013  18 47  -21.0289 26061.6 -03406.2 -07.4463 26283.2
 20 02 2013  18 48  -21.0295 26061.6 -03406.3 -07.4463 26283.3
 20 02 2013  18 49  -21.0300 26061.7 -03406.3 -07.4463 26283.4
 20 02 2013  18 50  -21.0304 26061.8 -03406.3 -07.4464 26283.5
 20 02 2013  18 51  -21.0310 26061.9 -03406.3 -07.4464 26283.6
 20 02 2013  18 52  -21.0315 26062.0 -03406.3 -07.4463 26283.6
 20 02 2013  18 53  -21.0321 26062.0 -03406.2 -07.4462 26283.6
 20 02 2013  18 54  -21.0325 26062.1 -03406.2 -07.4462 26283.7
 20 02 2013  18 55  -21.0331 26062.2 -03406.3 -07.4462 26283.9
 20 02 2013  18 56  -21.0335 26062.4 -03406.2 -07.4460 26284.0
 20 02 2013  18 57  -21.0340 26062.2 -03406.0 -07.4456 26283.8
 20 02 2013  18 58  -21.0344 26062.1 -03405.9 -07.4453 26283.7
 20 02 2013  18 59  -21.0351 26062.0 -03405.7 -07.4450 26283.6
 20 02 2013  19 00  -21.0358 26062.2 -03405.6 -07.4448 26283.7
 20 02 2013  19 01  -21.0363 26062.5 -03405.7 -07.4449 26284.1
 20 02 2013  19 02  -21.0366 26062.5 -03405.6 -07.4446 26284.1
 20 02 2013  19 03  -21.0369 26062.6 -03405.5 -07.4444 26284.1
 20 02 2013  19 04  -21.0375 26062.7 -03405.4 -07.4443 26284.3
 20 02 2013  19 05  -21.0378 26062.8 -03405.4 -07.4441 26284.3
 20 02 2013  19 06  -21.0381 26062.9 -03405.3 -07.4440 26284.4
 20 02 2013  19 07  -21.0385 26063.1 -03405.3 -07.4439 26284.6
 20 02 2013  19 08  -21.0388 26063.2 -03405.3 -07.4437 26284.7
 20 02 2013  19 09  -21.0389 26063.3 -03405.2 -07.4436 26284.8
 20 02 2013  19 10  -21.0391 26063.4 -03405.2 -07.4435 26284.9
 20 02 2013  19 11  -21.0394 26063.7 -03405.3 -07.4436 26285.2
 20 02 2013  19 12  -21.0398 26063.8 -03405.3 -07.4435 26285.3
 20 02 2013  19 13  -21.0402 26064.0 -03405.2 -07.4434 26285.5
 20 02 2013  19 14  -21.0405 26064.1 -03405.2 -07.4433 26285.6
 20 02 2013  19 15  -21.0411 26064.1 -03405.1 -07.4431 26285.6
 20 02 2013  19 16  -21.0418 26064.2 -03405.0 -07.4430 26285.6
 20 02 2013  19 17  -21.0423 26064.0 -03404.9 -07.4427 26285.5
 20 02 2013  19 18  -21.0428 26063.9 -03404.8 -07.4424 26285.4
 20 02 2013  19 19  -21.0434 26063.8 -03404.6 -07.4422 26285.3
 20 02 2013  19 20  -21.0442 26063.8 -03404.5 -07.4419 26285.2
 20 02 2013  19 21  -21.0447 26063.7 -03404.3 -07.4416 26285.1
 20 02 2013  19 22  -21.0452 26063.5 -03404.1 -07.4413 26284.9
 20 02 2013  19 23  -21.0456 26063.3 -03403.9 -07.4408 26284.6
 20 02 2013  19 24  -21.0459 26063.1 -03403.8 -07.4406 26284.4
 20 02 2013  19 25  -21.0462 26063.1 -03403.6 -07.4403 26284.4
 20 02 2013  19 26  -21.0465 26063.0 -03403.6 -07.4401 26284.3
 20 02 2013  19 27  -21.0467 26063.1 -03403.5 -07.4400 26284.3
 20 02 2013  19 28  -21.0471 26063.2 -03403.5 -07.4399 26284.5
 20 02 2013  19 29  -21.0476 26063.3 -03403.5 -07.4398 26284.6
 20 02 2013  19 30  -21.0480 26063.2 -03403.4 -07.4396 26284.5
 20 02 2013  19 31  -21.0482 26063.0 -03403.2 -07.4394 26284.2
 20 02 2013  19 32  -21.0485 26062.8 -03403.1 -07.4391 26284.0
 20 02 2013  19 33  -21.0491 26062.7 -03403.0 -07.4389 26283.9
 20 02 2013  19 34  -21.0496 26062.4 -03402.8 -07.4387 26283.6
 20 02 2013  19 35  -21.0500 26062.3 -03402.7 -07.4384 26283.4
 20 02 2013  19 36  -21.0505 26062.1 -03402.6 -07.4382 26283.3
 20 02 2013  19 37  -21.0513 26062.0 -03402.4 -07.4379 26283.1
 20 02 2013  19 38  -21.0517 26061.5 -03402.2 -07.4375 26282.7
 20 02 2013  19 39  -21.0520 26061.2 -03401.9 -07.4371 26282.3
 20 02 2013  19 40  -21.0525 26060.9 -03401.8 -07.4368 26282.0
 20 02 2013  19 41  -21.0529 26060.8 -03401.6 -07.4366 26281.8
 20 02 2013  19 42  -21.0532 26060.6 -03401.6 -07.4365 26281.7
 20 02 2013  19 43  -21.0536 26060.5 -03401.5 -07.4364 26281.6
 20 02 2013  19 44  -21.0537 26060.4 -03401.4 -07.4363 26281.4
 20 02 2013  19 45  -21.0539 26060.3 -03401.4 -07.4362 26281.3
 20 02 2013  19 46  -21.0542 26060.2 -03401.4 -07.4362 26281.3
 20 02 2013  19 47  -21.0546 26060.2 -03401.4 -07.4362 26281.3
 20 02 2013  19 48  -21.0549 26060.1 -03401.3 -07.4361 26281.2
 20 02 2013  19 49  -21.0552 26060.1 -03401.3 -07.4360 26281.1
 20 02 2013  19 50  -21.0557 26060.0 -03401.2 -07.4360 26281.0
 20 02 2013  19 51  -21.0559 26059.8 -03401.1 -07.4358 26280.8
 20 02 2013  19 52  -21.0562 26059.6 -03401.1 -07.4357 26280.6
 20 02 2013  19 53  -21.0562 26059.3 -03400.9 -07.4354 26280.3
 20 02 2013  19 54  -21.0563 26059.1 -03400.8 -07.4353 26280.1
 20 02 2013  19 55  -21.0562 26059.0 -03400.7 -07.4352 26279.9
 20 02 2013  19 56  -21.0561 26058.9 -03400.7 -07.4352 26279.9
 20 02 2013  19 57  -21.0558 26058.8 -03400.8 -07.4352 26279.8
 20 02 2013  19 58  -21.0556 26058.9 -03400.8 -07.4353 26279.8
 20 02 2013  19 59  -21.0555 26058.9 -03400.9 -07.4354 26279.9
 20 02 2013  20 00  -21.0555 26059.0 -03400.9 -07.4355 26279.9
 20 02 2013  20 01  -21.0553 26059.0 -03401.0 -07.4356 26280.0
 20 02 2013  20 02  -21.0552 26058.7 -03400.9 -07.4355 26279.7
 20 02 2013  20 03  -21.0551 26058.6 -03400.8 -07.4354 26279.6
 20 02 2013  20 04  -21.0549 26058.5 -03400.8 -07.4354 26279.5
 20 02 2013  20 05  -21.0547 26058.2 -03400.7 -07.4353 26279.1
 20 02 2013  20 06  -21.0544 26058.1 -03400.7 -07.4353 26279.0
 20 02 2013  20 07  -21.0543 26058.1 -03400.8 -07.4355 26279.1
 20 02 2013  20 08  -21.0542 26057.8 -03400.7 -07.4355 26278.8
 20 02 2013  20 09  -21.0540 26057.7 -03400.7 -07.4355 26278.7
 20 02 2013  20 10  -21.0538 26057.7 -03400.8 -07.4357 26278.7
 20 02 2013  20 11  -21.0535 26057.4 -03400.7 -07.4355 26278.4
 20 02 2013  20 12  -21.0532 26057.3 -03400.7 -07.4356 26278.3
 20 02 2013  20 13  -21.0529 26057.1 -03400.7 -07.4355 26278.1
 20 02 2013  20 14  -21.0527 26056.9 -03400.6 -07.4355 26277.9
 20 02 2013  20 15  -21.0525 26056.9 -03400.7 -07.4357 26277.9
 20 02 2013  20 16  -21.0522 26056.8 -03400.8 -07.4359 26277.8
 20 02 2013  20 17  -21.0520 26056.7 -03400.8 -07.4359 26277.6
 20 02 2013  20 18  -21.0517 26056.7 -03400.9 -07.4361 26277.7
 20 02 2013  20 19  -21.0514 26056.6 -03401.0 -07.4363 26277.6
 20 02 2013  20 20  -21.0513 26056.5 -03401.0 -07.4364 26277.5
 20 02 2013  20 21  -21.0511 26056.9 -03401.3 -07.4370 26277.9
 20 02 2013  20 22  -21.0510 26056.7 -03401.4 -07.4372 26277.8
 20 02 2013  20 23  -21.0508 26056.5 -03401.3 -07.4372 26277.5
 20 02 2013  20 24  -21.0506 26056.5 -03401.5 -07.4374 26277.5
 20 02 2013  20 25  -21.0503 26056.5 -03401.6 -07.4376 26277.5
 20 02 2013  20 26  -21.0502 26056.4 -03401.6 -07.4378 26277.5
 20 02 2013  20 27  -21.0499 26056.2 -03401.7 -07.4380 26277.4
 20 02 2013  20 28  -21.0497 26056.2 -03401.8 -07.4383 26277.3
 20 02 2013  20 29  -21.0494 26055.9 -03401.8 -07.4383 26277.0
 20 02 2013  20 30  -21.0491 26055.8 -03401.9 -07.4386 26277.0
 20 02 2013  20 31  -21.0487 26055.9 -03402.1 -07.4390 26277.1
 20 02 2013  20 32  -21.0486 26055.9 -03402.2 -07.4393 26277.1
 20 02 2013  20 33  -21.0484 26055.8 -03402.4 -07.4395 26277.0
 20 02 2013  20 34  -21.0482 26055.8 -03402.5 -07.4398 26277.0
 20 02 2013  20 35  -21.0481 26055.8 -03402.7 -07.4402 26277.1
 20 02 2013  20 36  -21.0479 26055.7 -03402.7 -07.4404 26276.9
 20 02 2013  20 37  -21.0477 26055.6 -03402.8 -07.4406 26276.9
 20 02 2013  20 38  -21.0478 26055.5 -03402.9 -07.4409 26276.8
 20 02 2013  20 39  -21.0467 26055.3 -03403.0 -07.4412 26276.6
 20 02 2013  20 40  -21.0465 26055.5 -03403.2 -07.4414 26276.8
 20 02 2013  20 41  -21.0466 26055.4 -03403.3 -07.4417 26276.7
 20 02 2013  20 42  -21.0464 26055.3 -03403.4 -07.4419 26276.6
 20 02 2013  20 43  -21.0463 26055.1 -03403.5 -07.4422 26276.5
 20 02 2013  20 44  -21.0458 26055.1 -03403.6 -07.4424 26276.4
 20 02 2013  20 45  -21.0455 26055.1 -03403.7 -07.4427 26276.5
 20 02 2013  20 46  -21.0450 26055.3 -03404.0 -07.4432 26276.7
 20 02 2013  20 47  -21.0445 26055.3 -03404.2 -07.4436 26276.7
 20 02 2013  20 48  -21.0443 26055.2 -03404.3 -07.4440 26276.7
 20 02 2013  20 49  -21.0440 26055.3 -03404.5 -07.4444 26276.8
 20 02 2013  20 50  -21.0437 26055.3 -03404.7 -07.4448 26276.8
 20 02 2013  20 51  -21.0434 26055.3 -03404.8 -07.4450 26276.8
 20 02 2013  20 52  -21.0430 26055.5 -03405.1 -07.4456 26277.1
 20 02 2013  20 53  -21.0427 26055.5 -03405.3 -07.4460 26277.1
 20 02 2013  20 54  -21.0427 26055.4 -03405.3 -07.4461 26277.0
 20 02 2013  20 55  -21.0426 26055.4 -03405.5 -07.4464 26277.0
 20 02 2013  20 56  -21.0424 26055.4 -03405.7 -07.4468 26277.0
 20 02 2013  20 57  -21.0423 26055.3 -03405.8 -07.4471 26277.0
 20 02 2013  20 58  -21.0422 26055.2 -03405.8 -07.4472 26276.8
 20 02 2013  20 59  -21.0421 26055.0 -03405.9 -07.4475 26276.7
 20 02 2013  21 00  -21.0421 26054.9 -03406.0 -07.4477 26276.5
 20 02 2013  21 01  -21.0422 26054.6 -03406.1 -07.4480 26276.3
 20 02 2013  21 02  -21.0424 26054.4 -03406.1 -07.4481 26276.1
 20 02 2013  21 03  -21.0424 26054.2 -03406.2 -07.4483 26275.9
 20 02 2013  21 04  -21.0425 26054.1 -03406.3 -07.4486 26275.8
 20 02 2013  21 05  -21.0425 26054.0 -03406.4 -07.4488 26275.8
 20 02 2013  21 06  -21.0424 26054.0 -03406.5 -07.4491 26275.7
 20 02 2013  21 07  -21.0423 26054.0 -03406.7 -07.4495 26275.8
 20 02 2013  21 08  -21.0422 26054.1 -03407.0 -07.4500 26275.9
 20 02 2013  21 09  -21.0420 26054.2 -03407.2 -07.4504 26276.1
 20 02 2013  21 10  -21.0422 26054.2 -03407.4 -07.4509 26276.0
 20 02 2013  21 11  -21.0426 26054.2 -03407.5 -07.4511 26276.1
 20 02 2013  21 12  -21.0416 26054.2 -03407.6 -07.4512 26276.1
 20 02 2013  21 13  -21.0415 26053.9 -03407.6 -07.4515 26275.8
 20 02 2013  21 14  -21.0420 26053.6 -03407.7 -07.4516 26275.5
 20 02 2013  21 15  -21.0420 26053.4 -03407.7 -07.4519 26275.3
 20 02 2013  21 16  -21.0419 26053.4 -03407.9 -07.4522 26275.3
 20 02 2013  21 17  -21.0418 26053.2 -03408.0 -07.4524 26275.2
 20 02 2013  21 18  -21.0417 26053.1 -03408.0 -07.4526 26275.1
 20 02 2013  21 19  -21.0417 26053.2 -03408.3 -07.4530 26275.2
 20 02 2013  21 20  -21.0417 26053.2 -03408.4 -07.4534 26275.2
 20 02 2013  21 21  -21.0417 26053.1 -03408.5 -07.4537 26275.1
 20 02 2013  21 22  -21.0415 26053.0 -03408.6 -07.4539 26275.0
 20 02 2013  21 23  -21.0415 26052.8 -03408.6 -07.4540 26274.8
 20 02 2013  21 24  -21.0415 26052.4 -03408.6 -07.4541 26274.5
 20 02 2013  21 25  -21.0415 26052.5 -03408.9 -07.4546 26274.6
 20 02 2013  21 26  -21.0416 26052.7 -03409.2 -07.4551 26274.8
 20 02 2013  21 27  -21.0417 26052.9 -03409.4 -07.4557 26275.0
 20 02 2013  21 28  -21.0418 26053.1 -03409.8 -07.4563 26275.3
 20 02 2013  21 29  -21.0418 26053.7 -03410.1 -07.4569 26275.9
 20 02 2013  21 30  -21.0416 26054.2 -03410.5 -07.4576 26276.5
 20 02 2013  21 31  -21.0413 26054.5 -03410.8 -07.4581 26276.8
 20 02 2013  21 32  -21.0411 26054.8 -03411.0 -07.4585 26277.1
 20 02 2013  21 33  -21.0410 26054.9 -03411.1 -07.4587 26277.3
 20 02 2013  21 34  -21.0409 26054.7 -03411.0 -07.4586 26277.1
 20 02 2013  21 35  -21.0410 26054.3 -03410.9 -07.4585 26276.7
 20 02 2013  21 36  -21.0410 26054.0 -03410.8 -07.4583 26276.3
 20 02 2013  21 37  -21.0411 26054.0 -03410.8 -07.4583 26276.3
 20 02 2013  21 38  -21.0412 26054.0 -03410.9 -07.4585 26276.3
 20 02 2013  21 39  -21.0414 26054.1 -03411.0 -07.4587 26276.4
 20 02 2013  21 40  -21.0414 26054.3 -03411.2 -07.4591 26276.7
 20 02 2013  21 41  -21.0415 26054.4 -03411.3 -07.4593 26276.7
 20 02 2013  21 42  -21.0417 26054.3 -03411.3 -07.4593 26276.7
 20 02 2013  21 43  -21.0419 26054.2 -03411.3 -07.4593 26276.6
 20 02 2013  21 44  -21.0422 26054.0 -03411.2 -07.4592 26276.4
 20 02 2013  21 45  -21.0425 26053.7 -03411.1 -07.4591 26276.1
 20 02 2013  21 46  -21.0428 26053.5 -03411.0 -07.4589 26275.8
 20 02 2013  21 47  -21.0429 26053.3 -03411.0 -07.4589 26275.7
 20 02 2013  21 48  -21.0430 26053.2 -03411.0 -07.4590 26275.6
 20 02 2013  21 49  -21.0433 26053.0 -03410.9 -07.4588 26275.3
 20 02 2013  21 50  -21.0434 26052.7 -03410.8 -07.4587 26275.0
 20 02 2013  21 51  -21.0435 26052.4 -03410.7 -07.4586 26274.7
 20 02 2013  21 52  -21.0436 26052.1 -03410.6 -07.4585 26274.4
 20 02 2013  21 53  -21.0436 26051.9 -03410.6 -07.4584 26274.2
 20 02 2013  21 54  -21.0438 26051.9 -03410.6 -07.4585 26274.2
 20 02 2013  21 55  -21.0437 26051.8 -03410.6 -07.4586 26274.1
 20 02 2013  21 56  -21.0438 26051.8 -03410.7 -07.4587 26274.1
 20 02 2013  21 57  -21.0439 26051.7 -03410.7 -07.4587 26274.0
 20 02 2013  21 58  -21.0441 26051.5 -03410.7 -07.4588 26273.9
 20 02 2013  21 59  -21.0442 26051.5 -03410.7 -07.4588 26273.8
 20 02 2013  22 00  -21.0444 26051.5 -03410.8 -07.4589 26273.8
 20 02 2013  22 01  -21.0445 26051.5 -03410.8 -07.4591 26273.8
 20 02 2013  22 02  -21.0447 26051.4 -03410.9 -07.4592 26273.8
 20 02 2013  22 03  -21.0448 26051.4 -03410.9 -07.4593 26273.8
 20 02 2013  22 04  -21.0450 26051.5 -03411.0 -07.4594 26273.8
 20 02 2013  22 05  -21.0451 26051.5 -03411.0 -07.4595 26273.9
 20 02 2013  22 06  -21.0453 26051.5 -03411.1 -07.4597 26273.9
 20 02 2013  22 07  -21.0455 26051.5 -03411.1 -07.4597 26273.8
 20 02 2013  22 08  -21.0456 26051.7 -03411.2 -07.4599 26274.0
 20 02 2013  22 09  -21.0456 26052.0 -03411.4 -07.4602 26274.4
 20 02 2013  22 10  -21.0459 26052.1 -03411.5 -07.4605 26274.5
 20 02 2013  22 11  -21.0461 26052.0 -03411.6 -07.4606 26274.5
 20 02 2013  22 12  -21.0461 26052.0 -03411.5 -07.4604 26274.4
 20 02 2013  22 13  -21.0461 26052.0 -03411.5 -07.4604 26274.4
 20 02 2013  22 14  -21.0459 26052.1 -03411.5 -07.4604 26274.5
 20 02 2013  22 15  -21.0461 26052.3 -03411.6 -07.4606 26274.7
 20 02 2013  22 16  -21.0462 26052.4 -03411.7 -07.4608 26274.8
 20 02 2013  22 17  -21.0465 26052.4 -03411.8 -07.4609 26274.8
 20 02 2013  22 18  -21.0468 26052.3 -03411.8 -07.4609 26274.7
 20 02 2013  22 19  -21.0471 26052.1 -03411.7 -07.4607 26274.6
 20 02 2013  22 20  -21.0472 26052.1 -03411.6 -07.4607 26274.5
 20 02 2013  22 21  -21.0473 26052.1 -03411.7 -07.4607 26274.6
 20 02 2013  22 22  -21.0473 26052.1 -03411.6 -07.4607 26274.5
 20 02 2013  22 23  -21.0474 26052.2 -03411.7 -07.4608 26274.7
 20 02 2013  22 24  -21.0476 26052.6 -03411.9 -07.4611 26275.0
 20 02 2013  22 25  -21.0477 26053.0 -03412.1 -07.4615 26275.5
 20 02 2013  22 26  -21.0476 26053.4 -03412.4 -07.4619 26275.9
 20 02 2013  22 27  -21.0474 26053.6 -03412.4 -07.4620 26276.2
 20 02 2013  22 28  -21.0473 26053.7 -03412.5 -07.4621 26276.3
 20 02 2013  22 29  -21.0469 26053.9 -03412.5 -07.4621 26276.4
 20 02 2013  22 30  -21.0467 26054.0 -03412.6 -07.4622 26276.6
 20 02 2013  22 31  -21.0464 26054.1 -03412.6 -07.4621 26276.6
 20 02 2013  22 32  -21.0461 26054.1 -03412.6 -07.4621 26276.6
 20 02 2013  22 33  -21.0457 26054.0 -03412.5 -07.4620 26276.5
 20 02 2013  22 34  -21.0454 26053.9 -03412.5 -07.4620 26276.5
 20 02 2013  22 35  -21.0452 26053.7 -03412.4 -07.4619 26276.3
 20 02 2013  22 36  -21.0455 26053.3 -03412.3 -07.4617 26275.8
 20 02 2013  22 37  -21.0456 26052.7 -03412.0 -07.4612 26275.2
 20 02 2013  22 38  -21.0456 26052.0 -03411.7 -07.4608 26274.5
 20 02 2013  22 39  -21.0456 26051.5 -03411.4 -07.4604 26273.9
 20 02 2013  22 40  -21.0457 26050.9 -03411.2 -07.4600 26273.3
 20 02 2013  22 41  -21.0458 26050.5 -03411.0 -07.4598 26272.8
 20 02 2013  22 42  -21.0459 26050.1 -03410.9 -07.4597 26272.5
 20 02 2013  22 43  -21.0460 26049.8 -03410.8 -07.4595 26272.1
 20 02 2013  22 44  -21.0462 26049.5 -03410.8 -07.4596 26271.8
 20 02 2013  22 45  -21.0463 26049.2 -03410.7 -07.4595 26271.5
 20 02 2013  22 46  -21.0466 26048.9 -03410.7 -07.4596 26271.3
 20 02 2013  22 47  -21.0468 26048.8 -03410.8 -07.4597 26271.2
 20 02 2013  22 48  -21.0468 26048.8 -03410.8 -07.4599 26271.1
 20 02 2013  22 49  -21.0467 26048.9 -03411.0 -07.4602 26271.3
 20 02 2013  22 50  -21.0465 26049.2 -03411.2 -07.4605 26271.6
 20 02 2013  22 51  -21.0465 26049.5 -03411.4 -07.4610 26271.9
 20 02 2013  22 52  -21.0464 26049.8 -03411.7 -07.4615 26272.3
 20 02 2013  22 53  -21.0463 26050.2 -03412.0 -07.4620 26272.6
 20 02 2013  22 54  -21.0462 26050.4 -03412.2 -07.4623 26272.9
 20 02 2013  22 55  -21.0460 26050.6 -03412.3 -07.4626 26273.1
 20 02 2013  22 56  -21.0458 26050.8 -03412.5 -07.4628 26273.4
 20 02 2013  22 57  -21.0458 26051.0 -03412.6 -07.4630 26273.5
 20 02 2013  22 58  -21.0456 26051.1 -03412.6 -07.4631 26273.7
 20 02 2013  22 59  -21.0454 26051.1 -03412.6 -07.4631 26273.7
 20 02 2013  23 00  -21.0452 26051.1 -03412.7 -07.4632 26273.7
 20 02 2013  23 01  -21.0450 26051.1 -03412.7 -07.4632 26273.7
 20 02 2013  23 02  -21.0446 26051.2 -03412.7 -07.4632 26273.7
 20 02 2013  23 03  -21.0441 26051.2 -03412.7 -07.4632 26273.8
 20 02 2013  23 04  -21.0437 26051.3 -03412.7 -07.4632 26273.8
 20 02 2013  23 05  -21.0434 26051.4 -03412.8 -07.4633 26274.0
 20 02 2013  23 06  -21.0430 26051.5 -03412.9 -07.4636 26274.1
 20 02 2013  23 07  -21.0426 26051.5 -03413.0 -07.4637 26274.1
 20 02 2013  23 08  -21.0423 26051.6 -03413.0 -07.4637 26274.2
 20 02 2013  23 09  -21.0419 26051.8 -03413.1 -07.4638 26274.4
 20 02 2013  23 10  -21.0417 26052.0 -03413.2 -07.4640 26274.6
 20 02 2013  23 11  -21.0416 26052.0 -03413.2 -07.4641 26274.6
 20 02 2013  23 12  -21.0417 26051.9 -03413.2 -07.4641 26274.6
 20 02 2013  23 13  -21.0419 26051.5 -03413.0 -07.4639 26274.1
 20 02 2013  23 14  -21.0422 26050.6 -03412.6 -07.4632 26273.2
 20 02 2013  23 15  -21.0421 26050.0 -03412.2 -07.4626 26272.6
 20 02 2013  23 16  -21.0423 26049.5 -03412.0 -07.4622 26272.0
 20 02 2013  23 17  -21.0425 26049.1 -03411.9 -07.4620 26271.6
 20 02 2013  23 18  -21.0427 26048.9 -03411.8 -07.4619 26271.3
 20 02 2013  23 19  -21.0429 26048.9 -03411.9 -07.4621 26271.4
 20 02 2013  23 20  -21.0431 26049.0 -03412.1 -07.4625 26271.6
 20 02 2013  23 21  -21.0433 26049.0 -03412.1 -07.4626 26271.6
 20 02 2013  23 22  -21.0433 26049.1 -03412.2 -07.4628 26271.7
 20 02 2013  23 23  -21.0432 26049.4 -03412.4 -07.4630 26271.9
 20 02 2013  23 24  -21.0432 26049.6 -03412.5 -07.4632 26272.1
 20 02 2013  23 25  -21.0434 26049.7 -03412.6 -07.4634 26272.2
 20 02 2013  23 26  -21.0434 26049.7 -03412.6 -07.4635 26272.3
 20 02 2013  23 27  -21.0435 26049.7 -03412.6 -07.4635 26272.3
 20 02 2013  23 28  -21.0436 26049.8 -03412.7 -07.4635 26272.4
 20 02 2013  23 29  -21.0438 26049.9 -03412.7 -07.4636 26272.5
 20 02 2013  23 30  -21.0439 26049.9 -03412.8 -07.4637 26272.5
 20 02 2013  23 31  -21.0441 26049.9 -03412.8 -07.4637 26272.5
 20 02 2013  23 32  -21.0443 26049.8 -03412.7 -07.4636 26272.4
 20 02 2013  23 33  -21.0442 26049.7 -03412.6 -07.4634 26272.3
 20 02 2013  23 34  -21.0444 26049.6 -03412.5 -07.4633 26272.2
 20 02 2013  23 35  -21.0445 26049.5 -03412.5 -07.4632 26272.1
 20 02 2013  23 36  -21.0446 26049.4 -03412.4 -07.4630 26271.9
 20 02 2013  23 37  -21.0447 26049.1 -03412.2 -07.4628 26271.6
 20 02 2013  23 38  -21.0447 26048.7 -03412.0 -07.4624 26271.2
 20 02 2013  23 39  -21.0446 26048.6 -03411.9 -07.4623 26271.1
 20 02 2013  23 40  -21.0448 26048.5 -03411.9 -07.4623 26271.0
 20 02 2013  23 41  -21.0451 26048.4 -03411.9 -07.4622 26270.9
 20 02 2013  23 42  -21.0451 26048.1 -03411.7 -07.4620 26270.6
 20 02 2013  23 43  -21.0450 26047.9 -03411.6 -07.4618 26270.4
 20 02 2013  23 44  -21.0451 26047.7 -03411.6 -07.4617 26270.2
 20 02 2013  23 45  -21.0450 26047.7 -03411.6 -07.4618 26270.2
 20 02 2013  23 46  -21.0450 26047.7 -03411.6 -07.4618 26270.1
 20 02 2013  23 47  -21.0453 26047.4 -03411.5 -07.4617 26269.8
 20 02 2013  23 48  -21.0454 26047.2 -03411.4 -07.4615 26269.6
 20 02 2013  23 49  -21.0454 26046.9 -03411.3 -07.4613 26269.4
 20 02 2013  23 50  -21.0453 26046.8 -03411.2 -07.4613 26269.3
 20 02 2013  23 51  -21.0452 26046.9 -03411.3 -07.4613 26269.3
 20 02 2013  23 52  -21.0452 26047.0 -03411.4 -07.4615 26269.5
 20 02 2013  23 53  -21.0453 26047.1 -03411.4 -07.4617 26269.6
 20 02 2013  23 54  -21.0454 26047.2 -03411.6 -07.4619 26269.7
 20 02 2013  23 55  -21.0454 26047.2 -03411.6 -07.4619 26269.6
 20 02 2013  23 56  -21.0455 26047.0 -03411.5 -07.4617 26269.5
 20 02 2013  23 57  -21.0455 26046.8 -03411.4 -07.4617 26269.3
 20 02 2013  23 58  -21.0453 26046.4 -03411.2 -07.4613 26268.8
