SAO LUIS EMBRACE-03 <233> 1 Min. Reported data

 DD MM YYYY  HH MM   D(Deg)  H(nT)   Z(nT)   I(Deg)   F(nT)

 21 08 2013  00 00  -21.0139 26042.8 -03475.3 -07.6008 26273.7
 21 08 2013  00 01  -21.0136 26043.0 -03475.6 -07.6014 26273.9
 21 08 2013  00 02  -21.0134 26043.3 -03475.8 -07.6019 26274.2
 21 08 2013  00 03  -21.0131 26043.6 -03476.0 -07.6023 26274.5
 21 08 2013  00 04  -21.0131 26043.8 -03476.3 -07.6027 26274.8
 21 08 2013  00 05  -21.0130 26043.9 -03476.4 -07.6030 26274.9
 21 08 2013  00 06  -21.0130 26044.0 -03476.5 -07.6031 26275.0
 21 08 2013  00 07  -21.0128 26044.5 -03476.7 -07.6036 26275.5
 21 08 2013  00 08  -21.0126 26045.0 -03477.1 -07.6041 26276.1
 21 08 2013  00 09  -21.0124 26045.4 -03477.3 -07.6045 26276.5
 21 08 2013  00 10  -21.0123 26045.6 -03477.4 -07.6047 26276.7
 21 08 2013  00 11  -21.0122 26045.7 -03477.5 -07.6049 26276.9
 21 08 2013  00 12  -21.0121 26045.8 -03477.5 -07.6049 26276.9
 21 08 2013  00 13  -21.0118 26045.9 -03477.6 -07.6049 26277.0
 21 08 2013  00 14  -21.0117 26045.7 -03477.5 -07.6048 26276.8
 21 08 2013  00 15  -21.0118 26045.4 -03477.4 -07.6046 26276.5
 21 08 2013  00 16  -21.0118 26045.2 -03477.2 -07.6045 26276.3
 21 08 2013  00 17  -21.0117 26045.0 -03477.1 -07.6043 26276.1
 21 08 2013  00 18  -21.0117 26044.7 -03477.0 -07.6042 26275.8
 21 08 2013  00 19  -21.0116 26044.7 -03477.0 -07.6042 26275.8
 21 08 2013  00 20  -21.0115 26044.8 -03477.1 -07.6043 26275.9
 21 08 2013  00 21  -21.0114 26044.9 -03477.2 -07.6045 26275.9
 21 08 2013  00 22  -21.0114 26044.6 -03477.1 -07.6044 26275.6
 21 08 2013  00 23  -21.0117 26043.9 -03476.8 -07.6040 26274.9
 21 08 2013  00 24  -21.0120 26043.3 -03476.6 -07.6036 26274.3
 21 08 2013  00 25  -21.0120 26043.3 -03476.6 -07.6036 26274.3
 21 08 2013  00 26  -21.0118 26043.5 -03476.7 -07.6038 26274.5
 21 08 2013  00 27  -21.0114 26043.5 -03476.8 -07.6040 26274.5
 21 08 2013  00 28  -21.0112 26043.3 -03476.8 -07.6040 26274.3
 21 08 2013  00 29  -21.0112 26043.2 -03476.8 -07.6041 26274.3
 21 08 2013  00 30  -21.0113 26043.5 -03477.0 -07.6045 26274.6
 21 08 2013  00 31  -21.0110 26043.7 -03477.2 -07.6047 26274.8
 21 08 2013  00 32  -21.0111 26043.6 -03477.2 -07.6048 26274.7
 21 08 2013  00 33  -21.0111 26043.7 -03477.3 -07.6050 26274.9
 21 08 2013  00 34  -21.0109 26043.8 -03477.4 -07.6051 26275.0
 21 08 2013  00 35  -21.0107 26044.0 -03477.4 -07.6053 26275.1
 21 08 2013  00 36  -21.0104 26043.9 -03477.5 -07.6053 26275.1
 21 08 2013  00 37  -21.0103 26044.0 -03477.5 -07.6054 26275.1
 21 08 2013  00 38  -21.0102 26044.0 -03477.6 -07.6055 26275.2
 21 08 2013  00 39  -21.0101 26044.0 -03477.6 -07.6056 26275.2
 21 08 2013  00 40  -21.0102 26044.0 -03477.6 -07.6057 26275.1
 21 08 2013  00 41  -21.0104 26043.9 -03477.6 -07.6057 26275.0
 21 08 2013  00 42  -21.0106 26044.0 -03477.7 -07.6058 26275.2
 21 08 2013  00 43  -21.0110 26043.8 -03477.7 -07.6058 26275.0
 21 08 2013  00 44  -21.0117 26043.5 -03477.5 -07.6056 26274.6
 21 08 2013  00 45  -21.0123 26042.9 -03477.3 -07.6052 26274.0
 21 08 2013  00 46  -21.0127 26042.2 -03477.0 -07.6047 26273.3
 21 08 2013  00 47  -21.0132 26041.5 -03476.6 -07.6042 26272.6
 21 08 2013  00 48  -21.0135 26040.8 -03476.3 -07.6036 26271.8
 21 08 2013  00 49  -21.0138 26040.6 -03476.2 -07.6035 26271.6
 21 08 2013  00 50  -21.0141 26040.8 -03476.3 -07.6037 26271.8
 21 08 2013  00 51  -21.0140 26041.2 -03476.6 -07.6042 26272.3
 21 08 2013  00 52  -21.0140 26041.8 -03476.9 -07.6048 26272.9
 21 08 2013  00 53  -21.0137 26042.4 -03477.3 -07.6053 26273.5
 21 08 2013  00 54  -21.0132 26042.9 -03477.6 -07.6058 26274.1
 21 08 2013  00 55  -21.0126 26043.2 -03477.7 -07.6060 26274.4
 21 08 2013  00 56  -21.0120 26043.2 -03477.7 -07.6061 26274.4
 21 08 2013  00 57  -21.0118 26043.3 -03477.7 -07.6061 26274.4
 21 08 2013  00 58  -21.0119 26043.3 -03477.8 -07.6062 26274.5
 21 08 2013  00 59  -21.0120 26043.5 -03477.9 -07.6064 26274.7
 21 08 2013  01 00  -21.0121 26043.9 -03478.0 -07.6066 26275.1
 21 08 2013  01 01  -21.0115 26044.5 -03478.3 -07.6069 26275.7
 21 08 2013  01 02  -21.0103 26045.9 -03478.9 -07.6078 26277.2
 21 08 2013  01 03  -21.0091 26047.9 -03479.8 -07.6092 26279.3
 21 08 2013  01 04  -21.0078 26049.3 -03480.5 -07.6103 26280.8
 21 08 2013  01 05  -21.0072 26050.2 -03480.9 -07.6110 26281.7
 21 08 2013  01 06  -21.0069 26050.6 -03481.1 -07.6111 26282.2
 21 08 2013  01 07  -21.0070 26050.6 -03480.9 -07.6109 26282.1
 21 08 2013  01 08  -21.0074 26049.8 -03480.5 -07.6101 26281.3
 21 08 2013  01 09  -21.0078 26048.9 -03479.9 -07.6091 26280.4
 21 08 2013  01 10  -21.0081 26048.5 -03479.5 -07.6084 26279.8
 21 08 2013  01 11  -21.0086 26048.1 -03479.2 -07.6079 26279.4
 21 08 2013  01 12  -21.0089 26047.6 -03479.0 -07.6075 26278.9
 21 08 2013  01 13  -21.0091 26047.0 -03478.6 -07.6069 26278.3
 21 08 2013  01 14  -21.0093 26046.2 -03478.2 -07.6063 26277.4
 21 08 2013  01 15  -21.0095 26046.0 -03478.0 -07.6059 26277.2
 21 08 2013  01 16  -21.0097 26046.1 -03478.1 -07.6060 26277.3
 21 08 2013  01 17  -21.0098 26045.9 -03478.0 -07.6060 26277.1
 21 08 2013  01 18  -21.0100 26045.7 -03477.9 -07.6058 26276.9
 21 08 2013  01 19  -21.0101 26045.5 -03477.9 -07.6058 26276.6
 21 08 2013  01 20  -21.0103 26045.2 -03477.8 -07.6056 26276.4
 21 08 2013  01 21  -21.0105 26045.0 -03477.7 -07.6055 26276.2
 21 08 2013  01 22  -21.0106 26044.8 -03477.6 -07.6053 26275.9
 21 08 2013  01 23  -21.0105 26044.7 -03477.6 -07.6053 26275.8
 21 08 2013  01 24  -21.0105 26044.4 -03477.5 -07.6052 26275.5
 21 08 2013  01 25  -21.0108 26043.9 -03477.3 -07.6049 26275.0
 21 08 2013  01 26  -21.0111 26043.7 -03477.2 -07.6048 26274.8
 21 08 2013  01 27  -21.0113 26043.6 -03477.2 -07.6048 26274.7
 21 08 2013  01 28  -21.0114 26043.9 -03477.3 -07.6050 26275.0
 21 08 2013  01 29  -21.0112 26044.2 -03477.5 -07.6054 26275.3
 21 08 2013  01 30  -21.0109 26044.6 -03477.8 -07.6057 26275.8
 21 08 2013  01 31  -21.0107 26045.1 -03478.0 -07.6061 26276.3
 21 08 2013  01 32  -21.0107 26045.1 -03478.0 -07.6062 26276.3
 21 08 2013  01 33  -21.0105 26045.0 -03478.0 -07.6061 26276.2
 21 08 2013  01 34  -21.0105 26044.9 -03477.9 -07.6060 26276.0
 21 08 2013  01 35  -21.0108 26044.4 -03477.7 -07.6057 26275.6
 21 08 2013  01 36  -21.0115 26044.0 -03477.5 -07.6053 26275.1
 21 08 2013  01 37  -21.0122 26043.6 -03477.3 -07.6051 26274.7
 21 08 2013  01 38  -21.0130 26042.8 -03477.0 -07.6046 26273.9
 21 08 2013  01 39  -21.0135 26041.9 -03476.5 -07.6038 26272.9
 21 08 2013  01 40  -21.0140 26041.3 -03476.2 -07.6033 26272.3
 21 08 2013  01 41  -21.0146 26040.8 -03476.0 -07.6030 26271.7
 21 08 2013  01 42  -21.0148 26040.4 -03475.8 -07.6027 26271.4
 21 08 2013  01 43  -21.0149 26040.1 -03475.8 -07.6028 26271.0
 21 08 2013  01 44  -21.0147 26039.8 -03475.7 -07.6027 26270.8
 21 08 2013  01 45  -21.0143 26039.8 -03475.8 -07.6028 26270.7
 21 08 2013  01 46  -21.0139 26040.0 -03476.0 -07.6032 26271.0
 21 08 2013  01 47  -21.0136 26040.3 -03476.2 -07.6036 26271.3
 21 08 2013  01 48  -21.0131 26040.6 -03476.5 -07.6041 26271.7
 21 08 2013  01 49  -21.0127 26040.9 -03476.7 -07.6045 26271.9
 21 08 2013  01 50  -21.0123 26041.0 -03476.8 -07.6047 26272.0
 21 08 2013  01 51  -21.0120 26041.0 -03476.8 -07.6048 26272.1
 21 08 2013  01 52  -21.0117 26041.1 -03476.9 -07.6050 26272.2
 21 08 2013  01 53  -21.0115 26041.0 -03477.0 -07.6051 26272.1
 21 08 2013  01 54  -21.0115 26041.1 -03477.0 -07.6052 26272.2
 21 08 2013  01 55  -21.0116 26041.1 -03477.1 -07.6053 26272.2
 21 08 2013  01 56  -21.0117 26041.2 -03477.2 -07.6055 26272.3
 21 08 2013  01 57  -21.0120 26041.1 -03477.2 -07.6055 26272.2
 21 08 2013  01 58  -21.0123 26040.9 -03477.1 -07.6054 26272.0
 21 08 2013  01 59  -21.0124 26040.9 -03477.1 -07.6054 26272.0
 21 08 2013  02 00  -21.0126 26040.8 -03477.1 -07.6054 26271.9
 21 08 2013  02 01  -21.0129 26040.5 -03477.0 -07.6052 26271.6
 21 08 2013  02 02  -21.0130 26040.3 -03476.8 -07.6050 26271.4
 21 08 2013  02 03  -21.0131 26040.1 -03476.8 -07.6049 26271.2
 21 08 2013  02 04  -21.0131 26040.0 -03476.8 -07.6049 26271.1
 21 08 2013  02 05  -21.0132 26039.9 -03476.7 -07.6049 26271.0
 21 08 2013  02 06  -21.0133 26040.0 -03476.8 -07.6050 26271.1
 21 08 2013  02 07  -21.0134 26040.0 -03476.8 -07.6051 26271.1
 21 08 2013  02 08  -21.0134 26039.9 -03476.8 -07.6051 26271.0
 21 08 2013  02 09  -21.0134 26039.7 -03476.8 -07.6050 26270.8
 21 08 2013  02 10  -21.0134 26039.6 -03476.7 -07.6050 26270.7
 21 08 2013  02 11  -21.0133 26039.7 -03476.8 -07.6050 26270.7
 21 08 2013  02 12  -21.0132 26039.6 -03476.8 -07.6050 26270.7
 21 08 2013  02 13  -21.0132 26039.5 -03476.8 -07.6050 26270.6
 21 08 2013  02 14  -21.0130 26039.5 -03476.8 -07.6051 26270.6
 21 08 2013  02 15  -21.0130 26039.7 -03476.9 -07.6052 26270.8
 21 08 2013  02 16  -21.0128 26039.7 -03476.9 -07.6054 26270.9
 21 08 2013  02 17  -21.0126 26039.9 -03477.0 -07.6055 26271.0
 21 08 2013  02 18  -21.0125 26040.1 -03477.1 -07.6057 26271.2
 21 08 2013  02 19  -21.0125 26040.3 -03477.3 -07.6059 26271.4
 21 08 2013  02 20  -21.0123 26040.2 -03477.3 -07.6059 26271.4
 21 08 2013  02 21  -21.0120 26040.3 -03477.3 -07.6059 26271.4
 21 08 2013  02 22  -21.0117 26040.3 -03477.2 -07.6058 26271.4
 21 08 2013  02 23  -21.0115 26040.3 -03477.2 -07.6059 26271.4
 21 08 2013  02 24  -21.0112 26040.2 -03477.2 -07.6059 26271.4
 21 08 2013  02 25  -21.0109 26040.1 -03477.2 -07.6058 26271.3
 21 08 2013  02 26  -21.0106 26040.2 -03477.2 -07.6059 26271.3
 21 08 2013  02 27  -21.0103 26040.4 -03477.3 -07.6059 26271.5
 21 08 2013  02 28  -21.0100 26040.6 -03477.4 -07.6062 26271.8
 21 08 2013  02 29  -21.0096 26041.0 -03477.7 -07.6066 26272.2
 21 08 2013  02 30  -21.0092 26041.4 -03477.9 -07.6069 26272.6
 21 08 2013  02 31  -21.0088 26041.6 -03478.0 -07.6071 26272.8
 21 08 2013  02 32  -21.0082 26041.7 -03478.0 -07.6071 26272.9
 21 08 2013  02 33  -21.0078 26041.6 -03477.9 -07.6070 26272.8
 21 08 2013  02 34  -21.0078 26041.2 -03477.8 -07.6067 26272.4
 21 08 2013  02 35  -21.0079 26040.5 -03477.5 -07.6063 26271.6
 21 08 2013  02 36  -21.0080 26039.4 -03477.0 -07.6055 26270.5
 21 08 2013  02 37  -21.0083 26038.3 -03476.4 -07.6047 26269.3
 21 08 2013  02 38  -21.0088 26037.3 -03475.9 -07.6039 26268.3
 21 08 2013  02 39  -21.0093 26036.5 -03475.7 -07.6035 26267.5
 21 08 2013  02 40  -21.0098 26036.4 -03475.7 -07.6036 26267.4
 21 08 2013  02 41  -21.0100 26036.5 -03475.8 -07.6039 26267.5
 21 08 2013  02 42  -21.0104 26036.6 -03476.0 -07.6042 26267.6
 21 08 2013  02 43  -21.0104 26036.7 -03476.1 -07.6045 26267.8
 21 08 2013  02 44  -21.0104 26036.9 -03476.3 -07.6048 26267.9
 21 08 2013  02 45  -21.0103 26037.2 -03476.5 -07.6052 26268.2
 21 08 2013  02 46  -21.0101 26037.7 -03476.8 -07.6056 26268.8
 21 08 2013  02 47  -21.0100 26038.2 -03477.1 -07.6061 26269.3
 21 08 2013  02 48  -21.0098 26038.6 -03477.3 -07.6065 26269.7
 21 08 2013  02 49  -21.0092 26039.0 -03477.5 -07.6068 26270.2
 21 08 2013  02 50  -21.0085 26039.4 -03477.6 -07.6070 26270.6
 21 08 2013  02 51  -21.0079 26039.5 -03477.7 -07.6072 26270.7
 21 08 2013  02 52  -21.0075 26039.6 -03477.8 -07.6072 26270.8
 21 08 2013  02 53  -21.0069 26039.8 -03477.9 -07.6074 26271.0
 21 08 2013  02 54  -21.0066 26040.2 -03478.1 -07.6077 26271.5
 21 08 2013  02 55  -21.0065 26040.7 -03478.3 -07.6081 26272.0
 21 08 2013  02 56  -21.0064 26041.2 -03478.6 -07.6085 26272.5
 21 08 2013  02 57  -21.0062 26041.3 -03478.6 -07.6086 26272.6
 21 08 2013  02 58  -21.0060 26041.2 -03478.5 -07.6084 26272.5
 21 08 2013  02 59  -21.0057 26041.1 -03478.4 -07.6081 26272.4
 21 08 2013  03 00  -21.0055 26040.9 -03478.3 -07.6079 26272.2
 21 08 2013  03 01  -21.0055 26040.8 -03478.2 -07.6077 26272.0
 21 08 2013  03 02  -21.0061 26039.9 -03477.8 -07.6071 26271.1
 21 08 2013  03 03  -21.0085 26037.0 -03476.4 -07.6050 26268.0
 21 08 2013  03 04  -21.0118 26033.4 -03474.7 -07.6024 26264.3
 21 08 2013  03 05  -21.0143 26029.5 -03472.9 -07.5995 26260.2
 21 08 2013  03 06  -21.0156 26026.3 -03471.3 -07.5972 26256.7
 21 08 2013  03 07  -21.0159 26026.1 -03471.4 -07.5974 26256.6
 21 08 2013  03 08  -21.0147 26027.0 -03472.1 -07.5986 26257.6
 21 08 2013  03 09  -21.0144 26029.3 -03473.5 -07.6010 26260.0
 21 08 2013  03 10  -21.0145 26030.5 -03474.5 -07.6027 26261.4
 21 08 2013  03 11  -21.0149 26030.7 -03474.8 -07.6034 26261.6
 21 08 2013  03 12  -21.0153 26030.1 -03474.6 -07.6032 26261.0
 21 08 2013  03 13  -21.0162 26029.2 -03474.3 -07.6028 26260.1
 21 08 2013  03 14  -21.0172 26027.8 -03473.7 -07.6018 26258.5
 21 08 2013  03 15  -21.0183 26026.7 -03473.2 -07.6010 26257.4
 21 08 2013  03 16  -21.0192 26026.1 -03473.0 -07.6008 26256.8
 21 08 2013  03 17  -21.0197 26025.6 -03472.9 -07.6007 26256.2
 21 08 2013  03 18  -21.0197 26025.8 -03473.0 -07.6009 26256.5
 21 08 2013  03 19  -21.0202 26025.8 -03473.2 -07.6014 26256.5
 21 08 2013  03 20  -21.0206 26025.5 -03473.2 -07.6014 26256.2
 21 08 2013  03 21  -21.0206 26025.6 -03473.3 -07.6016 26256.3
 21 08 2013  03 22  -21.0201 26025.8 -03473.5 -07.6019 26256.6
 21 08 2013  03 23  -21.0201 26026.0 -03473.7 -07.6024 26256.8
 21 08 2013  03 24  -21.0200 26025.8 -03473.7 -07.6024 26256.6
 21 08 2013  03 25  -21.0198 26026.1 -03473.9 -07.6028 26257.0
 21 08 2013  03 26  -21.0200 26025.6 -03473.8 -07.6026 26256.4
 21 08 2013  03 27  -21.0201 26025.4 -03473.6 -07.6024 26256.2
 21 08 2013  03 28  -21.0203 26025.0 -03473.6 -07.6025 26255.8
 21 08 2013  03 29  -21.0205 26024.5 -03473.4 -07.6022 26255.3
 21 08 2013  03 30  -21.0209 26024.4 -03473.5 -07.6024 26255.2
 21 08 2013  03 31  -21.0213 26023.6 -03473.3 -07.6022 26254.4
 21 08 2013  03 32  -21.0215 26023.2 -03473.1 -07.6019 26253.9
 21 08 2013  03 33  -21.0221 26022.9 -03473.1 -07.6020 26253.6
 21 08 2013  03 34  -21.0226 26022.4 -03473.0 -07.6019 26253.1
 21 08 2013  03 35  -21.0228 26021.8 -03472.9 -07.6018 26252.6
 21 08 2013  03 36  -21.0230 26021.5 -03472.8 -07.6018 26252.2
 21 08 2013  03 37  -21.0232 26021.4 -03473.0 -07.6021 26252.2
 21 08 2013  03 38  -21.0237 26021.3 -03473.1 -07.6024 26252.0
 21 08 2013  03 39  -21.0242 26021.0 -03473.1 -07.6026 26251.7
 21 08 2013  03 40  -21.0245 26020.6 -03473.1 -07.6025 26251.4
 21 08 2013  03 41  -21.0245 26020.7 -03473.2 -07.6029 26251.5
 21 08 2013  03 42  -21.0248 26020.6 -03473.3 -07.6031 26251.4
 21 08 2013  03 43  -21.0251 26020.8 -03473.6 -07.6037 26251.6
 21 08 2013  03 44  -21.0252 26020.4 -03473.5 -07.6035 26251.2
 21 08 2013  03 45  -21.0250 26021.8 -03474.3 -07.6048 26252.7
 21 08 2013  03 46  -21.0257 26020.6 -03473.9 -07.6044 26251.4
 21 08 2013  03 47  -21.0258 26021.8 -03474.5 -07.6053 26252.7
 21 08 2013  03 48  -21.0266 26020.5 -03474.1 -07.6047 26251.4
 21 08 2013  03 49  -21.0269 26021.4 -03474.5 -07.6054 26252.4
 21 08 2013  03 50  -21.0274 26020.8 -03474.3 -07.6052 26251.7
 21 08 2013  03 51  -21.0275 26020.8 -03474.4 -07.6053 26251.7
 21 08 2013  03 52  -21.0279 26020.3 -03474.2 -07.6051 26251.3
 21 08 2013  03 53  -21.0281 26020.0 -03474.1 -07.6049 26250.9
 21 08 2013  03 54  -21.0285 26019.5 -03473.9 -07.6047 26250.4
 21 08 2013  03 55  -21.0285 26019.6 -03474.0 -07.6048 26250.5
 21 08 2013  03 56  -21.0289 26019.1 -03473.8 -07.6046 26250.0
 21 08 2013  03 57  -21.0292 26018.8 -03473.8 -07.6046 26249.7
 21 08 2013  03 58  -21.0292 26018.8 -03473.8 -07.6046 26249.7
 21 08 2013  03 59  -21.0291 26018.8 -03473.9 -07.6048 26249.7
 21 08 2013  04 00  -21.0292 26018.7 -03474.0 -07.6050 26249.6
 21 08 2013  04 01  -21.0295 26018.2 -03473.8 -07.6048 26249.1
 21 08 2013  04 02  -21.0297 26018.0 -03473.8 -07.6048 26248.9
 21 08 2013  04 03  -21.0298 26017.8 -03473.7 -07.6048 26248.7
 21 08 2013  04 04  -21.0299 26017.9 -03473.8 -07.6050 26248.8
 21 08 2013  04 05  -21.0302 26017.5 -03473.8 -07.6049 26248.4
 21 08 2013  04 06  -21.0302 26017.7 -03473.8 -07.6051 26248.6
 21 08 2013  04 07  -21.0304 26017.7 -03473.9 -07.6053 26248.6
 21 08 2013  04 08  -21.0308 26017.5 -03474.0 -07.6055 26248.4
 21 08 2013  04 09  -21.0310 26017.2 -03473.9 -07.6053 26248.1
 21 08 2013  04 10  -21.0311 26017.2 -03473.9 -07.6054 26248.1
 21 08 2013  04 11  -21.0315 26017.1 -03473.9 -07.6054 26248.0
 21 08 2013  04 12  -21.0319 26017.5 -03474.2 -07.6059 26248.4
 21 08 2013  04 13  -21.0324 26017.3 -03474.2 -07.6060 26248.2
 21 08 2013  04 14  -21.0323 26017.5 -03474.3 -07.6062 26248.5
 21 08 2013  04 15  -21.0321 26017.8 -03474.6 -07.6066 26248.8
 21 08 2013  04 16  -21.0320 26017.8 -03474.6 -07.6066 26248.8
 21 08 2013  04 17  -21.0319 26018.0 -03474.7 -07.6069 26249.0
 21 08 2013  04 18  -21.0318 26018.5 -03475.0 -07.6074 26249.5
 21 08 2013  04 19  -21.0318 26018.7 -03475.2 -07.6077 26249.8
 21 08 2013  04 20  -21.0318 26019.0 -03475.4 -07.6080 26250.1
 21 08 2013  04 21  -21.0322 26019.5 -03475.7 -07.6085 26250.6
 21 08 2013  04 22  -21.0325 26020.3 -03476.1 -07.6092 26251.4
 21 08 2013  04 23  -21.0330 26020.5 -03476.3 -07.6096 26251.7
 21 08 2013  04 24  -21.0332 26020.8 -03476.5 -07.6099 26252.0
 21 08 2013  04 25  -21.0333 26021.1 -03476.6 -07.6100 26252.3
 21 08 2013  04 26  -21.0338 26021.0 -03476.6 -07.6100 26252.2
 21 08 2013  04 27  -21.0343 26020.7 -03476.3 -07.6096 26251.9
 21 08 2013  04 28  -21.0346 26020.3 -03476.1 -07.6091 26251.5
 21 08 2013  04 29  -21.0351 26019.6 -03475.7 -07.6084 26250.7
 21 08 2013  04 30  -21.0353 26018.9 -03475.2 -07.6076 26250.0
 21 08 2013  04 31  -21.0354 26018.2 -03474.7 -07.6069 26249.2
 21 08 2013  04 32  -21.0356 26017.6 -03474.4 -07.6063 26248.6
 21 08 2013  04 33  -21.0358 26016.8 -03474.0 -07.6056 26247.8
 21 08 2013  04 34  -21.0358 26016.4 -03473.7 -07.6052 26247.3
 21 08 2013  04 35  -21.0357 26016.0 -03473.5 -07.6048 26246.9
 21 08 2013  04 36  -21.0358 26015.5 -03473.3 -07.6046 26246.3
 21 08 2013  04 37  -21.0361 26015.0 -03473.2 -07.6045 26245.9
 21 08 2013  04 38  -21.0364 26014.9 -03473.3 -07.6046 26245.8
 21 08 2013  04 39  -21.0369 26015.0 -03473.4 -07.6049 26245.8
 21 08 2013  04 40  -21.0373 26015.0 -03473.6 -07.6052 26245.9
 21 08 2013  04 41  -21.0375 26015.0 -03473.6 -07.6054 26245.9
 21 08 2013  04 42  -21.0377 26015.2 -03473.8 -07.6057 26246.1
 21 08 2013  04 43  -21.0378 26015.5 -03474.1 -07.6062 26246.4
 21 08 2013  04 44  -21.0380 26015.5 -03474.2 -07.6065 26246.5
 21 08 2013  04 45  -21.0380 26015.6 -03474.4 -07.6069 26246.6
 21 08 2013  04 46  -21.0381 26015.4 -03474.4 -07.6069 26246.3
 21 08 2013  04 47  -21.0382 26015.1 -03474.3 -07.6069 26246.1
 21 08 2013  04 48  -21.0382 26014.8 -03474.2 -07.6067 26245.8
 21 08 2013  04 49  -21.0382 26014.5 -03474.1 -07.6066 26245.5
 21 08 2013  04 50  -21.0385 26014.4 -03474.1 -07.6066 26245.3
 21 08 2013  04 51  -21.0387 26014.2 -03474.1 -07.6065 26245.2
 21 08 2013  04 52  -21.0388 26014.0 -03473.9 -07.6063 26245.0
 21 08 2013  04 53  -21.0389 26013.8 -03473.9 -07.6062 26244.8
 21 08 2013  04 54  -21.0388 26013.5 -03473.7 -07.6059 26244.4
 21 08 2013  04 55  -21.0385 26013.5 -03473.7 -07.6059 26244.4
 21 08 2013  04 56  -21.0382 26013.3 -03473.6 -07.6059 26244.2
 21 08 2013  04 57  -21.0379 26013.2 -03473.6 -07.6059 26244.1
 21 08 2013  04 58  -21.0376 26013.1 -03473.6 -07.6059 26244.0
 21 08 2013  04 59  -21.0374 26013.1 -03473.7 -07.6062 26244.0
 21 08 2013  05 00  -21.0376 26013.3 -03473.9 -07.6065 26244.2
 21 08 2013  05 01  -21.0380 26013.5 -03474.1 -07.6069 26244.4
 21 08 2013  05 02  -21.0385 26013.7 -03474.3 -07.6073 26244.7
 21 08 2013  05 03  -21.0391 26013.8 -03474.5 -07.6076 26244.8
 21 08 2013  05 04  -21.0395 26014.0 -03474.6 -07.6078 26245.0
 21 08 2013  05 05  -21.0397 26014.0 -03474.6 -07.6078 26245.0
 21 08 2013  05 06  -21.0395 26013.9 -03474.6 -07.6078 26245.0
 21 08 2013  05 07  -21.0395 26013.8 -03474.5 -07.6077 26244.8
 21 08 2013  05 08  -21.0395 26013.6 -03474.5 -07.6076 26244.6
 21 08 2013  05 09  -21.0396 26013.8 -03474.5 -07.6076 26244.8
 21 08 2013  05 10  -21.0396 26013.9 -03474.6 -07.6079 26244.9
 21 08 2013  05 11  -21.0393 26014.2 -03474.8 -07.6081 26245.2
 21 08 2013  05 12  -21.0392 26014.4 -03475.0 -07.6084 26245.4
 21 08 2013  05 13  -21.0395 26014.5 -03475.0 -07.6086 26245.6
 21 08 2013  05 14  -21.0393 26014.5 -03475.1 -07.6086 26245.6
 21 08 2013  05 15  -21.0389 26015.0 -03475.3 -07.6089 26246.1
 21 08 2013  05 16  -21.0388 26015.2 -03475.5 -07.6093 26246.3
 21 08 2013  05 17  -21.0392 26015.8 -03475.8 -07.6099 26246.9
 21 08 2013  05 18  -21.0403 26016.5 -03476.3 -07.6108 26247.8
 21 08 2013  05 19  -21.0414 26017.3 -03476.8 -07.6115 26248.5
 21 08 2013  05 20  -21.0421 26017.8 -03477.1 -07.6120 26249.1
 21 08 2013  05 21  -21.0426 26018.3 -03477.3 -07.6124 26249.6
 21 08 2013  05 22  -21.0429 26018.4 -03477.4 -07.6124 26249.7
 21 08 2013  05 23  -21.0429 26018.4 -03477.2 -07.6122 26249.7
 21 08 2013  05 24  -21.0427 26018.6 -03477.2 -07.6119 26249.9
 21 08 2013  05 25  -21.0422 26018.3 -03476.9 -07.6115 26249.6
 21 08 2013  05 26  -21.0410 26017.5 -03476.4 -07.6105 26248.8
 21 08 2013  05 27  -21.0399 26016.9 -03475.9 -07.6098 26248.1
 21 08 2013  05 28  -21.0393 26016.6 -03475.6 -07.6092 26247.8
 21 08 2013  05 29  -21.0387 26016.4 -03475.5 -07.6089 26247.5
 21 08 2013  05 30  -21.0378 26016.1 -03475.3 -07.6087 26247.2
 21 08 2013  05 31  -21.0370 26016.1 -03475.3 -07.6087 26247.2
 21 08 2013  05 32  -21.0366 26015.9 -03475.3 -07.6088 26247.0
 21 08 2013  05 33  -21.0360 26015.7 -03475.3 -07.6088 26246.8
 21 08 2013  05 34  -21.0355 26015.4 -03475.2 -07.6087 26246.5
 21 08 2013  05 35  -21.0348 26015.2 -03475.2 -07.6086 26246.3
 21 08 2013  05 36  -21.0340 26014.9 -03475.1 -07.6085 26245.9
 21 08 2013  05 37  -21.0332 26014.5 -03475.0 -07.6084 26245.6
 21 08 2013  05 38  -21.0326 26014.5 -03475.0 -07.6085 26245.6
 21 08 2013  05 39  -21.0320 26014.7 -03475.2 -07.6088 26245.8
 21 08 2013  05 40  -21.0313 26014.8 -03475.3 -07.6091 26245.9
 21 08 2013  05 41  -21.0307 26015.0 -03475.5 -07.6094 26246.2
 21 08 2013  05 42  -21.0299 26015.2 -03475.7 -07.6098 26246.4
 21 08 2013  05 43  -21.0296 26015.4 -03475.9 -07.6101 26246.5
 21 08 2013  05 44  -21.0292 26015.6 -03476.1 -07.6104 26246.8
 21 08 2013  05 45  -21.0289 26015.7 -03476.2 -07.6107 26246.9
 21 08 2013  05 46  -21.0286 26015.8 -03476.3 -07.6108 26247.0
 21 08 2013  05 47  -21.0282 26015.7 -03476.2 -07.6108 26246.9
 21 08 2013  05 48  -21.0277 26015.7 -03476.3 -07.6108 26246.9
 21 08 2013  05 49  -21.0274 26015.7 -03476.3 -07.6110 26247.0
 21 08 2013  05 50  -21.0271 26015.7 -03476.3 -07.6110 26247.0
 21 08 2013  05 51  -21.0269 26015.8 -03476.4 -07.6110 26247.0
 21 08 2013  05 52  -21.0268 26015.9 -03476.4 -07.6112 26247.1
 21 08 2013  05 53  -21.0266 26015.9 -03476.5 -07.6113 26247.2
 21 08 2013  05 54  -21.0266 26016.1 -03476.6 -07.6114 26247.3
 21 08 2013  05 55  -21.0268 26016.1 -03476.7 -07.6117 26247.4
 21 08 2013  05 56  -21.0269 26016.4 -03476.9 -07.6119 26247.7
 21 08 2013  05 57  -21.0273 26016.5 -03476.9 -07.6121 26247.8
 21 08 2013  05 58  -21.0279 26016.5 -03476.9 -07.6121 26247.8
 21 08 2013  05 59  -21.0284 26016.5 -03476.9 -07.6120 26247.8
 21 08 2013  06 00  -21.0288 26016.5 -03476.9 -07.6119 26247.8
 21 08 2013  06 01  -21.0292 26016.5 -03476.8 -07.6118 26247.8
 21 08 2013  06 02  -21.0295 26016.4 -03476.8 -07.6118 26247.7
 21 08 2013  06 03  -21.0295 26016.6 -03476.8 -07.6118 26247.9
 21 08 2013  06 04  -21.0294 26016.9 -03477.0 -07.6121 26248.2
 21 08 2013  06 05  -21.0297 26016.9 -03477.0 -07.6122 26248.2
 21 08 2013  06 06  -21.0301 26016.9 -03477.0 -07.6121 26248.2
 21 08 2013  06 07  -21.0304 26016.8 -03477.0 -07.6120 26248.1
 21 08 2013  06 08  -21.0306 26016.8 -03476.9 -07.6120 26248.1
 21 08 2013  06 09  -21.0308 26017.0 -03477.0 -07.6120 26248.3
 21 08 2013  06 10  -21.0308 26017.2 -03477.1 -07.6122 26248.5
 21 08 2013  06 11  -21.0307 26017.3 -03477.2 -07.6123 26248.6
 21 08 2013  06 12  -21.0305 26017.2 -03477.1 -07.6123 26248.6
 21 08 2013  06 13  -21.0305 26017.0 -03477.0 -07.6121 26248.3
 21 08 2013  06 14  -21.0303 26017.0 -03477.0 -07.6120 26248.3
 21 08 2013  06 15  -21.0299 26017.2 -03477.1 -07.6121 26248.5
 21 08 2013  06 16  -21.0293 26017.4 -03477.2 -07.6124 26248.7
 21 08 2013  06 17  -21.0289 26017.3 -03477.2 -07.6125 26248.7
 21 08 2013  06 18  -21.0284 26017.4 -03477.3 -07.6126 26248.7
 21 08 2013  06 19  -21.0280 26017.4 -03477.3 -07.6127 26248.7
 21 08 2013  06 20  -21.0279 26017.3 -03477.3 -07.6127 26248.7
 21 08 2013  06 21  -21.0276 26017.4 -03477.4 -07.6129 26248.7
 21 08 2013  06 22  -21.0277 26017.3 -03477.5 -07.6130 26248.7
 21 08 2013  06 23  -21.0280 26017.0 -03477.4 -07.6129 26248.4
 21 08 2013  06 24  -21.0281 26017.1 -03477.5 -07.6131 26248.5
 21 08 2013  06 25  -21.0280 26017.4 -03477.6 -07.6133 26248.8
 21 08 2013  06 26  -21.0279 26017.7 -03477.8 -07.6137 26249.1
 21 08 2013  06 27  -21.0280 26017.9 -03478.0 -07.6140 26249.3
 21 08 2013  06 28  -21.0282 26018.0 -03478.1 -07.6142 26249.4
 21 08 2013  06 29  -21.0282 26018.1 -03478.2 -07.6143 26249.6
 21 08 2013  06 30  -21.0280 26018.1 -03478.2 -07.6143 26249.5
 21 08 2013  06 31  -21.0277 26018.5 -03478.3 -07.6145 26249.9
 21 08 2013  06 32  -21.0275 26018.7 -03478.5 -07.6148 26250.2
 21 08 2013  06 33  -21.0278 26018.6 -03478.5 -07.6148 26250.1
 21 08 2013  06 34  -21.0283 26018.6 -03478.5 -07.6148 26250.1
 21 08 2013  06 35  -21.0284 26018.6 -03478.5 -07.6148 26250.1
 21 08 2013  06 36  -21.0283 26018.8 -03478.5 -07.6148 26250.3
 21 08 2013  06 37  -21.0280 26019.1 -03478.6 -07.6150 26250.6
 21 08 2013  06 38  -21.0276 26019.3 -03478.7 -07.6151 26250.8
 21 08 2013  06 39  -21.0275 26019.3 -03478.7 -07.6151 26250.8
 21 08 2013  06 40  -21.0275 26019.3 -03478.7 -07.6151 26250.8
 21 08 2013  06 41  -21.0275 26019.2 -03478.6 -07.6150 26250.7
 21 08 2013  06 42  -21.0277 26019.0 -03478.6 -07.6149 26250.5
 21 08 2013  06 43  -21.0279 26019.0 -03478.6 -07.6150 26250.6
 21 08 2013  06 44  -21.0284 26019.0 -03478.6 -07.6149 26250.5
 21 08 2013  06 45  -21.0288 26019.2 -03478.7 -07.6151 26250.7
 21 08 2013  06 46  -21.0295 26019.5 -03478.8 -07.6153 26251.0
 21 08 2013  06 47  -21.0300 26019.8 -03479.0 -07.6156 26251.4
 21 08 2013  06 48  -21.0304 26020.3 -03479.2 -07.6158 26251.9
 21 08 2013  06 49  -21.0308 26020.6 -03479.3 -07.6160 26252.2
 21 08 2013  06 50  -21.0313 26020.6 -03479.3 -07.6159 26252.2
 21 08 2013  06 51  -21.0319 26020.7 -03479.2 -07.6158 26252.2
 21 08 2013  06 52  -21.0325 26020.8 -03479.2 -07.6157 26252.3
 21 08 2013  06 53  -21.0328 26020.8 -03479.1 -07.6155 26252.4
 21 08 2013  06 54  -21.0330 26020.9 -03479.1 -07.6154 26252.5
 21 08 2013  06 55  -21.0329 26021.0 -03479.0 -07.6153 26252.6
 21 08 2013  06 56  -21.0328 26021.2 -03479.1 -07.6153 26252.8
 21 08 2013  06 57  -21.0326 26021.2 -03479.0 -07.6152 26252.8
 21 08 2013  06 58  -21.0324 26021.2 -03478.9 -07.6151 26252.7
 21 08 2013  06 59  -21.0321 26021.2 -03478.9 -07.6149 26252.7
 21 08 2013  07 00  -21.0319 26021.2 -03478.9 -07.6149 26252.7
 21 08 2013  07 01  -21.0317 26021.2 -03478.8 -07.6148 26252.8
 21 08 2013  07 02  -21.0316 26021.4 -03478.9 -07.6149 26252.9
 21 08 2013  07 03  -21.0314 26021.4 -03478.9 -07.6149 26252.9
 21 08 2013  07 04  -21.0312 26021.4 -03478.8 -07.6148 26252.9
 21 08 2013  07 05  -21.0307 26021.3 -03478.8 -07.6147 26252.8
 21 08 2013  07 06  -21.0302 26021.1 -03478.7 -07.6145 26252.6
 21 08 2013  07 07  -21.0298 26021.1 -03478.7 -07.6145 26252.6
 21 08 2013  07 08  -21.0295 26021.1 -03478.7 -07.6145 26252.6
 21 08 2013  07 09  -21.0292 26021.1 -03478.7 -07.6146 26252.6
 21 08 2013  07 10  -21.0290 26021.0 -03478.7 -07.6146 26252.5
 21 08 2013  07 11  -21.0287 26021.1 -03478.7 -07.6146 26252.6
 21 08 2013  07 12  -21.0285 26021.0 -03478.7 -07.6146 26252.5
 21 08 2013  07 13  -21.0283 26021.0 -03478.7 -07.6146 26252.5
 21 08 2013  07 14  -21.0282 26021.1 -03478.8 -07.6148 26252.6
 21 08 2013  07 15  -21.0281 26021.2 -03478.9 -07.6149 26252.7
 21 08 2013  07 16  -21.0280 26021.3 -03479.0 -07.6151 26252.8
 21 08 2013  07 17  -21.0278 26021.4 -03479.0 -07.6152 26253.0
 21 08 2013  07 18  -21.0277 26021.5 -03479.1 -07.6153 26253.1
 21 08 2013  07 19  -21.0276 26021.7 -03479.2 -07.6155 26253.3
 21 08 2013  07 20  -21.0274 26021.9 -03479.3 -07.6156 26253.4
 21 08 2013  07 21  -21.0270 26021.9 -03479.3 -07.6156 26253.5
 21 08 2013  07 22  -21.0266 26022.1 -03479.4 -07.6157 26253.7
 21 08 2013  07 23  -21.0263 26022.0 -03479.3 -07.6156 26253.6
 21 08 2013  07 24  -21.0263 26022.1 -03479.4 -07.6157 26253.7
 21 08 2013  07 25  -21.0265 26022.2 -03479.5 -07.6159 26253.8
 21 08 2013  07 26  -21.0268 26022.3 -03479.5 -07.6160 26253.9
 21 08 2013  07 27  -21.0270 26022.4 -03479.6 -07.6162 26254.0
 21 08 2013  07 28  -21.0270 26022.6 -03479.6 -07.6161 26254.2
 21 08 2013  07 29  -21.0268 26022.8 -03479.6 -07.6161 26254.4
 21 08 2013  07 30  -21.0264 26023.2 -03479.8 -07.6163 26254.9
 21 08 2013  07 31  -21.0262 26023.5 -03479.9 -07.6165 26255.1
 21 08 2013  07 32  -21.0261 26023.6 -03479.9 -07.6165 26255.2
 21 08 2013  07 33  -21.0258 26023.6 -03479.9 -07.6164 26255.3
 21 08 2013  07 34  -21.0253 26023.6 -03479.8 -07.6163 26255.2
 21 08 2013  07 35  -21.0250 26023.5 -03479.7 -07.6161 26255.1
 21 08 2013  07 36  -21.0245 26023.5 -03479.7 -07.6160 26255.1
 21 08 2013  07 37  -21.0241 26023.6 -03479.7 -07.6160 26255.2
 21 08 2013  07 38  -21.0238 26023.8 -03479.8 -07.6162 26255.4
 21 08 2013  07 39  -21.0238 26024.1 -03480.0 -07.6165 26255.8
 21 08 2013  07 40  -21.0237 26024.4 -03480.2 -07.6168 26256.1
 21 08 2013  07 41  -21.0238 26024.7 -03480.3 -07.6170 26256.4
 21 08 2013  07 42  -21.0238 26025.0 -03480.4 -07.6171 26256.7
 21 08 2013  07 43  -21.0235 26025.0 -03480.4 -07.6171 26256.7
 21 08 2013  07 44  -21.0235 26025.0 -03480.3 -07.6169 26256.7
 21 08 2013  07 45  -21.0233 26025.0 -03480.3 -07.6169 26256.7
 21 08 2013  07 46  -21.0231 26025.0 -03480.2 -07.6167 26256.6
 21 08 2013  07 47  -21.0230 26024.9 -03480.1 -07.6166 26256.6
 21 08 2013  07 48  -21.0226 26024.9 -03480.0 -07.6164 26256.5
 21 08 2013  07 49  -21.0225 26025.0 -03480.0 -07.6163 26256.6
 21 08 2013  07 50  -21.0222 26025.0 -03480.0 -07.6163 26256.6
 21 08 2013  07 51  -21.0218 26025.0 -03480.0 -07.6162 26256.7
 21 08 2013  07 52  -21.0220 26025.1 -03480.0 -07.6163 26256.7
 21 08 2013  07 53  -21.0219 26025.2 -03480.1 -07.6164 26256.8
 21 08 2013  07 54  -21.0217 26025.2 -03480.1 -07.6164 26256.9
 21 08 2013  07 55  -21.0218 26025.4 -03480.1 -07.6164 26257.0
 21 08 2013  07 56  -21.0217 26025.5 -03480.2 -07.6165 26257.1
 21 08 2013  07 57  -21.0213 26025.6 -03480.2 -07.6166 26257.2
 21 08 2013  07 58  -21.0214 26025.7 -03480.2 -07.6166 26257.3
 21 08 2013  07 59  -21.0216 26025.6 -03480.2 -07.6165 26257.2
 21 08 2013  08 00  -21.0214 26025.3 -03480.1 -07.6163 26257.0
 21 08 2013  08 01  -21.0213 26025.0 -03479.9 -07.6160 26256.6
 21 08 2013  08 02  -21.0212 26024.8 -03479.8 -07.6158 26256.4
 21 08 2013  08 03  -21.0212 26024.7 -03479.6 -07.6155 26256.3
 21 08 2013  08 04  -21.0210 26024.7 -03479.7 -07.6156 26256.3
 21 08 2013  08 05  -21.0207 26024.7 -03479.6 -07.6156 26256.3
 21 08 2013  08 06  -21.0205 26024.8 -03479.7 -07.6157 26256.4
 21 08 2013  08 07  -21.0208 26025.0 -03479.9 -07.6160 26256.6
 21 08 2013  08 08  -21.0208 26024.4 -03479.7 -07.6157 26256.0
 21 08 2013  08 09  -21.0202 26023.7 -03479.3 -07.6151 26255.3
 21 08 2013  08 10  -21.0191 26023.3 -03479.0 -07.6146 26254.9
 21 08 2013  08 11  -21.0178 26023.3 -03479.0 -07.6145 26254.8
 21 08 2013  08 12  -21.0168 26023.2 -03478.9 -07.6143 26254.7
 21 08 2013  08 13  -21.0161 26023.8 -03479.2 -07.6149 26255.4
 21 08 2013  08 14  -21.0155 26024.4 -03479.7 -07.6157 26256.0
 21 08 2013  08 15  -21.0146 26024.5 -03479.8 -07.6159 26256.1
 21 08 2013  08 16  -21.0134 26024.2 -03479.7 -07.6158 26255.8
 21 08 2013  08 17  -21.0122 26023.8 -03479.5 -07.6156 26255.3
 21 08 2013  08 18  -21.0107 26023.5 -03479.4 -07.6154 26255.0
 21 08 2013  08 19  -21.0092 26023.3 -03479.4 -07.6153 26254.9
 21 08 2013  08 20  -21.0083 26023.2 -03479.4 -07.6154 26254.8
 21 08 2013  08 21  -21.0073 26023.3 -03479.4 -07.6155 26254.8
 21 08 2013  08 22  -21.0065 26023.4 -03479.6 -07.6158 26255.0
 21 08 2013  08 23  -21.0058 26023.4 -03479.6 -07.6159 26255.0
 21 08 2013  08 24  -21.0054 26022.9 -03479.5 -07.6157 26254.5
 21 08 2013  08 25  -21.0050 26022.7 -03479.5 -07.6158 26254.3
 21 08 2013  08 26  -21.0048 26022.0 -03479.2 -07.6153 26253.5
 21 08 2013  08 27  -21.0049 26021.8 -03479.2 -07.6154 26253.4
 21 08 2013  08 28  -21.0053 26021.7 -03479.2 -07.6154 26253.3
 21 08 2013  08 29  -21.0058 26021.9 -03479.4 -07.6158 26253.5
 21 08 2013  08 30  -21.0063 26022.1 -03479.5 -07.6160 26253.7
 21 08 2013  08 31  -21.0066 26022.2 -03479.5 -07.6161 26253.8
 21 08 2013  08 32  -21.0065 26022.1 -03479.4 -07.6159 26253.7
 21 08 2013  08 33  -21.0058 26022.0 -03479.3 -07.6156 26253.6
 21 08 2013  08 34  -21.0054 26021.9 -03479.2 -07.6154 26253.5
 21 08 2013  08 35  -21.0050 26021.9 -03479.2 -07.6155 26253.5
 21 08 2013  08 36  -21.0039 26021.8 -03479.1 -07.6153 26253.3
 21 08 2013  08 37  -21.0032 26021.7 -03479.1 -07.6152 26253.3
 21 08 2013  08 38  -21.0026 26021.8 -03479.2 -07.6154 26253.4
 21 08 2013  08 39  -21.0017 26021.7 -03479.2 -07.6154 26253.3
 21 08 2013  08 40  -21.0008 26021.8 -03479.1 -07.6152 26253.3
 21 08 2013  08 41  -20.9993 26021.7 -03479.2 -07.6155 26253.3
 21 08 2013  08 42  -20.9982 26021.5 -03479.2 -07.6156 26253.1
 21 08 2013  08 43  -20.9976 26021.5 -03479.3 -07.6157 26253.1
 21 08 2013  08 44  -20.9967 26021.2 -03479.3 -07.6157 26252.8
 21 08 2013  08 45  -20.9953 26021.1 -03479.2 -07.6157 26252.6
 21 08 2013  08 46  -20.9942 26020.9 -03479.2 -07.6158 26252.5
 21 08 2013  08 47  -20.9942 26020.9 -03479.4 -07.6162 26252.5
 21 08 2013  08 48  -20.9939 26020.9 -03479.6 -07.6167 26252.5
 21 08 2013  08 49  -20.9936 26020.9 -03479.8 -07.6170 26252.6
 21 08 2013  08 50  -20.9933 26021.0 -03480.0 -07.6174 26252.7
 21 08 2013  08 51  -20.9935 26021.1 -03480.2 -07.6179 26252.8
 21 08 2013  08 52  -20.9932 26021.1 -03480.4 -07.6182 26252.9
 21 08 2013  08 53  -20.9927 26021.0 -03480.4 -07.6184 26252.7
 21 08 2013  08 54  -20.9928 26020.9 -03480.5 -07.6186 26252.7
 21 08 2013  08 55  -20.9924 26020.8 -03480.6 -07.6187 26252.6
 21 08 2013  08 56  -20.9920 26020.7 -03480.6 -07.6187 26252.5
 21 08 2013  08 57  -20.9926 26020.7 -03480.8 -07.6192 26252.5
 21 08 2013  08 58  -20.9932 26020.9 -03481.0 -07.6197 26252.7
 21 08 2013  08 59  -20.9933 26020.8 -03481.1 -07.6199 26252.7
 21 08 2013  09 00  -20.9935 26020.6 -03481.1 -07.6198 26252.4
 21 08 2013  09 01  -20.9935 26020.6 -03481.1 -07.6199 26252.4
 21 08 2013  09 02  -20.9935 26020.5 -03481.2 -07.6201 26252.4
 21 08 2013  09 03  -20.9937 26020.6 -03481.3 -07.6204 26252.5
 21 08 2013  09 04  -20.9940 26020.6 -03481.4 -07.6205 26252.4
 21 08 2013  09 05  -20.9933 26020.5 -03481.3 -07.6204 26252.4
 21 08 2013  09 06  -20.9935 26020.4 -03481.3 -07.6204 26252.3
 21 08 2013  09 07  -20.9937 26020.4 -03481.5 -07.6207 26252.3
 21 08 2013  09 08  -20.9936 26020.2 -03481.5 -07.6208 26252.1
 21 08 2013  09 09  -20.9941 26020.3 -03481.6 -07.6211 26252.2
 21 08 2013  09 10  -20.9942 26020.3 -03481.8 -07.6214 26252.2
 21 08 2013  09 11  -20.9945 26020.5 -03482.0 -07.6218 26252.5
 21 08 2013  09 12  -20.9941 26020.6 -03482.1 -07.6220 26252.6
 21 08 2013  09 13  -20.9937 26020.5 -03482.1 -07.6221 26252.5
 21 08 2013  09 14  -20.9934 26020.8 -03482.4 -07.6226 26252.8
 21 08 2013  09 15  -20.9928 26021.0 -03482.5 -07.6229 26253.0
 21 08 2013  09 16  -20.9919 26021.0 -03482.6 -07.6230 26253.0
 21 08 2013  09 17  -20.9912 26020.8 -03482.6 -07.6231 26252.8
 21 08 2013  09 18  -20.9912 26020.8 -03482.7 -07.6233 26252.8
 21 08 2013  09 19  -20.9900 26020.5 -03482.7 -07.6233 26252.5
 21 08 2013  09 20  -20.9900 26020.3 -03482.7 -07.6236 26252.3
 21 08 2013  09 21  -20.9897 26020.4 -03483.0 -07.6241 26252.5
 21 08 2013  09 22  -20.9893 26020.5 -03483.2 -07.6245 26252.6
 21 08 2013  09 23  -20.9892 26020.8 -03483.5 -07.6250 26252.9
 21 08 2013  09 24  -20.9891 26020.9 -03483.7 -07.6254 26253.1
 21 08 2013  09 25  -20.9892 26020.9 -03483.9 -07.6258 26253.1
 21 08 2013  09 26  -20.9888 26020.9 -03484.0 -07.6261 26253.1
 21 08 2013  09 27  -20.9880 26020.8 -03484.1 -07.6263 26253.0
 21 08 2013  09 28  -20.9879 26020.8 -03484.3 -07.6267 26253.1
 21 08 2013  09 29  -20.9875 26020.8 -03484.4 -07.6271 26253.0
 21 08 2013  09 30  -20.9869 26020.6 -03484.5 -07.6273 26252.9
 21 08 2013  09 31  -20.9861 26020.7 -03484.7 -07.6277 26253.0
 21 08 2013  09 32  -20.9849 26020.8 -03484.9 -07.6281 26253.1
 21 08 2013  09 33  -20.9852 26021.3 -03485.3 -07.6289 26253.7
 21 08 2013  09 34  -20.9851 26021.6 -03485.7 -07.6295 26254.0
 21 08 2013  09 35  -20.9847 26022.2 -03486.0 -07.6301 26254.7
 21 08 2013  09 36  -20.9835 26022.1 -03485.9 -07.6299 26254.6
 21 08 2013  09 37  -20.9826 26022.5 -03486.1 -07.6302 26255.0
 21 08 2013  09 38  -20.9819 26023.0 -03486.4 -07.6308 26255.5
 21 08 2013  09 39  -20.9816 26023.6 -03486.9 -07.6316 26256.2
 21 08 2013  09 40  -20.9811 26024.5 -03487.4 -07.6325 26257.1
 21 08 2013  09 41  -20.9801 26025.1 -03487.7 -07.6330 26257.8
 21 08 2013  09 42  -20.9800 26025.0 -03487.8 -07.6331 26257.7
 21 08 2013  09 43  -20.9799 26024.6 -03487.6 -07.6327 26257.3
 21 08 2013  09 44  -20.9814 26024.7 -03487.7 -07.6329 26257.4
 21 08 2013  09 45  -20.9829 26024.7 -03487.9 -07.6334 26257.4
 21 08 2013  09 46  -20.9841 26024.0 -03487.7 -07.6332 26256.6
 21 08 2013  09 47  -20.9851 26023.2 -03487.6 -07.6333 26255.9
 21 08 2013  09 48  -20.9855 26023.1 -03487.9 -07.6338 26255.8
 21 08 2013  09 49  -20.9852 26022.9 -03488.0 -07.6341 26255.6
 21 08 2013  09 50  -20.9854 26022.3 -03487.8 -07.6340 26255.0
 21 08 2013  09 51  -20.9864 26021.9 -03487.8 -07.6341 26254.6
 21 08 2013  09 52  -20.9870 26021.8 -03488.0 -07.6344 26254.6
 21 08 2013  09 53  -20.9867 26022.2 -03488.2 -07.6348 26254.9
 21 08 2013  09 54  -20.9876 26023.1 -03488.8 -07.6357 26256.0
 21 08 2013  09 55  -20.9887 26024.7 -03489.6 -07.6371 26257.6
 21 08 2013  09 56  -20.9879 26026.0 -03490.2 -07.6379 26259.0
 21 08 2013  09 57  -20.9871 26026.7 -03490.3 -07.6380 26259.7
 21 08 2013  09 58  -20.9874 26027.2 -03490.3 -07.6380 26260.2
 21 08 2013  09 59  -20.9862 26027.6 -03490.3 -07.6378 26260.6
 21 08 2013  10 00  -20.9859 26027.3 -03489.8 -07.6368 26260.2
 21 08 2013  10 01  -20.9871 26027.0 -03489.5 -07.6363 26259.9
 21 08 2013  10 02  -20.9883 26026.8 -03489.6 -07.6364 26259.7
 21 08 2013  10 03  -20.9886 26026.6 -03489.5 -07.6364 26259.5
 21 08 2013  10 04  -20.9890 26026.1 -03489.5 -07.6364 26259.0
 21 08 2013  10 05  -20.9892 26026.0 -03489.5 -07.6365 26258.9
 21 08 2013  10 06  -20.9899 26026.4 -03489.8 -07.6371 26259.3
 21 08 2013  10 07  -20.9907 26026.8 -03490.1 -07.6376 26259.7
 21 08 2013  10 08  -20.9907 26027.1 -03490.2 -07.6378 26260.1
 21 08 2013  10 09  -20.9912 26027.5 -03490.4 -07.6381 26260.5
 21 08 2013  10 10  -20.9919 26027.7 -03490.5 -07.6382 26260.7
 21 08 2013  10 11  -20.9920 26027.9 -03490.6 -07.6383 26260.9
 21 08 2013  10 12  -20.9919 26028.2 -03490.7 -07.6384 26261.2
 21 08 2013  10 13  -20.9926 26028.4 -03490.8 -07.6385 26261.4
 21 08 2013  10 14  -20.9937 26028.5 -03490.8 -07.6387 26261.5
 21 08 2013  10 15  -20.9948 26028.7 -03490.9 -07.6388 26261.8
 21 08 2013  10 16  -20.9948 26029.0 -03491.0 -07.6390 26262.1
 21 08 2013  10 17  -20.9948 26029.4 -03491.1 -07.6389 26262.4
 21 08 2013  10 18  -20.9958 26029.5 -03491.2 -07.6392 26262.6
 21 08 2013  10 19  -20.9969 26029.5 -03491.2 -07.6392 26262.6
 21 08 2013  10 20  -20.9984 26029.8 -03491.3 -07.6394 26262.9
 21 08 2013  10 21  -20.9988 26030.2 -03491.5 -07.6395 26263.3
 21 08 2013  10 22  -20.9987 26030.1 -03491.3 -07.6392 26263.2
 21 08 2013  10 23  -20.9989 26030.5 -03491.3 -07.6392 26263.5
 21 08 2013  10 24  -20.9998 26030.8 -03491.4 -07.6391 26263.9
 21 08 2013  10 25  -20.9991 26031.3 -03491.4 -07.6390 26264.4
 21 08 2013  10 26  -20.9985 26032.0 -03491.5 -07.6391 26265.1
 21 08 2013  10 27  -20.9993 26032.6 -03491.7 -07.6394 26265.8
 21 08 2013  10 28  -20.9996 26033.8 -03492.0 -07.6397 26266.9
 21 08 2013  10 29  -21.0001 26034.3 -03492.0 -07.6395 26267.5
 21 08 2013  10 30  -21.0019 26034.3 -03491.8 -07.6390 26267.4
 21 08 2013  10 31  -21.0020 26034.5 -03491.5 -07.6383 26267.5
 21 08 2013  10 32  -21.0036 26034.6 -03491.4 -07.6381 26267.7
 21 08 2013  10 33  -21.0050 26033.8 -03490.9 -07.6373 26266.8
 21 08 2013  10 34  -21.0068 26033.1 -03490.5 -07.6367 26266.1
 21 08 2013  10 35  -21.0095 26032.0 -03490.2 -07.6363 26264.9
 21 08 2013  10 36  -21.0109 26031.4 -03490.1 -07.6363 26264.4
 21 08 2013  10 37  -21.0122 26031.3 -03490.1 -07.6364 26264.2
 21 08 2013  10 38  -21.0137 26031.8 -03490.4 -07.6368 26264.8
 21 08 2013  10 39  -21.0147 26032.5 -03490.7 -07.6372 26265.5
 21 08 2013  10 40  -21.0138 26033.3 -03490.8 -07.6373 26266.3
 21 08 2013  10 41  -21.0126 26033.9 -03490.8 -07.6369 26266.9
 21 08 2013  10 42  -21.0136 26034.2 -03490.7 -07.6368 26267.2
 21 08 2013  10 43  -21.0153 26033.9 -03490.6 -07.6365 26266.8
 21 08 2013  10 44  -21.0158 26033.7 -03490.3 -07.6361 26266.6
 21 08 2013  10 45  -21.0164 26033.0 -03489.8 -07.6352 26265.9
 21 08 2013  10 46  -21.0171 26033.1 -03489.8 -07.6351 26266.0
 21 08 2013  10 47  -21.0184 26033.2 -03489.8 -07.6351 26266.0
 21 08 2013  10 48  -21.0197 26032.8 -03489.7 -07.6350 26265.7
 21 08 2013  10 49  -21.0220 26032.7 -03489.8 -07.6352 26265.6
 21 08 2013  10 50  -21.0236 26032.7 -03489.9 -07.6354 26265.6
 21 08 2013  10 51  -21.0240 26032.8 -03489.9 -07.6354 26265.7
 21 08 2013  10 52  -21.0249 26032.8 -03489.8 -07.6352 26265.7
 21 08 2013  10 53  -21.0258 26033.5 -03489.9 -07.6353 26266.3
 21 08 2013  10 54  -21.0263 26033.7 -03490.0 -07.6353 26266.6
 21 08 2013  10 55  -21.0273 26033.7 -03489.8 -07.6350 26266.6
 21 08 2013  10 56  -21.0271 26034.0 -03489.8 -07.6347 26266.8
 21 08 2013  10 57  -21.0272 26034.3 -03489.7 -07.6345 26267.1
 21 08 2013  10 58  -21.0282 26034.7 -03489.7 -07.6344 26267.6
 21 08 2013  10 59  -21.0297 26034.9 -03489.7 -07.6343 26267.8
 21 08 2013  11 00  -21.0310 26034.6 -03489.4 -07.6338 26267.4
 21 08 2013  11 01  -21.0318 26034.7 -03489.2 -07.6333 26267.5
 21 08 2013  11 02  -21.0324 26034.5 -03488.9 -07.6327 26267.3
 21 08 2013  11 03  -21.0324 26034.5 -03488.6 -07.6322 26267.2
 21 08 2013  11 04  -21.0322 26034.3 -03488.3 -07.6316 26267.0
 21 08 2013  11 05  -21.0328 26034.4 -03488.2 -07.6314 26267.0
 21 08 2013  11 06  -21.0338 26034.6 -03488.2 -07.6313 26267.2
 21 08 2013  11 07  -21.0349 26034.9 -03488.2 -07.6312 26267.5
 21 08 2013  11 08  -21.0360 26035.4 -03488.3 -07.6312 26268.0
 21 08 2013  11 09  -21.0380 26035.6 -03488.3 -07.6311 26268.3
 21 08 2013  11 10  -21.0396 26036.0 -03488.3 -07.6310 26268.6
 21 08 2013  11 11  -21.0407 26036.2 -03488.1 -07.6306 26268.9
 21 08 2013  11 12  -21.0418 26036.5 -03488.0 -07.6303 26269.1
 21 08 2013  11 13  -21.0421 26037.3 -03488.1 -07.6301 26269.9
 21 08 2013  11 14  -21.0423 26037.6 -03487.9 -07.6298 26270.2
 21 08 2013  11 15  -21.0433 26038.2 -03488.1 -07.6298 26270.8
 21 08 2013  11 16  -21.0429 26039.7 -03488.3 -07.6299 26272.3
 21 08 2013  11 17  -21.0432 26040.1 -03488.0 -07.6291 26272.7
 21 08 2013  11 18  -21.0425 26040.9 -03487.8 -07.6286 26273.4
 21 08 2013  11 19  -21.0419 26041.5 -03487.5 -07.6278 26274.0
 21 08 2013  11 20  -21.0431 26041.9 -03487.2 -07.6270 26274.3
 21 08 2013  11 21  -21.0443 26041.6 -03486.8 -07.6261 26274.0
 21 08 2013  11 22  -21.0452 26040.8 -03486.2 -07.6251 26273.1
 21 08 2013  11 23  -21.0464 26039.8 -03485.8 -07.6245 26272.1
 21 08 2013  11 24  -21.0471 26039.5 -03485.7 -07.6243 26271.8
 21 08 2013  11 25  -21.0472 26039.9 -03485.8 -07.6245 26272.2
 21 08 2013  11 26  -21.0473 26040.6 -03486.0 -07.6248 26272.9
 21 08 2013  11 27  -21.0473 26040.8 -03485.9 -07.6245 26273.1
 21 08 2013  11 28  -21.0479 26040.6 -03485.7 -07.6240 26272.9
 21 08 2013  11 29  -21.0480 26040.1 -03485.3 -07.6233 26272.3
 21 08 2013  11 30  -21.0479 26040.0 -03485.1 -07.6230 26272.2
 21 08 2013  11 31  -21.0485 26040.2 -03485.1 -07.6230 26272.4
 21 08 2013  11 32  -21.0500 26040.6 -03485.3 -07.6231 26272.8
 21 08 2013  11 33  -21.0502 26041.3 -03485.3 -07.6230 26273.5
 21 08 2013  11 34  -21.0505 26041.9 -03485.3 -07.6229 26274.1
 21 08 2013  11 35  -21.0508 26041.9 -03485.1 -07.6223 26274.1
 21 08 2013  11 36  -21.0518 26041.7 -03484.8 -07.6218 26273.8
 21 08 2013  11 37  -21.0523 26041.4 -03484.5 -07.6213 26273.5
 21 08 2013  11 38  -21.0521 26041.2 -03484.3 -07.6208 26273.3
 21 08 2013  11 39  -21.0524 26041.4 -03484.2 -07.6206 26273.4
 21 08 2013  11 40  -21.0527 26041.7 -03484.2 -07.6206 26273.8
 21 08 2013  11 41  -21.0522 26042.0 -03484.1 -07.6203 26274.0
 21 08 2013  11 42  -21.0525 26042.7 -03484.3 -07.6203 26274.8
 21 08 2013  11 43  -21.0537 26043.2 -03484.3 -07.6203 26275.3
 21 08 2013  11 44  -21.0540 26043.9 -03484.3 -07.6200 26276.0
 21 08 2013  11 45  -21.0545 26044.3 -03484.1 -07.6195 26276.3
 21 08 2013  11 46  -21.0557 26044.2 -03483.8 -07.6189 26276.2
 21 08 2013  11 47  -21.0568 26043.4 -03483.3 -07.6180 26275.3
 21 08 2013  11 48  -21.0574 26043.0 -03483.0 -07.6175 26274.9
 21 08 2013  11 49  -21.0584 26043.0 -03483.0 -07.6175 26274.9
 21 08 2013  11 50  -21.0595 26043.4 -03483.1 -07.6176 26275.3
 21 08 2013  11 51  -21.0597 26043.9 -03483.1 -07.6175 26275.8
 21 08 2013  11 52  -21.0598 26044.3 -03483.1 -07.6173 26276.1
 21 08 2013  11 53  -21.0605 26044.3 -03482.9 -07.6170 26276.1
 21 08 2013  11 54  -21.0606 26044.1 -03482.6 -07.6163 26275.9
 21 08 2013  11 55  -21.0611 26044.8 -03482.7 -07.6164 26276.6
 21 08 2013  11 56  -21.0612 26045.1 -03482.7 -07.6162 26276.9
 21 08 2013  11 57  -21.0613 26044.9 -03482.3 -07.6155 26276.7
 21 08 2013  11 58  -21.0619 26044.5 -03482.0 -07.6149 26276.3
 21 08 2013  11 59  -21.0636 26044.2 -03481.7 -07.6144 26275.9
 21 08 2013  12 00  -21.0647 26044.1 -03481.6 -07.6141 26275.8
 21 08 2013  12 01  -21.0653 26044.2 -03481.5 -07.6140 26275.9
 21 08 2013  12 02  -21.0660 26045.4 -03481.9 -07.6145 26277.1
 21 08 2013  12 03  -21.0658 26046.0 -03481.9 -07.6143 26277.7
 21 08 2013  12 04  -21.0650 26045.7 -03481.3 -07.6131 26277.3
 21 08 2013  12 05  -21.0654 26045.6 -03481.1 -07.6127 26277.2
 21 08 2013  12 06  -21.0660 26046.6 -03481.3 -07.6128 26278.2
 21 08 2013  12 07  -21.0669 26047.8 -03481.4 -07.6128 26279.4
 21 08 2013  12 08  -21.0680 26047.7 -03481.1 -07.6120 26279.3
 21 08 2013  12 09  -21.0695 26047.8 -03480.8 -07.6114 26279.3
 21 08 2013  12 10  -21.0706 26048.1 -03480.7 -07.6111 26279.7
 21 08 2013  12 11  -21.0710 26048.5 -03480.6 -07.6107 26280.0
 21 08 2013  12 12  -21.0712 26048.8 -03480.4 -07.6103 26280.3
 21 08 2013  12 13  -21.0715 26050.0 -03480.6 -07.6104 26281.5
 21 08 2013  12 14  -21.0720 26050.8 -03480.7 -07.6102 26282.3
 21 08 2013  12 15  -21.0720 26052.0 -03480.7 -07.6100 26283.5
 21 08 2013  12 16  -21.0710 26053.2 -03480.8 -07.6098 26284.7
 21 08 2013  12 17  -21.0707 26053.5 -03480.4 -07.6089 26285.0
 21 08 2013  12 18  -21.0723 26052.7 -03479.7 -07.6077 26284.1
 21 08 2013  12 19  -21.0756 26050.7 -03478.8 -07.6061 26281.9
 21 08 2013  12 20  -21.0793 26049.7 -03478.5 -07.6059 26280.9
 21 08 2013  12 21  -21.0788 26051.8 -03479.2 -07.6068 26283.1
 21 08 2013  12 22  -21.0769 26052.8 -03479.2 -07.6064 26284.1
 21 08 2013  12 23  -21.0750 26051.6 -03478.1 -07.6046 26282.8
 21 08 2013  12 24  -21.0737 26049.9 -03477.1 -07.6027 26280.9
 21 08 2013  12 25  -21.0744 26050.0 -03477.2 -07.6030 26281.0
 21 08 2013  12 26  -21.0762 26050.8 -03477.7 -07.6038 26281.9
 21 08 2013  12 27  -21.0777 26050.2 -03477.5 -07.6035 26281.3
 21 08 2013  12 28  -21.0786 26048.5 -03476.8 -07.6025 26279.5
 21 08 2013  12 29  -21.0780 26047.8 -03476.4 -07.6020 26278.7
 21 08 2013  12 30  -21.0771 26045.9 -03475.6 -07.6006 26276.8
 21 08 2013  12 31  -21.0790 26043.2 -03474.7 -07.5995 26274.0
 21 08 2013  12 32  -21.0810 26042.1 -03474.7 -07.6000 26272.9
 21 08 2013  12 33  -21.0827 26043.1 -03475.6 -07.6016 26274.0
 21 08 2013  12 34  -21.0853 26043.2 -03476.0 -07.6023 26274.1
 21 08 2013  12 35  -21.0871 26044.0 -03476.5 -07.6032 26275.0
 21 08 2013  12 36  -21.0888 26046.3 -03477.4 -07.6044 26277.4
 21 08 2013  12 37  -21.0894 26047.8 -03477.8 -07.6048 26278.9
 21 08 2013  12 38  -21.0896 26049.3 -03478.0 -07.6049 26280.5
 21 08 2013  12 39  -21.0893 26051.7 -03478.6 -07.6056 26282.9
 21 08 2013  12 40  -21.0886 26055.4 -03479.6 -07.6066 26286.7
 21 08 2013  12 41  -21.0878 26058.2 -03479.9 -07.6065 26289.6
 21 08 2013  12 42  -21.0866 26059.4 -03479.4 -07.6050 26290.6
 21 08 2013  12 43  -21.0852 26059.2 -03478.3 -07.6028 26290.3
 21 08 2013  12 44  -21.0843 26059.9 -03478.0 -07.6018 26290.9
 21 08 2013  12 45  -21.0841 26060.9 -03477.8 -07.6011 26292.0
 21 08 2013  12 46  -21.0847 26061.1 -03477.3 -07.5999 26292.0
 21 08 2013  12 47  -21.0847 26059.6 -03476.1 -07.5978 26290.4
 21 08 2013  12 48  -21.0852 26058.6 -03475.2 -07.5963 26289.3
 21 08 2013  12 49  -21.0869 26056.8 -03474.3 -07.5948 26287.4
 21 08 2013  12 50  -21.0893 26054.9 -03473.5 -07.5936 26285.4
 21 08 2013  12 51  -21.0913 26053.2 -03472.9 -07.5929 26283.6
 21 08 2013  12 52  -21.0929 26053.7 -03473.3 -07.5936 26284.3
 21 08 2013  12 53  -21.0937 26054.1 -03473.5 -07.5938 26284.7
 21 08 2013  12 54  -21.0940 26053.3 -03473.1 -07.5932 26283.8
 21 08 2013  12 55  -21.0941 26052.2 -03472.7 -07.5925 26282.6
 21 08 2013  12 56  -21.0947 26051.6 -03472.5 -07.5923 26282.0
 21 08 2013  12 57  -21.0956 26052.7 -03473.0 -07.5932 26283.1
 21 08 2013  12 58  -21.0961 26052.1 -03472.8 -07.5930 26282.6
 21 08 2013  12 59  -21.0963 26051.4 -03472.5 -07.5924 26281.8
 21 08 2013  13 00  -21.0977 26052.0 -03472.8 -07.5930 26282.5
 21 08 2013  13 01  -21.0987 26052.5 -03473.1 -07.5934 26283.0
 21 08 2013  13 02  -21.0987 26052.2 -03472.8 -07.5929 26282.7
 21 08 2013  13 03  -21.0988 26052.6 -03472.8 -07.5928 26283.0
 21 08 2013  13 04  -21.0995 26053.0 -03472.9 -07.5928 26283.4
 21 08 2013  13 05  -21.0992 26053.5 -03472.8 -07.5926 26284.0
 21 08 2013  13 06  -21.0989 26054.3 -03472.9 -07.5924 26284.7
 21 08 2013  13 07  -21.0985 26054.5 -03472.8 -07.5921 26285.0
 21 08 2013  13 08  -21.0979 26054.8 -03472.7 -07.5919 26285.2
 21 08 2013  13 09  -21.0972 26054.8 -03472.6 -07.5916 26285.2
 21 08 2013  13 10  -21.0965 26055.1 -03472.5 -07.5914 26285.4
 21 08 2013  13 11  -21.0965 26055.3 -03472.5 -07.5912 26285.7
 21 08 2013  13 12  -21.0965 26055.2 -03472.3 -07.5910 26285.5
 21 08 2013  13 13  -21.0964 26054.9 -03472.2 -07.5907 26285.3
 21 08 2013  13 14  -21.0964 26055.0 -03472.1 -07.5906 26285.4
 21 08 2013  13 15  -21.0968 26055.2 -03472.1 -07.5906 26285.5
 21 08 2013  13 16  -21.0975 26055.3 -03472.2 -07.5907 26285.7
 21 08 2013  13 17  -21.0976 26055.4 -03472.2 -07.5907 26285.7
 21 08 2013  13 18  -21.0975 26055.8 -03472.3 -07.5908 26286.1
 21 08 2013  13 19  -21.0975 26056.7 -03472.6 -07.5912 26287.1
 21 08 2013  13 20  -21.0974 26057.6 -03472.9 -07.5916 26288.0
 21 08 2013  13 21  -21.0971 26058.2 -03473.0 -07.5916 26288.7
 21 08 2013  13 22  -21.0967 26059.5 -03473.4 -07.5920 26290.0
 21 08 2013  13 23  -21.0965 26060.7 -03473.6 -07.5921 26291.2
 21 08 2013  13 24  -21.0964 26061.8 -03473.7 -07.5920 26292.3
 21 08 2013  13 25  -21.0966 26063.2 -03473.9 -07.5920 26293.6
 21 08 2013  13 26  -21.0962 26064.8 -03474.2 -07.5923 26295.3
 21 08 2013  13 27  -21.0960 26065.9 -03474.2 -07.5920 26296.4
 21 08 2013  13 28  -21.0965 26066.6 -03474.1 -07.5916 26297.1
 21 08 2013  13 29  -21.0972 26066.7 -03473.9 -07.5909 26297.2
 21 08 2013  13 30  -21.0979 26066.9 -03473.7 -07.5905 26297.3
 21 08 2013  13 31  -21.0983 26066.9 -03473.5 -07.5900 26297.3
 21 08 2013  13 32  -21.0979 26066.8 -03473.2 -07.5896 26297.1
 21 08 2013  13 33  -21.0972 26066.1 -03472.9 -07.5890 26296.5
 21 08 2013  13 34  -21.0968 26065.7 -03472.7 -07.5887 26296.1
 21 08 2013  13 35  -21.0992 26065.7 -03472.8 -07.5890 26296.0
 21 08 2013  13 36  -21.0986 26065.8 -03473.0 -07.5894 26296.2
 21 08 2013  13 37  -21.0978 26066.1 -03473.2 -07.5897 26296.5
 21 08 2013  13 38  -21.0968 26066.2 -03473.3 -07.5899 26296.6
 21 08 2013  13 39  -21.0960 26065.7 -03473.3 -07.5899 26296.1
 21 08 2013  13 40  -21.0952 26065.6 -03473.4 -07.5903 26296.0
 21 08 2013  13 41  -21.0950 26065.9 -03473.7 -07.5909 26296.3
 21 08 2013  13 42  -21.0942 26066.1 -03474.0 -07.5914 26296.6
 21 08 2013  13 43  -21.0935 26066.6 -03474.3 -07.5919 26297.1
 21 08 2013  13 44  -21.0929 26067.1 -03474.7 -07.5926 26297.7
 21 08 2013  13 45  -21.0927 26068.0 -03475.0 -07.5931 26298.6
 21 08 2013  13 46  -21.0925 26068.2 -03475.2 -07.5934 26298.8
 21 08 2013  13 47  -21.0921 26068.7 -03475.4 -07.5938 26299.3
 21 08 2013  13 48  -21.0914 26069.2 -03475.8 -07.5944 26299.9
 21 08 2013  13 49  -21.0909 26069.4 -03475.9 -07.5946 26300.2
 21 08 2013  13 50  -21.0911 26070.2 -03476.2 -07.5951 26300.9
 21 08 2013  13 51  -21.0911 26070.4 -03476.3 -07.5952 26301.1
 21 08 2013  13 52  -21.0906 26070.3 -03476.3 -07.5951 26301.0
 21 08 2013  13 53  -21.0897 26069.6 -03476.0 -07.5948 26300.4
 21 08 2013  13 54  -21.0886 26068.7 -03475.7 -07.5944 26299.4
 21 08 2013  13 55  -21.0877 26068.2 -03475.8 -07.5947 26298.9
 21 08 2013  13 56  -21.0855 26067.7 -03475.9 -07.5951 26298.5
 21 08 2013  13 57  -21.0830 26068.0 -03476.3 -07.5959 26298.8
 21 08 2013  13 58  -21.0829 26068.5 -03476.8 -07.5967 26299.3
 21 08 2013  13 59  -21.0828 26068.6 -03476.9 -07.5971 26299.4
 21 08 2013  14 00  -21.0827 26068.7 -03477.1 -07.5973 26299.6
 21 08 2013  14 01  -21.0827 26068.8 -03477.2 -07.5976 26299.7
 21 08 2013  14 02  -21.0824 26068.5 -03477.2 -07.5975 26299.4
 21 08 2013  14 03  -21.0822 26068.4 -03477.2 -07.5976 26299.3
 21 08 2013  14 04  -21.0821 26068.7 -03477.4 -07.5980 26299.6
 21 08 2013  14 05  -21.0820 26069.1 -03477.6 -07.5984 26300.1
 21 08 2013  14 06  -21.0825 26070.0 -03478.0 -07.5990 26301.0
 21 08 2013  14 07  -21.0832 26070.2 -03478.0 -07.5990 26301.2
 21 08 2013  14 08  -21.0833 26070.1 -03477.9 -07.5987 26301.1
 21 08 2013  14 09  -21.0836 26070.1 -03477.9 -07.5986 26301.1
 21 08 2013  14 10  -21.0845 26070.2 -03477.8 -07.5985 26301.2
 21 08 2013  14 11  -21.0852 26070.6 -03477.9 -07.5986 26301.5
 21 08 2013  14 12  -21.0857 26070.3 -03477.7 -07.5982 26301.2
 21 08 2013  14 13  -21.0864 26070.2 -03477.6 -07.5981 26301.1
 21 08 2013  14 14  -21.0865 26070.3 -03477.6 -07.5980 26301.3
 21 08 2013  14 15  -21.0864 26070.4 -03477.6 -07.5979 26301.3
 21 08 2013  14 16  -21.0861 26070.2 -03477.5 -07.5978 26301.1
 21 08 2013  14 17  -21.0854 26070.3 -03477.6 -07.5979 26301.2
 21 08 2013  14 18  -21.0848 26070.7 -03477.7 -07.5982 26301.7
 21 08 2013  14 19  -21.0843 26071.2 -03477.9 -07.5984 26302.1
 21 08 2013  14 20  -21.0841 26071.7 -03478.1 -07.5986 26302.6
 21 08 2013  14 21  -21.0839 26073.1 -03478.5 -07.5991 26304.1
 21 08 2013  14 22  -21.0840 26075.0 -03479.0 -07.5997 26306.0
 21 08 2013  14 23  -21.0846 26077.0 -03479.4 -07.6001 26308.1
 21 08 2013  14 24  -21.0855 26078.4 -03479.6 -07.5999 26309.5
 21 08 2013  14 25  -21.0859 26078.8 -03479.2 -07.5990 26309.8
 21 08 2013  14 26  -21.0861 26078.8 -03478.7 -07.5980 26309.8
 21 08 2013  14 27  -21.0863 26078.5 -03478.2 -07.5969 26309.4
 21 08 2013  14 28  -21.0863 26078.1 -03477.8 -07.5961 26309.0
 21 08 2013  14 29  -21.0861 26077.5 -03477.4 -07.5954 26308.4
 21 08 2013  14 30  -21.0854 26077.3 -03477.2 -07.5950 26308.1
 21 08 2013  14 31  -21.0849 26077.0 -03477.0 -07.5948 26307.8
 21 08 2013  14 32  -21.0844 26076.6 -03476.8 -07.5944 26307.3
 21 08 2013  14 33  -21.0840 26076.7 -03476.8 -07.5944 26307.5
 21 08 2013  14 34  -21.0835 26077.3 -03476.9 -07.5945 26308.1
 21 08 2013  14 35  -21.0830 26078.2 -03477.1 -07.5946 26309.0
 21 08 2013  14 36  -21.0829 26078.7 -03477.1 -07.5945 26309.5
 21 08 2013  14 37  -21.0824 26079.7 -03477.3 -07.5947 26310.5
 21 08 2013  14 38  -21.0820 26080.3 -03477.3 -07.5946 26311.1
 21 08 2013  14 39  -21.0810 26080.4 -03477.2 -07.5942 26311.2
 21 08 2013  14 40  -21.0799 26080.7 -03477.1 -07.5940 26311.5
 21 08 2013  14 41  -21.0790 26081.8 -03477.3 -07.5941 26312.5
 21 08 2013  14 42  -21.0799 26082.6 -03477.4 -07.5940 26313.4
 21 08 2013  14 43  -21.0802 26084.2 -03477.5 -07.5938 26315.0
 21 08 2013  14 44  -21.0806 26083.3 -03476.8 -07.5926 26314.0
 21 08 2013  14 45  -21.0791 26082.2 -03475.8 -07.5908 26312.7
 21 08 2013  14 46  -21.0784 26080.9 -03475.2 -07.5897 26311.4
 21 08 2013  14 47  -21.0770 26079.2 -03474.5 -07.5886 26309.6
 21 08 2013  14 48  -21.0758 26078.6 -03474.3 -07.5886 26309.1
 21 08 2013  14 49  -21.0758 26078.4 -03474.4 -07.5887 26308.8
 21 08 2013  14 50  -21.0753 26079.2 -03474.6 -07.5889 26309.6
 21 08 2013  14 51  -21.0741 26080.8 -03475.3 -07.5900 26311.3
 21 08 2013  14 52  -21.0728 26081.3 -03475.4 -07.5901 26311.8
 21 08 2013  14 53  -21.0717 26081.5 -03475.4 -07.5901 26312.1
 21 08 2013  14 54  -21.0717 26081.1 -03475.2 -07.5897 26311.6
 21 08 2013  14 55  -21.0714 26081.4 -03475.2 -07.5896 26311.9
 21 08 2013  14 56  -21.0708 26081.2 -03475.0 -07.5892 26311.7
 21 08 2013  14 57  -21.0709 26081.3 -03475.0 -07.5891 26311.8
 21 08 2013  14 58  -21.0724 26079.8 -03474.2 -07.5879 26310.1
 21 08 2013  14 59  -21.0711 26074.9 -03471.8 -07.5842 26305.0
 21 08 2013  15 00  -21.0689 26072.9 -03471.2 -07.5834 26302.9
 21 08 2013  15 01  -21.0671 26072.1 -03471.5 -07.5843 26302.2
 21 08 2013  15 02  -21.0674 26073.4 -03472.7 -07.5864 26303.6
 21 08 2013  15 03  -21.0683 26073.5 -03473.1 -07.5873 26303.8
 21 08 2013  15 04  -21.0686 26073.3 -03473.1 -07.5873 26303.5
 21 08 2013  15 05  -21.0683 26074.3 -03473.5 -07.5879 26304.7
 21 08 2013  15 06  -21.0678 26076.1 -03474.2 -07.5890 26306.6
 21 08 2013  15 07  -21.0661 26076.7 -03474.1 -07.5886 26307.1
 21 08 2013  15 08  -21.0649 26077.8 -03474.3 -07.5886 26308.2
 21 08 2013  15 09  -21.0639 26078.0 -03474.0 -07.5881 26308.4
 21 08 2013  15 10  -21.0618 26078.0 -03473.6 -07.5870 26308.3
 21 08 2013  15 11  -21.0596 26077.4 -03473.0 -07.5860 26307.7
 21 08 2013  15 12  -21.0582 26077.2 -03472.8 -07.5857 26307.5
 21 08 2013  15 13  -21.0562 26074.2 -03471.4 -07.5834 26304.3
 21 08 2013  15 14  -21.0536 26071.2 -03470.2 -07.5818 26301.2
 21 08 2013  15 15  -21.0523 26070.6 -03470.6 -07.5828 26300.6
 21 08 2013  15 16  -21.0513 26069.9 -03470.9 -07.5836 26299.9
 21 08 2013  15 17  -21.0504 26070.1 -03471.5 -07.5848 26300.3
 21 08 2013  15 18  -21.0501 26070.5 -03472.1 -07.5860 26300.7
 21 08 2013  15 19  -21.0489 26070.7 -03472.4 -07.5866 26300.9
 21 08 2013  15 20  -21.0477 26071.0 -03472.8 -07.5873 26301.3
 21 08 2013  15 21  -21.0463 26070.4 -03472.7 -07.5873 26300.6
 21 08 2013  15 22  -21.0451 26069.6 -03472.4 -07.5870 26299.8
 21 08 2013  15 23  -21.0441 26070.1 -03472.9 -07.5879 26300.4
 21 08 2013  15 24  -21.0433 26072.2 -03474.0 -07.5897 26302.6
 21 08 2013  15 25  -21.0440 26074.0 -03474.7 -07.5907 26304.5
 21 08 2013  15 26  -21.0446 26074.0 -03474.5 -07.5903 26304.4
 21 08 2013  15 27  -21.0433 26075.6 -03474.9 -07.5908 26306.1
 21 08 2013  15 28  -21.0433 26076.2 -03475.2 -07.5910 26306.8
 21 08 2013  15 29  -21.0424 26075.6 -03474.6 -07.5899 26306.1
 21 08 2013  15 30  -21.0420 26075.4 -03474.3 -07.5894 26305.8
 21 08 2013  15 31  -21.0409 26075.3 -03474.2 -07.5892 26305.7
 21 08 2013  15 32  -21.0399 26076.4 -03474.8 -07.5901 26306.8
 21 08 2013  15 33  -21.0400 26077.5 -03475.3 -07.5910 26308.1
 21 08 2013  15 34  -21.0410 26077.9 -03475.4 -07.5910 26308.5
 21 08 2013  15 35  -21.0420 26077.7 -03475.0 -07.5903 26308.3
 21 08 2013  15 36  -21.0422 26076.4 -03474.2 -07.5889 26306.9
 21 08 2013  15 37  -21.0420 26075.0 -03473.3 -07.5874 26305.3
 21 08 2013  15 38  -21.0420 26072.9 -03472.4 -07.5861 26303.1
 21 08 2013  15 39  -21.0424 26070.3 -03471.5 -07.5848 26300.4
 21 08 2013  15 40  -21.0416 26069.2 -03471.2 -07.5845 26299.3
 21 08 2013  15 41  -21.0410 26069.1 -03471.6 -07.5854 26299.2
 21 08 2013  15 42  -21.0410 26069.7 -03472.2 -07.5865 26299.9
 21 08 2013  15 43  -21.0414 26070.9 -03472.9 -07.5877 26301.2
 21 08 2013  15 44  -21.0438 26073.8 -03474.1 -07.5895 26304.2
 21 08 2013  15 45  -21.0461 26072.7 -03473.3 -07.5880 26303.1
 21 08 2013  15 46  -21.0432 26070.4 -03471.7 -07.5853 26300.5
 21 08 2013  15 47  -21.0426 26073.0 -03472.9 -07.5871 26303.3
 21 08 2013  15 48  -21.0440 26074.8 -03473.7 -07.5884 26305.2
 21 08 2013  15 49  -21.0436 26076.0 -03473.9 -07.5883 26306.4
 21 08 2013  15 50  -21.0441 26078.0 -03474.4 -07.5890 26308.4
 21 08 2013  15 51  -21.0445 26079.3 -03474.5 -07.5886 26309.7
 21 08 2013  15 52  -21.0454 26081.1 -03474.8 -07.5888 26311.6
 21 08 2013  15 53  -21.0453 26081.2 -03474.1 -07.5873 26311.6
 21 08 2013  15 54  -21.0455 26081.5 -03473.6 -07.5862 26311.8
 21 08 2013  15 55  -21.0455 26081.3 -03472.9 -07.5848 26311.5
 21 08 2013  15 56  -21.0448 26081.9 -03472.7 -07.5841 26312.1
 21 08 2013  15 57  -21.0449 26081.8 -03472.4 -07.5834 26311.9
 21 08 2013  15 58  -21.0445 26080.6 -03471.5 -07.5819 26310.6
 21 08 2013  15 59  -21.0444 26079.1 -03470.7 -07.5805 26309.1
 21 08 2013  16 00  -21.0448 26077.8 -03470.0 -07.5795 26307.7
 21 08 2013  16 01  -21.0460 26077.3 -03469.8 -07.5791 26307.1
 21 08 2013  16 02  -21.0467 26076.5 -03469.4 -07.5785 26306.3
 21 08 2013  16 03  -21.0458 26075.2 -03468.9 -07.5777 26304.9
 21 08 2013  16 04  -21.0448 26073.6 -03468.3 -07.5769 26303.3
 21 08 2013  16 05  -21.0446 26072.7 -03468.1 -07.5768 26302.3
 21 08 2013  16 06  -21.0451 26072.3 -03468.2 -07.5772 26301.9
 21 08 2013  16 07  -21.0448 26071.9 -03468.3 -07.5774 26301.5
 21 08 2013  16 08  -21.0446 26071.1 -03468.1 -07.5773 26300.8
 21 08 2013  16 09  -21.0453 26071.2 -03468.3 -07.5776 26300.9
 21 08 2013  16 10  -21.0462 26070.9 -03468.2 -07.5775 26300.6
 21 08 2013  16 11  -21.0454 26070.0 -03467.7 -07.5768 26299.6
 21 08 2013  16 12  -21.0441 26069.1 -03467.4 -07.5763 26298.7
 21 08 2013  16 13  -21.0428 26068.4 -03467.3 -07.5763 26298.0
 21 08 2013  16 14  -21.0409 26067.8 -03467.2 -07.5764 26297.3
 21 08 2013  16 15  -21.0404 26067.6 -03467.5 -07.5769 26297.2
 21 08 2013  16 16  -21.0400 26067.3 -03467.6 -07.5773 26296.9
 21 08 2013  16 17  -21.0402 26067.4 -03467.9 -07.5779 26297.1
 21 08 2013  16 18  -21.0415 26068.7 -03468.6 -07.5790 26298.4
 21 08 2013  16 19  -21.0425 26069.7 -03469.1 -07.5797 26299.5
 21 08 2013  16 20  -21.0405 26068.5 -03468.4 -07.5787 26298.3
 21 08 2013  16 21  -21.0374 26066.8 -03467.7 -07.5777 26296.5
 21 08 2013  16 22  -21.0375 26067.6 -03468.5 -07.5791 26297.3
 21 08 2013  16 23  -21.0401 26069.4 -03469.5 -07.5808 26299.3
 21 08 2013  16 24  -21.0429 26067.9 -03468.7 -07.5794 26297.7
 21 08 2013  16 25  -21.0438 26064.2 -03466.7 -07.5762 26293.7
 21 08 2013  16 26  -21.0438 26061.0 -03465.3 -07.5742 26290.4
 21 08 2013  16 27  -21.0405 26058.3 -03464.7 -07.5736 26287.6
 21 08 2013  16 28  -21.0380 26056.1 -03464.7 -07.5742 26285.4
 21 08 2013  16 29  -21.0380 26054.2 -03464.8 -07.5749 26283.6
 21 08 2013  16 30  -21.0388 26055.1 -03465.9 -07.5771 26284.6
 21 08 2013  16 31  -21.0399 26056.6 -03467.2 -07.5794 26286.3
 21 08 2013  16 32  -21.0404 26057.4 -03467.8 -07.5806 26287.1
 21 08 2013  16 33  -21.0409 26058.4 -03468.4 -07.5815 26288.2
 21 08 2013  16 34  -21.0411 26059.2 -03468.7 -07.5820 26289.1
 21 08 2013  16 35  -21.0410 26059.4 -03468.7 -07.5819 26289.2
 21 08 2013  16 36  -21.0408 26059.8 -03468.8 -07.5821 26289.7
 21 08 2013  16 37  -21.0409 26061.0 -03469.3 -07.5828 26290.9
 21 08 2013  16 38  -21.0409 26061.5 -03469.4 -07.5829 26291.4
 21 08 2013  16 39  -21.0409 26062.5 -03469.7 -07.5832 26292.5
 21 08 2013  16 40  -21.0414 26063.5 -03469.9 -07.5834 26293.4
 21 08 2013  16 41  -21.0415 26064.8 -03470.2 -07.5837 26294.8
 21 08 2013  16 42  -21.0415 26066.9 -03471.0 -07.5847 26297.0
 21 08 2013  16 43  -21.0423 26068.2 -03471.4 -07.5851 26298.3
 21 08 2013  16 44  -21.0425 26070.3 -03471.9 -07.5856 26300.5
 21 08 2013  16 45  -21.0441 26070.4 -03471.4 -07.5847 26300.6
 21 08 2013  16 46  -21.0435 26070.0 -03470.7 -07.5831 26300.0
 21 08 2013  16 47  -21.0429 26071.5 -03471.1 -07.5836 26301.5
 21 08 2013  16 48  -21.0421 26071.1 -03470.9 -07.5833 26301.2
 21 08 2013  16 49  -21.0424 26071.9 -03471.0 -07.5834 26302.0
 21 08 2013  16 50  -21.0430 26072.8 -03471.2 -07.5835 26302.8
 21 08 2013  16 51  -21.0426 26073.5 -03471.3 -07.5834 26303.6
 21 08 2013  16 52  -21.0422 26074.6 -03471.6 -07.5838 26304.7
 21 08 2013  16 53  -21.0417 26074.8 -03471.6 -07.5837 26304.8
 21 08 2013  16 54  -21.0409 26074.7 -03471.3 -07.5832 26304.7
 21 08 2013  16 55  -21.0430 26076.9 -03472.2 -07.5845 26307.1
 21 08 2013  16 56  -21.0441 26076.3 -03471.7 -07.5834 26306.3
 21 08 2013  16 57  -21.0426 26074.9 -03470.7 -07.5817 26304.9
 21 08 2013  16 58  -21.0428 26075.1 -03470.8 -07.5819 26305.1
 21 08 2013  16 59  -21.0424 26075.0 -03470.8 -07.5820 26304.9
 21 08 2013  17 00  -21.0421 26074.6 -03470.7 -07.5819 26304.5
 21 08 2013  17 01  -21.0431 26074.1 -03470.6 -07.5819 26304.0
 21 08 2013  17 02  -21.0431 26074.2 -03470.9 -07.5825 26304.2
 21 08 2013  17 03  -21.0436 26074.4 -03471.2 -07.5830 26304.4
 21 08 2013  17 04  -21.0438 26073.9 -03471.2 -07.5832 26304.0
 21 08 2013  17 05  -21.0436 26072.7 -03470.9 -07.5829 26302.7
 21 08 2013  17 06  -21.0431 26071.4 -03470.7 -07.5828 26301.4
 21 08 2013  17 07  -21.0431 26070.5 -03470.7 -07.5831 26300.6
 21 08 2013  17 08  -21.0428 26069.8 -03470.8 -07.5835 26299.8
 21 08 2013  17 09  -21.0429 26068.8 -03470.9 -07.5840 26298.9
 21 08 2013  17 10  -21.0427 26067.6 -03470.8 -07.5840 26297.7
 21 08 2013  17 11  -21.0422 26066.2 -03470.6 -07.5840 26296.3
 21 08 2013  17 12  -21.0435 26065.6 -03470.7 -07.5845 26295.7
 21 08 2013  17 13  -21.0444 26065.1 -03470.8 -07.5847 26295.2
 21 08 2013  17 14  -21.0445 26063.2 -03470.2 -07.5841 26293.2
 21 08 2013  17 15  -21.0449 26062.4 -03470.2 -07.5843 26292.5
 21 08 2013  17 16  -21.0448 26060.0 -03469.5 -07.5835 26290.0
 21 08 2013  17 17  -21.0440 26059.7 -03469.7 -07.5841 26289.7
 21 08 2013  17 18  -21.0435 26060.8 -03470.7 -07.5858 26290.9
 21 08 2013  17 19  -21.0446 26061.6 -03471.5 -07.5873 26291.8
 21 08 2013  17 20  -21.0451 26061.9 -03471.8 -07.5878 26292.1
 21 08 2013  17 21  -21.0448 26061.6 -03471.7 -07.5877 26291.8
 21 08 2013  17 22  -21.0455 26062.0 -03471.9 -07.5880 26292.3
 21 08 2013  17 23  -21.0460 26063.3 -03472.4 -07.5888 26293.6
 21 08 2013  17 24  -21.0468 26065.0 -03473.0 -07.5897 26295.4
 21 08 2013  17 25  -21.0472 26065.8 -03473.1 -07.5896 26296.2
 21 08 2013  17 26  -21.0453 26067.7 -03473.6 -07.5902 26298.1
 21 08 2013  17 27  -21.0446 26069.7 -03474.3 -07.5910 26300.2
 21 08 2013  17 28  -21.0457 26072.6 -03475.1 -07.5920 26303.2
 21 08 2013  17 29  -21.0475 26075.2 -03475.7 -07.5925 26305.8
 21 08 2013  17 30  -21.0471 26074.7 -03474.8 -07.5907 26305.2
 21 08 2013  17 31  -21.0468 26072.3 -03473.2 -07.5878 26302.7
 21 08 2013  17 32  -21.0465 26070.3 -03472.1 -07.5862 26300.5
 21 08 2013  17 33  -21.0445 26068.3 -03471.3 -07.5850 26298.4
 21 08 2013  17 34  -21.0421 26066.7 -03470.9 -07.5846 26296.8
 21 08 2013  17 35  -21.0426 26066.9 -03471.5 -07.5857 26297.0
 21 08 2013  17 36  -21.0441 26067.7 -03472.1 -07.5869 26298.0
 21 08 2013  17 37  -21.0445 26068.1 -03472.4 -07.5873 26298.4
 21 08 2013  17 38  -21.0446 26068.3 -03472.5 -07.5875 26298.5
 21 08 2013  17 39  -21.0444 26067.8 -03472.3 -07.5872 26298.0
 21 08 2013  17 40  -21.0432 26066.4 -03471.7 -07.5865 26296.5
 21 08 2013  17 41  -21.0436 26066.5 -03472.0 -07.5871 26296.8
 21 08 2013  17 42  -21.0446 26066.9 -03472.3 -07.5875 26297.1
 21 08 2013  17 43  -21.0455 26067.5 -03472.5 -07.5877 26297.8
 21 08 2013  17 44  -21.0476 26067.4 -03472.3 -07.5874 26297.7
 21 08 2013  17 45  -21.0490 26066.1 -03471.5 -07.5861 26296.2
 21 08 2013  17 46  -21.0468 26063.2 -03470.2 -07.5840 26293.2
 21 08 2013  17 47  -21.0445 26062.8 -03470.2 -07.5843 26292.9
 21 08 2013  17 48  -21.0455 26062.9 -03470.9 -07.5858 26293.0
 21 08 2013  17 49  -21.0478 26062.8 -03471.5 -07.5870 26293.0
 21 08 2013  17 50  -21.0498 26063.5 -03472.0 -07.5878 26293.7
 21 08 2013  17 51  -21.0502 26063.5 -03471.9 -07.5875 26293.8
 21 08 2013  17 52  -21.0501 26062.9 -03471.5 -07.5870 26293.1
 21 08 2013  17 53  -21.0507 26063.0 -03471.8 -07.5876 26293.2
 21 08 2013  17 54  -21.0529 26062.9 -03472.1 -07.5882 26293.1
 21 08 2013  17 55  -21.0523 26061.6 -03471.6 -07.5875 26291.8
 21 08 2013  17 56  -21.0504 26059.9 -03471.1 -07.5869 26290.0
 21 08 2013  17 57  -21.0494 26059.0 -03471.1 -07.5872 26289.2
 21 08 2013  17 58  -21.0498 26059.1 -03471.6 -07.5882 26289.3
 21 08 2013  17 59  -21.0501 26059.3 -03472.0 -07.5891 26289.6
 21 08 2013  18 00  -21.0501 26059.0 -03472.1 -07.5894 26289.3
 21 08 2013  18 01  -21.0504 26058.8 -03472.3 -07.5898 26289.1
 21 08 2013  18 02  -21.0508 26058.8 -03472.5 -07.5902 26289.2
 21 08 2013  18 03  -21.0506 26058.4 -03472.3 -07.5900 26288.7
 21 08 2013  18 04  -21.0506 26058.1 -03472.3 -07.5900 26288.5
 21 08 2013  18 05  -21.0508 26058.5 -03472.5 -07.5903 26288.9
 21 08 2013  18 06  -21.0504 26058.7 -03472.5 -07.5903 26289.0
 21 08 2013  18 07  -21.0504 26058.7 -03472.4 -07.5902 26289.0
 21 08 2013  18 08  -21.0498 26059.2 -03472.6 -07.5905 26289.6
 21 08 2013  18 09  -21.0490 26059.4 -03472.7 -07.5905 26289.8
 21 08 2013  18 10  -21.0481 26059.9 -03472.9 -07.5909 26290.3
 21 08 2013  18 11  -21.0502 26060.6 -03473.3 -07.5914 26291.0
 21 08 2013  18 12  -21.0523 26059.7 -03472.7 -07.5905 26290.0
 21 08 2013  18 13  -21.0514 26057.6 -03471.7 -07.5888 26287.8
 21 08 2013  18 14  -21.0494 26056.5 -03471.4 -07.5885 26286.7
 21 08 2013  18 15  -21.0474 26055.4 -03471.3 -07.5886 26285.6
 21 08 2013  18 16  -21.0480 26054.6 -03471.4 -07.5891 26284.9
 21 08 2013  18 17  -21.0493 26054.4 -03471.6 -07.5896 26284.7
 21 08 2013  18 18  -21.0490 26054.4 -03471.7 -07.5899 26284.7
 21 08 2013  18 19  -21.0473 26053.9 -03471.7 -07.5899 26284.2
 21 08 2013  18 20  -21.0473 26054.5 -03472.2 -07.5910 26284.8
 21 08 2013  18 21  -21.0479 26054.9 -03472.6 -07.5917 26285.3
 21 08 2013  18 22  -21.0485 26054.3 -03472.5 -07.5915 26284.7
 21 08 2013  18 23  -21.0479 26053.2 -03471.9 -07.5906 26283.5
 21 08 2013  18 24  -21.0470 26052.8 -03471.8 -07.5906 26283.1
 21 08 2013  18 25  -21.0486 26054.6 -03472.9 -07.5924 26285.0
 21 08 2013  18 26  -21.0492 26056.0 -03473.7 -07.5937 26286.5
 21 08 2013  18 27  -21.0488 26054.4 -03473.1 -07.5928 26284.8
 21 08 2013  18 28  -21.0506 26053.0 -03472.4 -07.5917 26283.4
 21 08 2013  18 29  -21.0489 26050.7 -03471.1 -07.5897 26281.0
 21 08 2013  18 30  -21.0468 26050.6 -03471.2 -07.5898 26280.8
 21 08 2013  18 31  -21.0479 26052.4 -03472.6 -07.5922 26282.8
 21 08 2013  18 32  -21.0494 26055.3 -03474.2 -07.5949 26285.9
 21 08 2013  18 33  -21.0504 26057.4 -03475.2 -07.5965 26288.2
 21 08 2013  18 34  -21.0500 26057.1 -03474.9 -07.5959 26287.8
 21 08 2013  18 35  -21.0496 26056.3 -03474.3 -07.5949 26286.9
 21 08 2013  18 36  -21.0488 26055.5 -03473.9 -07.5942 26286.0
 21 08 2013  18 37  -21.0476 26054.6 -03473.4 -07.5936 26285.1
 21 08 2013  18 38  -21.0467 26053.5 -03473.1 -07.5931 26284.0
 21 08 2013  18 39  -21.0463 26052.8 -03473.0 -07.5931 26283.2
 21 08 2013  18 40  -21.0460 26052.4 -03473.1 -07.5934 26282.9
 21 08 2013  18 41  -21.0457 26052.1 -03473.2 -07.5937 26282.6
 21 08 2013  18 42  -21.0449 26051.0 -03472.8 -07.5932 26281.4
 21 08 2013  18 43  -21.0443 26049.9 -03472.5 -07.5928 26280.3
 21 08 2013  18 44  -21.0436 26049.6 -03472.6 -07.5931 26280.0
 21 08 2013  18 45  -21.0432 26050.6 -03473.4 -07.5946 26281.2
 21 08 2013  18 46  -21.0431 26051.0 -03473.9 -07.5955 26281.6
 21 08 2013  18 47  -21.0427 26051.5 -03474.3 -07.5962 26282.2
 21 08 2013  18 48  -21.0421 26052.4 -03474.8 -07.5971 26283.1
 21 08 2013  18 49  -21.0423 26053.8 -03475.6 -07.5985 26284.6
 21 08 2013  18 50  -21.0434 26053.5 -03475.5 -07.5983 26284.3
 21 08 2013  18 51  -21.0423 26053.3 -03475.4 -07.5980 26284.1
 21 08 2013  18 52  -21.0417 26051.8 -03474.8 -07.5973 26282.5
 21 08 2013  18 53  -21.0413 26050.9 -03474.6 -07.5971 26281.5
 21 08 2013  18 54  -21.0415 26050.4 -03474.6 -07.5973 26281.1
 21 08 2013  18 55  -21.0417 26049.9 -03474.5 -07.5973 26280.5
 21 08 2013  18 56  -21.0412 26049.4 -03474.5 -07.5973 26280.1
 21 08 2013  18 57  -21.0413 26049.2 -03474.6 -07.5975 26279.9
 21 08 2013  18 58  -21.0410 26049.9 -03475.0 -07.5982 26280.7
 21 08 2013  18 59  -21.0414 26049.7 -03475.1 -07.5985 26280.5
 21 08 2013  19 00  -21.0429 26048.9 -03474.7 -07.5979 26279.6
 21 08 2013  19 01  -21.0473 26043.0 -03471.9 -07.5936 26273.4
 21 08 2013  19 02  -21.0439 26033.1 -03467.2 -07.5862 26263.0
 21 08 2013  19 03  -21.0394 26026.5 -03465.1 -07.5835 26256.2
 21 08 2013  19 04  -21.0368 26021.4 -03464.3 -07.5833 26251.0
 21 08 2013  19 05  -21.0349 26017.6 -03464.2 -07.5841 26247.2
 21 08 2013  19 06  -21.0343 26015.7 -03464.8 -07.5861 26245.4
 21 08 2013  19 07  -21.0350 26015.1 -03465.9 -07.5886 26244.9
 21 08 2013  19 08  -21.0366 26015.8 -03467.1 -07.5910 26245.8
 21 08 2013  19 09  -21.0382 26017.7 -03468.4 -07.5934 26247.8
 21 08 2013  19 10  -21.0398 26019.5 -03469.4 -07.5950 26249.8
 21 08 2013  19 11  -21.0408 26020.6 -03469.9 -07.5958 26250.9
 21 08 2013  19 12  -21.0414 26020.8 -03469.9 -07.5955 26251.1
 21 08 2013  19 13  -21.0414 26021.4 -03470.0 -07.5957 26251.7
 21 08 2013  19 14  -21.0416 26022.9 -03470.7 -07.5968 26253.3
 21 08 2013  19 15  -21.0424 26024.1 -03471.3 -07.5976 26254.6
 21 08 2013  19 16  -21.0426 26024.9 -03471.4 -07.5978 26255.4
 21 08 2013  19 17  -21.0425 26025.5 -03471.4 -07.5976 26256.0
 21 08 2013  19 18  -21.0423 26026.0 -03471.5 -07.5976 26256.5
 21 08 2013  19 19  -21.0420 26026.4 -03471.6 -07.5976 26257.0
 21 08 2013  19 20  -21.0417 26027.1 -03471.7 -07.5978 26257.6
 21 08 2013  19 21  -21.0414 26027.5 -03471.8 -07.5978 26258.0
 21 08 2013  19 22  -21.0411 26027.6 -03471.7 -07.5975 26258.1
 21 08 2013  19 23  -21.0408 26027.6 -03471.5 -07.5972 26258.1
 21 08 2013  19 24  -21.0404 26027.4 -03471.4 -07.5970 26257.9
 21 08 2013  19 25  -21.0400 26027.3 -03471.3 -07.5968 26257.8
 21 08 2013  19 26  -21.0396 26027.4 -03471.3 -07.5969 26257.8
 21 08 2013  19 27  -21.0392 26027.4 -03471.4 -07.5969 26257.9
 21 08 2013  19 28  -21.0388 26027.4 -03471.4 -07.5970 26257.9
 21 08 2013  19 29  -21.0383 26027.7 -03471.5 -07.5971 26258.2
 21 08 2013  19 30  -21.0385 26028.1 -03471.7 -07.5974 26258.6
 21 08 2013  19 31  -21.0383 26028.4 -03471.7 -07.5974 26258.9
 21 08 2013  19 32  -21.0379 26028.8 -03471.8 -07.5975 26259.3
 21 08 2013  19 33  -21.0375 26029.4 -03472.0 -07.5978 26259.9
 21 08 2013  19 34  -21.0371 26030.0 -03472.3 -07.5981 26260.6
 21 08 2013  19 35  -21.0367 26030.8 -03472.5 -07.5984 26261.4
 21 08 2013  19 36  -21.0367 26031.5 -03472.7 -07.5987 26262.1
 21 08 2013  19 37  -21.0368 26032.1 -03472.8 -07.5987 26262.7
 21 08 2013  19 38  -21.0368 26032.6 -03472.9 -07.5987 26263.2
 21 08 2013  19 39  -21.0367 26033.1 -03473.0 -07.5989 26263.7
 21 08 2013  19 40  -21.0368 26033.4 -03473.0 -07.5988 26264.0
 21 08 2013  19 41  -21.0368 26033.4 -03473.0 -07.5986 26264.1
 21 08 2013  19 42  -21.0370 26033.5 -03472.9 -07.5985 26264.1
 21 08 2013  19 43  -21.0369 26033.3 -03472.7 -07.5981 26263.9
 21 08 2013  19 44  -21.0364 26033.0 -03472.5 -07.5978 26263.6
 21 08 2013  19 45  -21.0359 26032.6 -03472.4 -07.5977 26263.2
 21 08 2013  19 46  -21.0354 26032.1 -03472.3 -07.5976 26262.7
 21 08 2013  19 47  -21.0349 26031.6 -03472.1 -07.5974 26262.1
 21 08 2013  19 48  -21.0345 26031.1 -03472.0 -07.5972 26261.6
 21 08 2013  19 49  -21.0344 26031.2 -03472.1 -07.5974 26261.7
 21 08 2013  19 50  -21.0346 26031.5 -03472.3 -07.5977 26262.0
 21 08 2013  19 51  -21.0346 26031.7 -03472.4 -07.5979 26262.2
 21 08 2013  19 52  -21.0349 26032.1 -03472.5 -07.5980 26262.7
 21 08 2013  19 53  -21.0351 26032.5 -03472.6 -07.5981 26263.1
 21 08 2013  19 54  -21.0357 26032.8 -03472.6 -07.5981 26263.4
 21 08 2013  19 55  -21.0361 26033.1 -03472.6 -07.5980 26263.7
 21 08 2013  19 56  -21.0365 26033.1 -03472.5 -07.5977 26263.7
 21 08 2013  19 57  -21.0368 26032.7 -03472.2 -07.5972 26263.2
 21 08 2013  19 58  -21.0373 26032.5 -03472.0 -07.5968 26263.0
 21 08 2013  19 59  -21.0372 26032.3 -03471.9 -07.5965 26262.8
 21 08 2013  20 00  -21.0372 26032.1 -03471.7 -07.5963 26262.6
 21 08 2013  20 01  -21.0370 26032.0 -03471.7 -07.5962 26262.5
 21 08 2013  20 02  -21.0364 26032.0 -03471.7 -07.5962 26262.5
 21 08 2013  20 03  -21.0361 26031.5 -03471.5 -07.5960 26261.9
 21 08 2013  20 04  -21.0361 26030.8 -03471.3 -07.5957 26261.3
 21 08 2013  20 05  -21.0358 26029.9 -03471.0 -07.5953 26260.3
 21 08 2013  20 06  -21.0358 26029.4 -03470.8 -07.5951 26259.8
 21 08 2013  20 07  -21.0359 26029.4 -03471.0 -07.5954 26259.8
 21 08 2013  20 08  -21.0354 26029.7 -03471.3 -07.5961 26260.1
 21 08 2013  20 09  -21.0354 26029.8 -03471.6 -07.5967 26260.3
 21 08 2013  20 10  -21.0355 26030.3 -03471.9 -07.5973 26260.8
 21 08 2013  20 11  -21.0353 26030.3 -03472.0 -07.5975 26260.8
 21 08 2013  20 12  -21.0351 26030.1 -03472.1 -07.5976 26260.6
 21 08 2013  20 13  -21.0354 26029.3 -03471.9 -07.5975 26259.8
 21 08 2013  20 14  -21.0356 26028.1 -03471.6 -07.5971 26258.6
 21 08 2013  20 15  -21.0357 26026.8 -03471.2 -07.5967 26257.3
 21 08 2013  20 16  -21.0356 26025.6 -03470.9 -07.5964 26256.0
 21 08 2013  20 17  -21.0352 26025.0 -03470.9 -07.5966 26255.4
 21 08 2013  20 18  -21.0350 26025.0 -03471.2 -07.5972 26255.4
 21 08 2013  20 19  -21.0350 26025.0 -03471.4 -07.5977 26255.5
 21 08 2013  20 20  -21.0348 26025.1 -03471.5 -07.5979 26255.6
 21 08 2013  20 21  -21.0348 26025.4 -03471.8 -07.5984 26255.9
 21 08 2013  20 22  -21.0350 26025.6 -03472.0 -07.5988 26256.2
 21 08 2013  20 23  -21.0351 26025.6 -03472.0 -07.5988 26256.1
 21 08 2013  20 24  -21.0351 26025.2 -03471.9 -07.5987 26255.8
 21 08 2013  20 25  -21.0350 26024.9 -03471.9 -07.5987 26255.5
 21 08 2013  20 26  -21.0349 26024.6 -03471.9 -07.5988 26255.2
 21 08 2013  20 27  -21.0345 26024.4 -03471.9 -07.5989 26255.0
 21 08 2013  20 28  -21.0341 26024.0 -03471.9 -07.5990 26254.6
 21 08 2013  20 29  -21.0338 26023.8 -03471.9 -07.5991 26254.4
 21 08 2013  20 30  -21.0334 26023.7 -03471.9 -07.5992 26254.2
 21 08 2013  20 31  -21.0331 26023.6 -03472.0 -07.5993 26254.2
 21 08 2013  20 32  -21.0326 26023.4 -03472.0 -07.5994 26254.0
 21 08 2013  20 33  -21.0322 26023.2 -03472.0 -07.5995 26253.8
 21 08 2013  20 34  -21.0317 26023.1 -03472.0 -07.5995 26253.7
 21 08 2013  20 35  -21.0314 26022.8 -03471.9 -07.5995 26253.4
 21 08 2013  20 36  -21.0310 26022.5 -03471.9 -07.5995 26253.1
 21 08 2013  20 37  -21.0307 26022.3 -03471.9 -07.5996 26252.9
 21 08 2013  20 38  -21.0302 26022.3 -03472.0 -07.5998 26252.9
 21 08 2013  20 39  -21.0299 26022.3 -03472.1 -07.6000 26252.9
 21 08 2013  20 40  -21.0295 26022.3 -03472.2 -07.6002 26252.9
 21 08 2013  20 41  -21.0294 26022.5 -03472.4 -07.6006 26253.1
 21 08 2013  20 42  -21.0294 26022.5 -03472.5 -07.6008 26253.1
 21 08 2013  20 43  -21.0292 26022.1 -03472.4 -07.6007 26252.8
 21 08 2013  20 44  -21.0288 26022.0 -03472.5 -07.6008 26252.7
 21 08 2013  20 45  -21.0284 26021.9 -03472.5 -07.6010 26252.6
 21 08 2013  20 46  -21.0280 26021.8 -03472.6 -07.6011 26252.5
 21 08 2013  20 47  -21.0278 26021.9 -03472.7 -07.6014 26252.6
 21 08 2013  20 48  -21.0278 26022.0 -03472.9 -07.6017 26252.7
 21 08 2013  20 49  -21.0276 26021.9 -03472.8 -07.6016 26252.6
 21 08 2013  20 50  -21.0275 26021.8 -03472.9 -07.6018 26252.5
 21 08 2013  20 51  -21.0276 26021.4 -03472.8 -07.6017 26252.1
 21 08 2013  20 52  -21.0277 26020.9 -03472.6 -07.6015 26251.6
 21 08 2013  20 53  -21.0280 26020.5 -03472.4 -07.6012 26251.2
 21 08 2013  20 54  -21.0280 26020.5 -03472.7 -07.6018 26251.2
 21 08 2013  20 55  -21.0280 26020.5 -03472.8 -07.6021 26251.2
 21 08 2013  20 56  -21.0281 26020.3 -03472.9 -07.6022 26251.1
 21 08 2013  20 57  -21.0280 26019.9 -03472.7 -07.6020 26250.7
 21 08 2013  20 58  -21.0283 26019.3 -03472.5 -07.6017 26250.0
 21 08 2013  20 59  -21.0287 26018.8 -03472.4 -07.6017 26249.5
 21 08 2013  21 00  -21.0286 26018.8 -03472.6 -07.6020 26249.5
 21 08 2013  21 01  -21.0288 26018.1 -03472.4 -07.6019 26248.8
 21 08 2013  21 02  -21.0290 26017.9 -03472.4 -07.6019 26248.6
 21 08 2013  21 03  -21.0294 26017.3 -03472.3 -07.6018 26248.0
 21 08 2013  21 04  -21.0295 26016.7 -03472.1 -07.6016 26247.3
 21 08 2013  21 05  -21.0294 26015.9 -03471.9 -07.6014 26246.6
 21 08 2013  21 06  -21.0294 26015.0 -03471.6 -07.6009 26245.6
 21 08 2013  21 07  -21.0296 26014.5 -03471.5 -07.6009 26245.1
 21 08 2013  21 08  -21.0297 26013.5 -03471.3 -07.6007 26244.1
 21 08 2013  21 09  -21.0302 26012.4 -03470.9 -07.6003 26242.9
 21 08 2013  21 10  -21.0303 26011.7 -03470.7 -07.6000 26242.2
 21 08 2013  21 11  -21.0301 26010.9 -03470.6 -07.6000 26241.4
 21 08 2013  21 12  -21.0304 26010.1 -03470.4 -07.5999 26240.7
 21 08 2013  21 13  -21.0306 26009.2 -03470.3 -07.5997 26239.7
 21 08 2013  21 14  -21.0307 26008.4 -03470.1 -07.5996 26238.9
 21 08 2013  21 15  -21.0306 26007.9 -03470.0 -07.5995 26238.3
 21 08 2013  21 16  -21.0303 26007.4 -03470.0 -07.5997 26237.8
 21 08 2013  21 17  -21.0303 26007.1 -03470.1 -07.6000 26237.6
 21 08 2013  21 18  -21.0307 26006.5 -03470.1 -07.6002 26237.0
 21 08 2013  21 19  -21.0310 26006.0 -03470.1 -07.6003 26236.5
 21 08 2013  21 20  -21.0309 26005.7 -03470.2 -07.6005 26236.2
 21 08 2013  21 21  -21.0307 26005.3 -03470.2 -07.6007 26235.8
 21 08 2013  21 22  -21.0312 26004.9 -03470.2 -07.6008 26235.4
 21 08 2013  21 23  -21.0314 26004.7 -03470.2 -07.6010 26235.2
 21 08 2013  21 24  -21.0321 26004.3 -03470.4 -07.6014 26234.8
 21 08 2013  21 25  -21.0329 26003.8 -03470.3 -07.6015 26234.4
 21 08 2013  21 26  -21.0336 26003.5 -03470.4 -07.6017 26234.1
 21 08 2013  21 27  -21.0339 26003.1 -03470.3 -07.6017 26233.7
 21 08 2013  21 28  -21.0344 26002.8 -03470.4 -07.6018 26233.3
 21 08 2013  21 29  -21.0348 26002.3 -03470.3 -07.6018 26232.8
 21 08 2013  21 30  -21.0346 26001.9 -03470.2 -07.6018 26232.5
 21 08 2013  21 31  -21.0344 26001.6 -03470.2 -07.6018 26232.2
 21 08 2013  21 32  -21.0344 26001.4 -03470.3 -07.6020 26232.0
 21 08 2013  21 33  -21.0342 26001.3 -03470.4 -07.6024 26231.8
 21 08 2013  21 34  -21.0342 26001.1 -03470.5 -07.6026 26231.7
 21 08 2013  21 35  -21.0341 26000.9 -03470.6 -07.6028 26231.5
 21 08 2013  21 36  -21.0342 26000.7 -03470.7 -07.6031 26231.3
 21 08 2013  21 37  -21.0345 26000.5 -03470.7 -07.6033 26231.1
 21 08 2013  21 38  -21.0345 26000.6 -03470.9 -07.6037 26231.2
 21 08 2013  21 39  -21.0347 26000.7 -03471.2 -07.6042 26231.4
 21 08 2013  21 40  -21.0350 26000.9 -03471.4 -07.6047 26231.6
 21 08 2013  21 41  -21.0352 26001.3 -03471.7 -07.6052 26232.0
 21 08 2013  21 42  -21.0355 26001.8 -03472.1 -07.6059 26232.6
 21 08 2013  21 43  -21.0353 26002.3 -03472.5 -07.6065 26233.2
 21 08 2013  21 44  -21.0354 26002.9 -03472.9 -07.6072 26233.8
 21 08 2013  21 45  -21.0360 26002.9 -03472.9 -07.6073 26233.8
 21 08 2013  21 46  -21.0370 26003.2 -03473.0 -07.6075 26234.1
 21 08 2013  21 47  -21.0375 26003.3 -03473.1 -07.6076 26234.2
 21 08 2013  21 48  -21.0376 26003.8 -03473.3 -07.6078 26234.7
 21 08 2013  21 49  -21.0377 26004.3 -03473.5 -07.6082 26235.2
 21 08 2013  21 50  -21.0379 26005.0 -03473.9 -07.6088 26236.0
 21 08 2013  21 51  -21.0384 26005.3 -03474.0 -07.6089 26236.3
 21 08 2013  21 52  -21.0388 26005.7 -03474.1 -07.6091 26236.7
 21 08 2013  21 53  -21.0388 26005.9 -03474.1 -07.6091 26236.9
 21 08 2013  21 54  -21.0391 26005.8 -03474.0 -07.6088 26236.8
 21 08 2013  21 55  -21.0396 26005.8 -03473.9 -07.6087 26236.8
 21 08 2013  21 56  -21.0402 26006.1 -03474.0 -07.6087 26237.1
 21 08 2013  21 57  -21.0403 26006.4 -03474.1 -07.6088 26237.4
 21 08 2013  21 58  -21.0402 26006.6 -03474.1 -07.6089 26237.7
 21 08 2013  21 59  -21.0400 26006.7 -03474.1 -07.6088 26237.7
 21 08 2013  22 00  -21.0399 26006.7 -03474.0 -07.6086 26237.7
 21 08 2013  22 01  -21.0398 26006.9 -03474.0 -07.6086 26237.9
 21 08 2013  22 02  -21.0398 26007.2 -03474.1 -07.6087 26238.2
 21 08 2013  22 03  -21.0397 26007.5 -03474.3 -07.6089 26238.5
 21 08 2013  22 04  -21.0396 26007.6 -03474.3 -07.6090 26238.6
 21 08 2013  22 05  -21.0397 26007.5 -03474.2 -07.6088 26238.5
 21 08 2013  22 06  -21.0397 26007.4 -03474.1 -07.6086 26238.4
 21 08 2013  22 07  -21.0398 26007.3 -03474.0 -07.6085 26238.3
 21 08 2013  22 08  -21.0399 26007.1 -03474.0 -07.6083 26238.1
 21 08 2013  22 09  -21.0400 26007.1 -03473.9 -07.6082 26238.1
 21 08 2013  22 10  -21.0397 26007.1 -03473.9 -07.6082 26238.1
 21 08 2013  22 11  -21.0392 26007.3 -03473.9 -07.6082 26238.3
 21 08 2013  22 12  -21.0385 26007.7 -03474.1 -07.6086 26238.7
 21 08 2013  22 13  -21.0377 26008.1 -03474.4 -07.6090 26239.1
 21 08 2013  22 14  -21.0370 26008.6 -03474.6 -07.6094 26239.7
 21 08 2013  22 15  -21.0363 26009.0 -03474.9 -07.6098 26240.0
 21 08 2013  22 16  -21.0356 26009.4 -03475.1 -07.6102 26240.5
 21 08 2013  22 17  -21.0349 26009.9 -03475.3 -07.6105 26241.1
 21 08 2013  22 18  -21.0343 26010.7 -03475.7 -07.6112 26241.9
 21 08 2013  22 19  -21.0338 26011.5 -03476.2 -07.6119 26242.8
 21 08 2013  22 20  -21.0332 26012.4 -03476.6 -07.6125 26243.6
 21 08 2013  22 21  -21.0332 26013.0 -03476.9 -07.6130 26244.3
 21 08 2013  22 22  -21.0333 26013.6 -03477.2 -07.6134 26244.9
 21 08 2013  22 23  -21.0335 26014.0 -03477.3 -07.6136 26245.4
 21 08 2013  22 24  -21.0339 26014.2 -03477.3 -07.6136 26245.6
 21 08 2013  22 25  -21.0344 26014.3 -03477.3 -07.6134 26245.7
 21 08 2013  22 26  -21.0349 26014.3 -03477.2 -07.6132 26245.7
 21 08 2013  22 27  -21.0355 26014.4 -03477.1 -07.6130 26245.7
 21 08 2013  22 28  -21.0360 26014.4 -03477.0 -07.6127 26245.7
 21 08 2013  22 29  -21.0363 26014.2 -03476.8 -07.6124 26245.5
 21 08 2013  22 30  -21.0362 26014.1 -03476.6 -07.6120 26245.4
 21 08 2013  22 31  -21.0361 26014.2 -03476.6 -07.6119 26245.5
 21 08 2013  22 32  -21.0358 26014.3 -03476.5 -07.6118 26245.5
 21 08 2013  22 33  -21.0353 26014.4 -03476.6 -07.6119 26245.7
 21 08 2013  22 34  -21.0350 26014.6 -03476.6 -07.6120 26245.9
 21 08 2013  22 35  -21.0348 26014.9 -03476.8 -07.6122 26246.2
 21 08 2013  22 36  -21.0349 26015.5 -03477.0 -07.6126 26246.8
 21 08 2013  22 37  -21.0351 26015.8 -03477.2 -07.6129 26247.2
 21 08 2013  22 38  -21.0351 26016.0 -03477.3 -07.6130 26247.3
 21 08 2013  22 39  -21.0352 26016.2 -03477.3 -07.6129 26247.5
 21 08 2013  22 40  -21.0352 26016.3 -03477.3 -07.6129 26247.7
 21 08 2013  22 41  -21.0353 26016.4 -03477.3 -07.6129 26247.7
 21 08 2013  22 42  -21.0356 26016.3 -03477.2 -07.6126 26247.6
 21 08 2013  22 43  -21.0357 26016.2 -03477.1 -07.6124 26247.6
 21 08 2013  22 44  -21.0359 26016.1 -03476.9 -07.6122 26247.5
 21 08 2013  22 45  -21.0359 26016.1 -03476.8 -07.6119 26247.3
 21 08 2013  22 46  -21.0361 26015.9 -03476.7 -07.6117 26247.2
 21 08 2013  22 47  -21.0360 26015.6 -03476.4 -07.6112 26246.8
 21 08 2013  22 48  -21.0360 26015.4 -03476.3 -07.6110 26246.6
 21 08 2013  22 49  -21.0360 26015.4 -03476.3 -07.6109 26246.6
 21 08 2013  22 50  -21.0358 26015.8 -03476.4 -07.6111 26247.1
 21 08 2013  22 51  -21.0357 26015.9 -03476.5 -07.6113 26247.2
 21 08 2013  22 52  -21.0356 26015.9 -03476.4 -07.6112 26247.1
 21 08 2013  22 53  -21.0354 26016.2 -03476.5 -07.6113 26247.5
 21 08 2013  22 54  -21.0352 26016.4 -03476.6 -07.6115 26247.7
 21 08 2013  22 55  -21.0352 26016.2 -03476.5 -07.6113 26247.4
 21 08 2013  22 56  -21.0350 26016.1 -03476.4 -07.6111 26247.4
 21 08 2013  22 57  -21.0345 26016.3 -03476.4 -07.6111 26247.5
 21 08 2013  22 58  -21.0339 26016.4 -03476.5 -07.6112 26247.7
 21 08 2013  22 59  -21.0334 26016.3 -03476.5 -07.6112 26247.6
 21 08 2013  23 00  -21.0331 26016.0 -03476.3 -07.6109 26247.2
 21 08 2013  23 01  -21.0331 26015.8 -03476.3 -07.6108 26247.0
 21 08 2013  23 02  -21.0334 26015.5 -03476.1 -07.6106 26246.7
 21 08 2013  23 03  -21.0339 26015.3 -03476.1 -07.6106 26246.5
 21 08 2013  23 04  -21.0343 26015.2 -03476.1 -07.6105 26246.4
 21 08 2013  23 05  -21.0349 26015.3 -03476.2 -07.6107 26246.5
 21 08 2013  23 06  -21.0355 26015.5 -03476.3 -07.6110 26246.7
 21 08 2013  23 07  -21.0361 26015.8 -03476.5 -07.6113 26247.0
 21 08 2013  23 08  -21.0366 26016.1 -03476.6 -07.6116 26247.4
 21 08 2013  23 09  -21.0371 26016.3 -03476.7 -07.6117 26247.6
 21 08 2013  23 10  -21.0374 26016.3 -03476.7 -07.6117 26247.6
 21 08 2013  23 11  -21.0375 26016.3 -03476.6 -07.6115 26247.6
 21 08 2013  23 12  -21.0376 26016.3 -03476.6 -07.6113 26247.5
 21 08 2013  23 13  -21.0376 26016.2 -03476.5 -07.6112 26247.4
 21 08 2013  23 14  -21.0377 26016.0 -03476.4 -07.6110 26247.2
 21 08 2013  23 15  -21.0375 26016.0 -03476.3 -07.6109 26247.2
 21 08 2013  23 16  -21.0374 26016.1 -03476.4 -07.6110 26247.3
 21 08 2013  23 17  -21.0370 26016.0 -03476.4 -07.6110 26247.3
 21 08 2013  23 18  -21.0368 26016.0 -03476.4 -07.6110 26247.3
 21 08 2013  23 19  -21.0365 26016.1 -03476.4 -07.6111 26247.4
 21 08 2013  23 20  -21.0362 26016.4 -03476.6 -07.6113 26247.6
 21 08 2013  23 21  -21.0360 26016.6 -03476.7 -07.6116 26247.9
 21 08 2013  23 22  -21.0360 26016.7 -03476.8 -07.6117 26248.0
 21 08 2013  23 23  -21.0359 26016.9 -03476.9 -07.6118 26248.2
 21 08 2013  23 24  -21.0359 26017.1 -03477.0 -07.6120 26248.4
 21 08 2013  23 25  -21.0361 26017.3 -03477.1 -07.6123 26248.6
 21 08 2013  23 26  -21.0366 26017.2 -03477.1 -07.6122 26248.5
 21 08 2013  23 27  -21.0372 26016.9 -03477.0 -07.6121 26248.3
 21 08 2013  23 28  -21.0378 26016.8 -03476.9 -07.6119 26248.1
 21 08 2013  23 29  -21.0381 26017.0 -03476.9 -07.6119 26248.3
 21 08 2013  23 30  -21.0385 26017.3 -03477.0 -07.6121 26248.6
 21 08 2013  23 31  -21.0387 26017.7 -03477.2 -07.6124 26249.0
 21 08 2013  23 32  -21.0388 26017.7 -03477.2 -07.6124 26249.0
 21 08 2013  23 33  -21.0384 26017.5 -03477.0 -07.6120 26248.8
 21 08 2013  23 34  -21.0378 26017.5 -03477.0 -07.6118 26248.8
 21 08 2013  23 35  -21.0372 26017.5 -03476.9 -07.6117 26248.8
 21 08 2013  23 36  -21.0368 26017.1 -03476.7 -07.6114 26248.4
 21 08 2013  23 37  -21.0366 26016.9 -03476.6 -07.6112 26248.2
 21 08 2013  23 38  -21.0364 26016.8 -03476.5 -07.6111 26248.0
 21 08 2013  23 39  -21.0363 26016.6 -03476.5 -07.6110 26247.8
 21 08 2013  23 40  -21.0362 26016.4 -03476.4 -07.6110 26247.6
 21 08 2013  23 41  -21.0362 26016.0 -03476.2 -07.6107 26247.2
 21 08 2013  23 42  -21.0360 26016.3 -03476.3 -07.6108 26247.5
 21 08 2013  23 43  -21.0356 26016.2 -03476.4 -07.6109 26247.4
 21 08 2013  23 44  -21.0352 26016.3 -03476.4 -07.6110 26247.5
 21 08 2013  23 45  -21.0350 26016.5 -03476.5 -07.6112 26247.7
 21 08 2013  23 46  -21.0353 26016.3 -03476.5 -07.6113 26247.5
 21 08 2013  23 47  -21.0357 26016.2 -03476.6 -07.6113 26247.5
 21 08 2013  23 48  -21.0361 26016.0 -03476.5 -07.6112 26247.3
 21 08 2013  23 49  -21.0363 26015.9 -03476.4 -07.6111 26247.2
 21 08 2013  23 50  -21.0364 26015.7 -03476.3 -07.6111 26246.9
 21 08 2013  23 51  -21.0366 26015.5 -03476.2 -07.6108 26246.7
 21 08 2013  23 52  -21.0368 26014.9 -03476.0 -07.6105 26246.1
 21 08 2013  23 53  -21.0371 26014.5 -03475.8 -07.6102 26245.7
 21 08 2013  23 54  -21.0370 26014.1 -03475.6 -07.6098 26245.3
 21 08 2013  23 55  -21.0367 26013.7 -03475.4 -07.6096 26244.9
 21 08 2013  23 56  -21.0365 26013.1 -03475.1 -07.6091 26244.2
 21 08 2013  23 57  -21.0359 26013.1 -03475.1 -07.6092 26244.2
