SAO LUIS EMBRACE-03 <116> 1 Min. Reported data

 DD MM YYYY  HH MM   D(Deg)  H(nT)   Z(nT)   I(Deg)   F(nT)

 26 04 2013  00 00  -21.0515 26024.4 -03430.5 -07.5093 26249.5
 26 04 2013  00 01  -21.0515 26024.3 -03430.5 -07.5094 26249.4
 26 04 2013  00 02  -21.0515 26024.2 -03430.5 -07.5094 26249.3
 26 04 2013  00 03  -21.0515 26024.1 -03430.5 -07.5095 26249.2
 26 04 2013  00 04  -21.0515 26024.1 -03430.6 -07.5096 26249.3
 26 04 2013  00 05  -21.0514 26024.1 -03430.6 -07.5097 26249.3
 26 04 2013  00 06  -21.0514 26024.0 -03430.7 -07.5098 26249.2
 26 04 2013  00 07  -21.0513 26024.0 -03430.7 -07.5099 26249.1
 26 04 2013  00 08  -21.0513 26023.9 -03430.7 -07.5099 26249.1
 26 04 2013  00 09  -21.0512 26023.9 -03430.7 -07.5100 26249.1
 26 04 2013  00 10  -21.0511 26023.8 -03430.7 -07.5100 26249.0
 26 04 2013  00 11  -21.0509 26023.8 -03430.8 -07.5101 26249.0
 26 04 2013  00 12  -21.0508 26024.0 -03430.9 -07.5103 26249.2
 26 04 2013  00 13  -21.0506 26023.9 -03430.9 -07.5103 26249.1
 26 04 2013  00 14  -21.0503 26023.9 -03430.9 -07.5104 26249.1
 26 04 2013  00 15  -21.0502 26024.1 -03431.1 -07.5107 26249.3
 26 04 2013  00 16  -21.0501 26024.0 -03431.1 -07.5108 26249.2
 26 04 2013  00 17  -21.0500 26023.7 -03431.0 -07.5106 26248.9
 26 04 2013  00 18  -21.0500 26023.5 -03430.9 -07.5105 26248.7
 26 04 2013  00 19  -21.0501 26023.2 -03430.8 -07.5103 26248.4
 26 04 2013  00 20  -21.0502 26022.9 -03430.7 -07.5103 26248.1
 26 04 2013  00 21  -21.0503 26022.6 -03430.6 -07.5101 26247.8
 26 04 2013  00 22  -21.0504 26022.5 -03430.6 -07.5101 26247.7
 26 04 2013  00 23  -21.0506 26022.4 -03430.6 -07.5101 26247.6
 26 04 2013  00 24  -21.0506 26022.4 -03430.6 -07.5102 26247.6
 26 04 2013  00 25  -21.0504 26022.4 -03430.7 -07.5103 26247.6
 26 04 2013  00 26  -21.0502 26022.3 -03430.6 -07.5102 26247.4
 26 04 2013  00 27  -21.0500 26022.2 -03430.7 -07.5103 26247.4
 26 04 2013  00 28  -21.0500 26022.0 -03430.6 -07.5103 26247.2
 26 04 2013  00 29  -21.0499 26021.9 -03430.6 -07.5103 26247.0
 26 04 2013  00 30  -21.0498 26021.8 -03430.6 -07.5104 26247.0
 26 04 2013  00 31  -21.0498 26021.6 -03430.6 -07.5104 26246.8
 26 04 2013  00 32  -21.0497 26021.6 -03430.6 -07.5104 26246.8
 26 04 2013  00 33  -21.0496 26021.6 -03430.7 -07.5106 26246.8
 26 04 2013  00 34  -21.0495 26021.8 -03430.8 -07.5108 26247.0
 26 04 2013  00 35  -21.0494 26021.9 -03431.0 -07.5111 26247.1
 26 04 2013  00 36  -21.0493 26022.1 -03431.1 -07.5113 26247.3
 26 04 2013  00 37  -21.0494 26022.2 -03431.2 -07.5115 26247.5
 26 04 2013  00 38  -21.0495 26022.3 -03431.3 -07.5116 26247.6
 26 04 2013  00 39  -21.0498 26022.6 -03431.4 -07.5119 26247.8
 26 04 2013  00 40  -21.0500 26022.7 -03431.6 -07.5121 26248.0
 26 04 2013  00 41  -21.0500 26022.8 -03431.6 -07.5122 26248.1
 26 04 2013  00 42  -21.0499 26022.7 -03431.6 -07.5121 26248.0
 26 04 2013  00 43  -21.0498 26022.7 -03431.5 -07.5121 26248.0
 26 04 2013  00 44  -21.0496 26022.7 -03431.5 -07.5121 26247.9
 26 04 2013  00 45  -21.0495 26022.6 -03431.5 -07.5121 26247.9
 26 04 2013  00 46  -21.0495 26022.5 -03431.5 -07.5120 26247.7
 26 04 2013  00 47  -21.0495 26022.4 -03431.5 -07.5120 26247.7
 26 04 2013  00 48  -21.0495 26022.2 -03431.4 -07.5120 26247.5
 26 04 2013  00 49  -21.0494 26022.3 -03431.4 -07.5120 26247.5
 26 04 2013  00 50  -21.0493 26022.3 -03431.5 -07.5121 26247.5
 26 04 2013  00 51  -21.0490 26022.2 -03431.5 -07.5121 26247.5
 26 04 2013  00 52  -21.0489 26022.3 -03431.5 -07.5122 26247.5
 26 04 2013  00 53  -21.0488 26022.3 -03431.6 -07.5122 26247.6
 26 04 2013  00 54  -21.0487 26022.2 -03431.6 -07.5123 26247.5
 26 04 2013  00 55  -21.0487 26022.3 -03431.6 -07.5124 26247.5
 26 04 2013  00 56  -21.0486 26022.1 -03431.6 -07.5124 26247.4
 26 04 2013  00 57  -21.0485 26021.9 -03431.5 -07.5123 26247.2
 26 04 2013  00 58  -21.0484 26021.7 -03431.4 -07.5122 26246.9
 26 04 2013  00 59  -21.0484 26021.4 -03431.4 -07.5121 26246.7
 26 04 2013  01 00  -21.0484 26021.2 -03431.3 -07.5120 26246.5
 26 04 2013  01 01  -21.0483 26021.1 -03431.3 -07.5120 26246.4
 26 04 2013  01 02  -21.0484 26020.9 -03431.2 -07.5119 26246.2
 26 04 2013  01 03  -21.0485 26020.8 -03431.2 -07.5120 26246.0
 26 04 2013  01 04  -21.0483 26020.5 -03431.1 -07.5118 26245.7
 26 04 2013  01 05  -21.0481 26020.4 -03431.1 -07.5118 26245.6
 26 04 2013  01 06  -21.0480 26020.3 -03431.2 -07.5119 26245.6
 26 04 2013  01 07  -21.0482 26020.4 -03431.2 -07.5121 26245.6
 26 04 2013  01 08  -21.0483 26020.5 -03431.3 -07.5123 26245.8
 26 04 2013  01 09  -21.0485 26020.7 -03431.5 -07.5125 26246.0
 26 04 2013  01 10  -21.0485 26021.0 -03431.7 -07.5129 26246.3
 26 04 2013  01 11  -21.0485 26021.3 -03431.9 -07.5132 26246.7
 26 04 2013  01 12  -21.0485 26021.6 -03432.0 -07.5135 26247.0
 26 04 2013  01 13  -21.0485 26021.9 -03432.2 -07.5137 26247.2
 26 04 2013  01 14  -21.0484 26022.1 -03432.3 -07.5139 26247.5
 26 04 2013  01 15  -21.0481 26022.2 -03432.3 -07.5139 26247.6
 26 04 2013  01 16  -21.0479 26022.2 -03432.3 -07.5139 26247.6
 26 04 2013  01 17  -21.0479 26022.3 -03432.4 -07.5140 26247.7
 26 04 2013  01 18  -21.0479 26022.4 -03432.4 -07.5141 26247.8
 26 04 2013  01 19  -21.0479 26022.6 -03432.6 -07.5143 26248.0
 26 04 2013  01 20  -21.0480 26022.7 -03432.6 -07.5144 26248.1
 26 04 2013  01 21  -21.0481 26022.8 -03432.6 -07.5144 26248.3
 26 04 2013  01 22  -21.0480 26022.9 -03432.7 -07.5145 26248.4
 26 04 2013  01 23  -21.0479 26022.9 -03432.6 -07.5144 26248.3
 26 04 2013  01 24  -21.0477 26022.8 -03432.6 -07.5143 26248.2
 26 04 2013  01 25  -21.0474 26022.7 -03432.5 -07.5141 26248.1
 26 04 2013  01 26  -21.0473 26022.6 -03432.4 -07.5140 26248.0
 26 04 2013  01 27  -21.0474 26022.5 -03432.4 -07.5140 26247.9
 26 04 2013  01 28  -21.0476 26022.5 -03432.4 -07.5141 26247.9
 26 04 2013  01 29  -21.0479 26022.5 -03432.5 -07.5142 26247.9
 26 04 2013  01 30  -21.0482 26022.6 -03432.5 -07.5142 26248.0
 26 04 2013  01 31  -21.0484 26022.8 -03432.6 -07.5144 26248.2
 26 04 2013  01 32  -21.0485 26023.0 -03432.7 -07.5145 26248.4
 26 04 2013  01 33  -21.0486 26023.0 -03432.7 -07.5145 26248.4
 26 04 2013  01 34  -21.0484 26023.0 -03432.7 -07.5145 26248.4
 26 04 2013  01 35  -21.0484 26023.0 -03432.6 -07.5143 26248.4
 26 04 2013  01 36  -21.0482 26023.0 -03432.6 -07.5142 26248.4
 26 04 2013  01 37  -21.0480 26023.1 -03432.6 -07.5143 26248.5
 26 04 2013  01 38  -21.0479 26023.2 -03432.6 -07.5143 26248.6
 26 04 2013  01 39  -21.0478 26023.4 -03432.7 -07.5144 26248.8
 26 04 2013  01 40  -21.0478 26023.5 -03432.7 -07.5144 26248.9
 26 04 2013  01 41  -21.0476 26023.5 -03432.7 -07.5144 26249.0
 26 04 2013  01 42  -21.0475 26023.6 -03432.7 -07.5144 26249.0
 26 04 2013  01 43  -21.0474 26023.5 -03432.7 -07.5143 26248.9
 26 04 2013  01 44  -21.0475 26023.3 -03432.6 -07.5142 26248.7
 26 04 2013  01 45  -21.0478 26023.1 -03432.6 -07.5141 26248.5
 26 04 2013  01 46  -21.0481 26022.9 -03432.4 -07.5140 26248.3
 26 04 2013  01 47  -21.0481 26022.8 -03432.4 -07.5139 26248.2
 26 04 2013  01 48  -21.0479 26022.9 -03432.4 -07.5139 26248.3
 26 04 2013  01 49  -21.0477 26022.9 -03432.4 -07.5140 26248.3
 26 04 2013  01 50  -21.0474 26022.6 -03432.3 -07.5138 26248.0
 26 04 2013  01 51  -21.0469 26022.6 -03432.3 -07.5137 26248.0
 26 04 2013  01 52  -21.0468 26022.8 -03432.3 -07.5138 26248.2
 26 04 2013  01 53  -21.0468 26022.7 -03432.4 -07.5139 26248.1
 26 04 2013  01 54  -21.0467 26022.6 -03432.4 -07.5139 26248.0
 26 04 2013  01 55  -21.0470 26022.8 -03432.5 -07.5141 26248.2
 26 04 2013  01 56  -21.0475 26023.0 -03432.6 -07.5144 26248.4
 26 04 2013  01 57  -21.0480 26023.2 -03432.8 -07.5146 26248.7
 26 04 2013  01 58  -21.0483 26023.5 -03432.9 -07.5148 26248.9
 26 04 2013  01 59  -21.0486 26023.5 -03432.9 -07.5147 26248.9
 26 04 2013  02 00  -21.0488 26023.3 -03432.8 -07.5146 26248.7
 26 04 2013  02 01  -21.0491 26023.1 -03432.7 -07.5144 26248.5
 26 04 2013  02 02  -21.0498 26023.1 -03432.6 -07.5143 26248.5
 26 04 2013  02 03  -21.0504 26023.1 -03432.6 -07.5143 26248.5
 26 04 2013  02 04  -21.0510 26023.0 -03432.6 -07.5142 26248.4
 26 04 2013  02 05  -21.0515 26022.8 -03432.4 -07.5140 26248.2
 26 04 2013  02 06  -21.0521 26022.5 -03432.3 -07.5137 26247.9
 26 04 2013  02 07  -21.0526 26022.3 -03432.1 -07.5135 26247.6
 26 04 2013  02 08  -21.0531 26022.1 -03432.0 -07.5133 26247.4
 26 04 2013  02 09  -21.0537 26021.8 -03431.9 -07.5131 26247.2
 26 04 2013  02 10  -21.0542 26021.6 -03431.8 -07.5129 26246.9
 26 04 2013  02 11  -21.0544 26021.3 -03431.6 -07.5126 26246.6
 26 04 2013  02 12  -21.0544 26021.1 -03431.4 -07.5123 26246.3
 26 04 2013  02 13  -21.0543 26020.9 -03431.3 -07.5122 26246.2
 26 04 2013  02 14  -21.0538 26021.2 -03431.4 -07.5123 26246.5
 26 04 2013  02 15  -21.0536 26021.7 -03431.7 -07.5128 26247.0
 26 04 2013  02 16  -21.0534 26021.9 -03431.9 -07.5132 26247.2
 26 04 2013  02 17  -21.0535 26021.9 -03432.0 -07.5132 26247.3
 26 04 2013  02 18  -21.0535 26021.8 -03431.9 -07.5132 26247.2
 26 04 2013  02 19  -21.0534 26021.8 -03431.9 -07.5131 26247.1
 26 04 2013  02 20  -21.0537 26021.4 -03431.7 -07.5129 26246.7
 26 04 2013  02 21  -21.0537 26021.0 -03431.5 -07.5126 26246.3
 26 04 2013  02 22  -21.0537 26020.7 -03431.4 -07.5123 26246.0
 26 04 2013  02 23  -21.0537 26020.6 -03431.4 -07.5123 26245.9
 26 04 2013  02 24  -21.0540 26020.4 -03431.2 -07.5121 26245.6
 26 04 2013  02 25  -21.0543 26020.5 -03431.4 -07.5123 26245.8
 26 04 2013  02 26  -21.0545 26020.9 -03431.5 -07.5126 26246.2
 26 04 2013  02 27  -21.0542 26021.1 -03431.7 -07.5130 26246.4
 26 04 2013  02 28  -21.0537 26021.3 -03431.8 -07.5130 26246.6
 26 04 2013  02 29  -21.0536 26021.1 -03431.8 -07.5131 26246.4
 26 04 2013  02 30  -21.0536 26020.9 -03431.7 -07.5129 26246.2
 26 04 2013  02 31  -21.0541 26020.9 -03431.8 -07.5131 26246.2
 26 04 2013  02 32  -21.0548 26021.0 -03431.8 -07.5132 26246.3
 26 04 2013  02 33  -21.0553 26021.2 -03432.0 -07.5134 26246.5
 26 04 2013  02 34  -21.0559 26021.3 -03432.1 -07.5137 26246.7
 26 04 2013  02 35  -21.0564 26021.4 -03432.1 -07.5137 26246.8
 26 04 2013  02 36  -21.0571 26021.2 -03432.1 -07.5136 26246.6
 26 04 2013  02 37  -21.0574 26021.0 -03431.9 -07.5133 26246.4
 26 04 2013  02 38  -21.0575 26021.2 -03431.8 -07.5132 26246.5
 26 04 2013  02 39  -21.0582 26020.8 -03431.7 -07.5130 26246.1
 26 04 2013  02 40  -21.0577 26021.1 -03431.7 -07.5129 26246.4
 26 04 2013  02 41  -21.0576 26020.9 -03431.7 -07.5128 26246.3
 26 04 2013  02 42  -21.0570 26021.2 -03431.7 -07.5129 26246.5
 26 04 2013  02 43  -21.0564 26021.4 -03431.8 -07.5130 26246.7
 26 04 2013  02 44  -21.0554 26021.6 -03431.9 -07.5131 26247.0
 26 04 2013  02 45  -21.0552 26021.6 -03432.0 -07.5133 26247.0
 26 04 2013  02 46  -21.0551 26021.7 -03432.0 -07.5133 26247.0
 26 04 2013  02 47  -21.0546 26022.0 -03432.1 -07.5135 26247.4
 26 04 2013  02 48  -21.0544 26022.5 -03432.4 -07.5140 26247.9
 26 04 2013  02 49  -21.0545 26022.8 -03432.6 -07.5143 26248.3
 26 04 2013  02 50  -21.0541 26023.8 -03433.0 -07.5149 26249.2
 26 04 2013  02 51  -21.0537 26024.9 -03433.6 -07.5159 26250.4
 26 04 2013  02 52  -21.0532 26025.8 -03433.9 -07.5164 26251.4
 26 04 2013  02 53  -21.0532 26026.9 -03434.4 -07.5172 26252.5
 26 04 2013  02 54  -21.0527 26027.8 -03434.8 -07.5177 26253.5
 26 04 2013  02 55  -21.0523 26028.5 -03435.0 -07.5180 26254.2
 26 04 2013  02 56  -21.0523 26029.5 -03435.5 -07.5186 26255.2
 26 04 2013  02 57  -21.0523 26030.5 -03435.8 -07.5191 26256.3
 26 04 2013  02 58  -21.0522 26031.7 -03436.3 -07.5197 26257.5
 26 04 2013  02 59  -21.0523 26032.4 -03436.5 -07.5200 26258.2
 26 04 2013  03 00  -21.0525 26033.3 -03436.8 -07.5203 26259.2
 26 04 2013  03 01  -21.0531 26033.8 -03436.8 -07.5204 26259.6
 26 04 2013  03 02  -21.0539 26034.1 -03436.9 -07.5203 26260.0
 26 04 2013  03 03  -21.0547 26034.4 -03436.8 -07.5201 26260.3
 26 04 2013  03 04  -21.0551 26034.6 -03436.7 -07.5198 26260.4
 26 04 2013  03 05  -21.0555 26034.6 -03436.5 -07.5193 26260.5
 26 04 2013  03 06  -21.0557 26034.6 -03436.2 -07.5188 26260.3
 26 04 2013  03 07  -21.0554 26034.6 -03436.0 -07.5184 26260.4
 26 04 2013  03 08  -21.0552 26034.6 -03435.8 -07.5180 26260.4
 26 04 2013  03 09  -21.0545 26034.8 -03435.7 -07.5177 26260.5
 26 04 2013  03 10  -21.0540 26035.1 -03435.7 -07.5176 26260.8
 26 04 2013  03 11  -21.0537 26035.5 -03435.8 -07.5177 26261.3
 26 04 2013  03 12  -21.0537 26035.9 -03435.9 -07.5178 26261.6
 26 04 2013  03 13  -21.0536 26036.0 -03435.9 -07.5177 26261.8
 26 04 2013  03 14  -21.0539 26036.1 -03435.8 -07.5175 26261.8
 26 04 2013  03 15  -21.0542 26036.1 -03435.7 -07.5173 26261.8
 26 04 2013  03 16  -21.0543 26035.9 -03435.5 -07.5169 26261.6
 26 04 2013  03 17  -21.0546 26035.6 -03435.2 -07.5164 26261.3
 26 04 2013  03 18  -21.0547 26035.4 -03435.0 -07.5159 26261.0
 26 04 2013  03 19  -21.0547 26035.2 -03434.8 -07.5155 26260.8
 26 04 2013  03 20  -21.0552 26035.1 -03434.6 -07.5153 26260.7
 26 04 2013  03 21  -21.0558 26035.0 -03434.5 -07.5150 26260.6
 26 04 2013  03 22  -21.0568 26035.0 -03434.5 -07.5150 26260.6
 26 04 2013  03 23  -21.0583 26034.9 -03434.4 -07.5148 26260.4
 26 04 2013  03 24  -21.0595 26035.0 -03434.3 -07.5146 26260.5
 26 04 2013  03 25  -21.0599 26034.8 -03434.2 -07.5143 26260.4
 26 04 2013  03 26  -21.0601 26034.8 -03434.0 -07.5139 26260.3
 26 04 2013  03 27  -21.0602 26034.5 -03433.7 -07.5135 26259.9
 26 04 2013  03 28  -21.0600 26034.0 -03433.4 -07.5128 26259.4
 26 04 2013  03 29  -21.0602 26033.3 -03432.9 -07.5121 26258.6
 26 04 2013  03 30  -21.0604 26032.7 -03432.6 -07.5115 26258.0
 26 04 2013  03 31  -21.0603 26032.4 -03432.4 -07.5111 26257.7
 26 04 2013  03 32  -21.0604 26031.9 -03432.2 -07.5108 26257.2
 26 04 2013  03 33  -21.0607 26031.5 -03431.9 -07.5104 26256.7
 26 04 2013  03 34  -21.0610 26031.0 -03431.7 -07.5101 26256.3
 26 04 2013  03 35  -21.0612 26030.4 -03431.4 -07.5097 26255.5
 26 04 2013  03 36  -21.0615 26029.6 -03431.1 -07.5091 26254.7
 26 04 2013  03 37  -21.0616 26029.3 -03430.9 -07.5089 26254.4
 26 04 2013  03 38  -21.0616 26028.9 -03430.8 -07.5087 26254.1
 26 04 2013  03 39  -21.0619 26028.6 -03430.7 -07.5086 26253.8
 26 04 2013  03 40  -21.0623 26028.4 -03430.7 -07.5086 26253.5
 26 04 2013  03 41  -21.0628 26028.0 -03430.6 -07.5085 26253.1
 26 04 2013  03 42  -21.0632 26027.9 -03430.5 -07.5084 26253.0
 26 04 2013  03 43  -21.0639 26027.8 -03430.6 -07.5085 26252.9
 26 04 2013  03 44  -21.0642 26027.7 -03430.6 -07.5086 26252.8
 26 04 2013  03 45  -21.0640 26027.6 -03430.5 -07.5085 26252.7
 26 04 2013  03 46  -21.0640 26027.3 -03430.4 -07.5083 26252.4
 26 04 2013  03 47  -21.0636 26027.1 -03430.4 -07.5082 26252.2
 26 04 2013  03 48  -21.0634 26026.8 -03430.2 -07.5080 26251.8
 26 04 2013  03 49  -21.0637 26026.5 -03430.1 -07.5078 26251.5
 26 04 2013  03 50  -21.0643 26026.2 -03430.0 -07.5078 26251.2
 26 04 2013  03 51  -21.0647 26025.5 -03429.7 -07.5074 26250.5
 26 04 2013  03 52  -21.0650 26024.9 -03429.5 -07.5071 26249.9
 26 04 2013  03 53  -21.0649 26024.4 -03429.3 -07.5067 26249.4
 26 04 2013  03 54  -21.0647 26023.7 -03429.0 -07.5063 26248.6
 26 04 2013  03 55  -21.0641 26023.2 -03428.8 -07.5060 26248.1
 26 04 2013  03 56  -21.0632 26022.9 -03428.7 -07.5059 26247.8
 26 04 2013  03 57  -21.0621 26022.7 -03428.7 -07.5059 26247.6
 26 04 2013  03 58  -21.0609 26022.4 -03428.7 -07.5060 26247.3
 26 04 2013  03 59  -21.0599 26022.0 -03428.7 -07.5061 26246.9
 26 04 2013  04 00  -21.0592 26021.8 -03428.7 -07.5063 26246.7
 26 04 2013  04 01  -21.0583 26021.7 -03428.8 -07.5065 26246.6
 26 04 2013  04 02  -21.0575 26021.6 -03429.0 -07.5069 26246.6
 26 04 2013  04 03  -21.0570 26021.2 -03429.0 -07.5071 26246.2
 26 04 2013  04 04  -21.0562 26020.5 -03428.9 -07.5069 26245.4
 26 04 2013  04 05  -21.0549 26019.9 -03428.7 -07.5067 26244.8
 26 04 2013  04 06  -21.0539 26019.2 -03428.6 -07.5066 26244.1
 26 04 2013  04 07  -21.0533 26019.0 -03428.7 -07.5069 26243.9
 26 04 2013  04 08  -21.0531 26019.1 -03429.0 -07.5075 26244.0
 26 04 2013  04 09  -21.0537 26019.0 -03429.2 -07.5081 26244.1
 26 04 2013  04 10  -21.0545 26019.1 -03429.5 -07.5087 26244.1
 26 04 2013  04 11  -21.0552 26019.2 -03429.7 -07.5092 26244.3
 26 04 2013  04 12  -21.0554 26019.2 -03429.9 -07.5095 26244.3
 26 04 2013  04 13  -21.0554 26019.3 -03430.0 -07.5097 26244.4
 26 04 2013  04 14  -21.0557 26019.5 -03430.2 -07.5101 26244.7
 26 04 2013  04 15  -21.0556 26020.1 -03430.5 -07.5106 26245.3
 26 04 2013  04 16  -21.0557 26020.4 -03430.8 -07.5111 26245.6
 26 04 2013  04 17  -21.0555 26020.7 -03431.0 -07.5114 26245.9
 26 04 2013  04 18  -21.0554 26020.5 -03430.9 -07.5114 26245.7
 26 04 2013  04 19  -21.0552 26019.9 -03430.7 -07.5110 26245.1
 26 04 2013  04 20  -21.0553 26019.4 -03430.4 -07.5106 26244.5
 26 04 2013  04 21  -21.0553 26018.8 -03430.2 -07.5102 26243.9
 26 04 2013  04 22  -21.0550 26018.3 -03430.0 -07.5099 26243.4
 26 04 2013  04 23  -21.0550 26018.1 -03430.0 -07.5100 26243.2
 26 04 2013  04 24  -21.0548 26017.9 -03430.0 -07.5101 26243.0
 26 04 2013  04 25  -21.0545 26017.8 -03430.0 -07.5102 26243.0
 26 04 2013  04 26  -21.0539 26017.9 -03430.2 -07.5105 26243.0
 26 04 2013  04 27  -21.0533 26018.1 -03430.4 -07.5109 26243.2
 26 04 2013  04 28  -21.0533 26018.3 -03430.6 -07.5113 26243.5
 26 04 2013  04 29  -21.0534 26018.3 -03430.8 -07.5118 26243.5
 26 04 2013  04 30  -21.0538 26018.3 -03431.0 -07.5121 26243.6
 26 04 2013  04 31  -21.0548 26018.2 -03431.1 -07.5123 26243.5
 26 04 2013  04 32  -21.0555 26018.0 -03431.0 -07.5123 26243.3
 26 04 2013  04 33  -21.0561 26017.8 -03431.0 -07.5123 26243.0
 26 04 2013  04 34  -21.0563 26017.5 -03430.9 -07.5121 26242.7
 26 04 2013  04 35  -21.0562 26017.2 -03430.8 -07.5119 26242.4
 26 04 2013  04 36  -21.0558 26016.8 -03430.6 -07.5117 26242.0
 26 04 2013  04 37  -21.0556 26016.6 -03430.5 -07.5115 26241.8
 26 04 2013  04 38  -21.0552 26016.4 -03430.5 -07.5116 26241.6
 26 04 2013  04 39  -21.0549 26016.1 -03430.4 -07.5115 26241.3
 26 04 2013  04 40  -21.0546 26015.8 -03430.3 -07.5114 26241.0
 26 04 2013  04 41  -21.0543 26015.1 -03430.1 -07.5111 26240.3
 26 04 2013  04 42  -21.0542 26014.2 -03429.8 -07.5107 26239.4
 26 04 2013  04 43  -21.0543 26013.4 -03429.5 -07.5102 26238.5
 26 04 2013  04 44  -21.0545 26012.9 -03429.4 -07.5102 26238.0
 26 04 2013  04 45  -21.0545 26012.6 -03429.4 -07.5103 26237.7
 26 04 2013  04 46  -21.0540 26012.6 -03429.5 -07.5105 26237.7
 26 04 2013  04 47  -21.0533 26012.7 -03429.7 -07.5109 26237.9
 26 04 2013  04 48  -21.0528 26013.1 -03430.1 -07.5116 26238.3
 26 04 2013  04 49  -21.0526 26013.1 -03430.2 -07.5120 26238.3
 26 04 2013  04 50  -21.0529 26013.2 -03430.4 -07.5123 26238.4
 26 04 2013  04 51  -21.0531 26013.8 -03430.9 -07.5131 26239.1
 26 04 2013  04 52  -21.0533 26014.2 -03431.1 -07.5136 26239.5
 26 04 2013  04 53  -21.0532 26014.3 -03431.2 -07.5138 26239.6
 26 04 2013  04 54  -21.0529 26014.6 -03431.4 -07.5141 26239.9
 26 04 2013  04 55  -21.0534 26014.7 -03431.5 -07.5143 26240.0
 26 04 2013  04 56  -21.0537 26014.5 -03431.5 -07.5143 26239.8
 26 04 2013  04 57  -21.0538 26014.2 -03431.3 -07.5141 26239.6
 26 04 2013  04 58  -21.0540 26013.9 -03431.2 -07.5138 26239.2
 26 04 2013  04 59  -21.0538 26013.5 -03431.0 -07.5135 26238.8
 26 04 2013  05 00  -21.0535 26013.1 -03430.8 -07.5133 26238.4
 26 04 2013  05 01  -21.0530 26013.1 -03430.8 -07.5133 26238.4
 26 04 2013  05 02  -21.0518 26013.9 -03431.2 -07.5138 26239.2
 26 04 2013  05 03  -21.0510 26015.1 -03431.9 -07.5150 26240.5
 26 04 2013  05 04  -21.0504 26016.4 -03432.6 -07.5162 26241.9
 26 04 2013  05 05  -21.0503 26018.7 -03433.8 -07.5180 26244.3
 26 04 2013  05 06  -21.0505 26020.5 -03434.7 -07.5196 26246.2
 26 04 2013  05 07  -21.0506 26022.2 -03435.6 -07.5209 26248.0
 26 04 2013  05 08  -21.0504 26022.6 -03435.6 -07.5210 26248.4
 26 04 2013  05 09  -21.0500 26023.6 -03435.9 -07.5212 26249.5
 26 04 2013  05 10  -21.0490 26024.0 -03435.9 -07.5212 26249.8
 26 04 2013  05 11  -21.0483 26024.2 -03435.8 -07.5209 26250.0
 26 04 2013  05 12  -21.0478 26024.6 -03435.9 -07.5209 26250.4
 26 04 2013  05 13  -21.0474 26024.8 -03435.8 -07.5208 26250.6
 26 04 2013  05 14  -21.0473 26024.6 -03435.7 -07.5204 26250.4
 26 04 2013  05 15  -21.0472 26024.4 -03435.4 -07.5200 26250.1
 26 04 2013  05 16  -21.0470 26024.3 -03435.3 -07.5197 26250.0
 26 04 2013  05 17  -21.0465 26024.5 -03435.3 -07.5196 26250.2
 26 04 2013  05 18  -21.0460 26024.5 -03435.3 -07.5196 26250.3
 26 04 2013  05 19  -21.0450 26024.5 -03435.2 -07.5194 26250.2
 26 04 2013  05 20  -21.0440 26024.6 -03435.1 -07.5193 26250.3
 26 04 2013  05 21  -21.0428 26024.7 -03435.2 -07.5194 26250.4
 26 04 2013  05 22  -21.0420 26024.6 -03435.1 -07.5194 26250.3
 26 04 2013  05 23  -21.0414 26024.2 -03435.0 -07.5192 26250.0
 26 04 2013  05 24  -21.0414 26023.9 -03434.9 -07.5191 26249.7
 26 04 2013  05 25  -21.0415 26023.9 -03435.0 -07.5193 26249.7
 26 04 2013  05 26  -21.0416 26023.9 -03435.1 -07.5194 26249.6
 26 04 2013  05 27  -21.0421 26023.6 -03435.1 -07.5195 26249.4
 26 04 2013  05 28  -21.0424 26023.4 -03435.0 -07.5194 26249.1
 26 04 2013  05 29  -21.0427 26023.1 -03434.9 -07.5193 26248.8
 26 04 2013  05 30  -21.0429 26022.7 -03434.8 -07.5191 26248.4
 26 04 2013  05 31  -21.0428 26022.5 -03434.7 -07.5189 26248.2
 26 04 2013  05 32  -21.0429 26022.3 -03434.6 -07.5188 26248.0
 26 04 2013  05 33  -21.0432 26022.3 -03434.7 -07.5190 26248.0
 26 04 2013  05 34  -21.0434 26022.5 -03434.8 -07.5193 26248.2
 26 04 2013  05 35  -21.0437 26022.6 -03435.0 -07.5196 26248.4
 26 04 2013  05 36  -21.0440 26022.5 -03435.0 -07.5196 26248.2
 26 04 2013  05 37  -21.0443 26022.5 -03435.0 -07.5196 26248.2
 26 04 2013  05 38  -21.0447 26022.4 -03435.0 -07.5196 26248.2
 26 04 2013  05 39  -21.0450 26022.2 -03435.0 -07.5196 26248.0
 26 04 2013  05 40  -21.0450 26022.2 -03434.9 -07.5196 26247.9
 26 04 2013  05 41  -21.0446 26022.1 -03434.9 -07.5195 26247.8
 26 04 2013  05 42  -21.0445 26022.0 -03434.8 -07.5194 26247.7
 26 04 2013  05 43  -21.0445 26021.8 -03434.8 -07.5193 26247.5
 26 04 2013  05 44  -21.0445 26021.3 -03434.6 -07.5191 26247.0
 26 04 2013  05 45  -21.0446 26020.9 -03434.5 -07.5189 26246.6
 26 04 2013  05 46  -21.0444 26020.8 -03434.4 -07.5188 26246.5
 26 04 2013  05 47  -21.0442 26020.8 -03434.5 -07.5190 26246.5
 26 04 2013  05 48  -21.0437 26020.8 -03434.5 -07.5190 26246.5
 26 04 2013  05 49  -21.0429 26021.0 -03434.6 -07.5193 26246.7
 26 04 2013  05 50  -21.0423 26021.3 -03434.8 -07.5196 26247.0
 26 04 2013  05 51  -21.0421 26021.5 -03435.1 -07.5200 26247.2
 26 04 2013  05 52  -21.0418 26021.7 -03435.2 -07.5203 26247.5
 26 04 2013  05 53  -21.0410 26021.9 -03435.3 -07.5205 26247.7
 26 04 2013  05 54  -21.0402 26022.3 -03435.6 -07.5209 26248.1
 26 04 2013  05 55  -21.0395 26022.4 -03435.7 -07.5212 26248.2
 26 04 2013  05 56  -21.0388 26022.4 -03435.8 -07.5213 26248.2
 26 04 2013  05 57  -21.0384 26022.4 -03435.8 -07.5214 26248.3
 26 04 2013  05 58  -21.0382 26022.5 -03435.9 -07.5216 26248.4
 26 04 2013  05 59  -21.0381 26022.6 -03436.0 -07.5218 26248.4
 26 04 2013  06 00  -21.0381 26022.6 -03436.1 -07.5219 26248.5
 26 04 2013  06 01  -21.0380 26022.8 -03436.2 -07.5221 26248.7
 26 04 2013  06 02  -21.0377 26023.2 -03436.4 -07.5224 26249.2
 26 04 2013  06 03  -21.0374 26023.6 -03436.6 -07.5227 26249.5
 26 04 2013  06 04  -21.0371 26023.6 -03436.6 -07.5227 26249.5
 26 04 2013  06 05  -21.0370 26023.4 -03436.5 -07.5225 26249.3
 26 04 2013  06 06  -21.0369 26023.1 -03436.3 -07.5223 26249.0
 26 04 2013  06 07  -21.0370 26022.8 -03436.2 -07.5221 26248.7
 26 04 2013  06 08  -21.0374 26022.6 -03436.1 -07.5220 26248.5
 26 04 2013  06 09  -21.0377 26022.3 -03436.0 -07.5218 26248.2
 26 04 2013  06 10  -21.0377 26022.1 -03435.9 -07.5216 26248.0
 26 04 2013  06 11  -21.0377 26022.2 -03435.9 -07.5216 26248.1
 26 04 2013  06 12  -21.0377 26022.2 -03435.9 -07.5217 26248.0
 26 04 2013  06 13  -21.0376 26021.9 -03435.9 -07.5216 26247.8
 26 04 2013  06 14  -21.0377 26021.6 -03435.7 -07.5214 26247.4
 26 04 2013  06 15  -21.0377 26021.6 -03435.7 -07.5215 26247.5
 26 04 2013  06 16  -21.0375 26021.6 -03435.8 -07.5215 26247.5
 26 04 2013  06 17  -21.0372 26021.8 -03435.8 -07.5216 26247.6
 26 04 2013  06 18  -21.0370 26021.9 -03435.9 -07.5217 26247.7
 26 04 2013  06 19  -21.0369 26022.0 -03436.0 -07.5219 26247.8
 26 04 2013  06 20  -21.0369 26022.0 -03436.0 -07.5219 26247.8
 26 04 2013  06 21  -21.0371 26022.0 -03436.1 -07.5220 26247.9
 26 04 2013  06 22  -21.0374 26022.2 -03436.2 -07.5223 26248.1
 26 04 2013  06 23  -21.0377 26022.2 -03436.2 -07.5223 26248.1
 26 04 2013  06 24  -21.0379 26021.9 -03436.0 -07.5220 26247.8
 26 04 2013  06 25  -21.0379 26021.6 -03435.8 -07.5217 26247.4
 26 04 2013  06 26  -21.0377 26021.2 -03435.6 -07.5213 26247.0
 26 04 2013  06 27  -21.0378 26021.0 -03435.5 -07.5211 26246.8
 26 04 2013  06 28  -21.0378 26020.9 -03435.4 -07.5210 26246.7
 26 04 2013  06 29  -21.0377 26020.6 -03435.4 -07.5209 26246.4
 26 04 2013  06 30  -21.0377 26020.4 -03435.3 -07.5209 26246.2
 26 04 2013  06 31  -21.0377 26020.2 -03435.3 -07.5208 26246.0
 26 04 2013  06 32  -21.0377 26019.9 -03435.2 -07.5207 26245.7
 26 04 2013  06 33  -21.0378 26019.7 -03435.1 -07.5206 26245.5
 26 04 2013  06 34  -21.0377 26019.5 -03435.0 -07.5205 26245.3
 26 04 2013  06 35  -21.0375 26019.3 -03435.0 -07.5205 26245.1
 26 04 2013  06 36  -21.0374 26019.2 -03435.0 -07.5205 26245.0
 26 04 2013  06 37  -21.0375 26019.1 -03435.0 -07.5206 26244.8
 26 04 2013  06 38  -21.0377 26018.7 -03434.9 -07.5205 26244.5
 26 04 2013  06 39  -21.0378 26018.4 -03434.8 -07.5203 26244.2
 26 04 2013  06 40  -21.0384 26018.2 -03434.7 -07.5203 26244.0
 26 04 2013  06 41  -21.0389 26018.0 -03434.7 -07.5203 26243.7
 26 04 2013  06 42  -21.0389 26017.8 -03434.6 -07.5202 26243.6
 26 04 2013  06 43  -21.0385 26017.5 -03434.5 -07.5200 26243.2
 26 04 2013  06 44  -21.0382 26017.1 -03434.3 -07.5197 26242.8
 26 04 2013  06 45  -21.0381 26017.0 -03434.3 -07.5197 26242.6
 26 04 2013  06 46  -21.0376 26016.9 -03434.4 -07.5198 26242.6
 26 04 2013  06 47  -21.0366 26016.9 -03434.4 -07.5199 26242.6
 26 04 2013  06 48  -21.0353 26017.0 -03434.5 -07.5200 26242.7
 26 04 2013  06 49  -21.0341 26017.3 -03434.7 -07.5204 26243.0
 26 04 2013  06 50  -21.0329 26017.6 -03434.9 -07.5209 26243.4
 26 04 2013  06 51  -21.0316 26018.1 -03435.3 -07.5214 26243.9
 26 04 2013  06 52  -21.0302 26018.7 -03435.6 -07.5220 26244.5
 26 04 2013  06 53  -21.0288 26019.1 -03435.9 -07.5226 26245.0
 26 04 2013  06 54  -21.0275 26019.6 -03436.2 -07.5231 26245.5
 26 04 2013  06 55  -21.0263 26020.0 -03436.5 -07.5236 26246.0
 26 04 2013  06 56  -21.0252 26020.1 -03436.6 -07.5238 26246.1
 26 04 2013  06 57  -21.0246 26019.8 -03436.5 -07.5237 26245.7
 26 04 2013  06 58  -21.0248 26019.5 -03436.4 -07.5235 26245.4
 26 04 2013  06 59  -21.0252 26019.4 -03436.3 -07.5234 26245.3
 26 04 2013  07 00  -21.0259 26019.4 -03436.4 -07.5235 26245.3
 26 04 2013  07 01  -21.0270 26019.4 -03436.5 -07.5237 26245.4
 26 04 2013  07 02  -21.0284 26019.6 -03436.6 -07.5238 26245.6
 26 04 2013  07 03  -21.0297 26019.8 -03436.7 -07.5241 26245.7
 26 04 2013  07 04  -21.0308 26019.7 -03436.6 -07.5239 26245.7
 26 04 2013  07 05  -21.0313 26019.6 -03436.5 -07.5237 26245.6
 26 04 2013  07 06  -21.0313 26019.7 -03436.4 -07.5235 26245.7
 26 04 2013  07 07  -21.0312 26019.9 -03436.4 -07.5235 26245.9
 26 04 2013  07 08  -21.0311 26020.2 -03436.5 -07.5236 26246.2
 26 04 2013  07 09  -21.0306 26020.4 -03436.6 -07.5236 26246.4
 26 04 2013  07 10  -21.0307 26020.5 -03436.6 -07.5236 26246.4
 26 04 2013  07 11  -21.0311 26020.3 -03436.5 -07.5235 26246.2
 26 04 2013  07 12  -21.0315 26020.4 -03436.5 -07.5235 26246.3
 26 04 2013  07 13  -21.0318 26020.6 -03436.6 -07.5235 26246.6
 26 04 2013  07 14  -21.0325 26020.2 -03436.4 -07.5232 26246.1
 26 04 2013  07 15  -21.0327 26019.8 -03436.0 -07.5226 26245.7
 26 04 2013  07 16  -21.0323 26019.8 -03435.9 -07.5224 26245.7
 26 04 2013  07 17  -21.0321 26020.3 -03436.1 -07.5226 26246.2
 26 04 2013  07 18  -21.0317 26020.7 -03436.3 -07.5229 26246.7
 26 04 2013  07 19  -21.0314 26021.1 -03436.5 -07.5232 26247.0
 26 04 2013  07 20  -21.0308 26021.6 -03436.7 -07.5235 26247.6
 26 04 2013  07 21  -21.0303 26021.9 -03436.8 -07.5237 26247.9
 26 04 2013  07 22  -21.0302 26022.0 -03436.8 -07.5237 26248.0
 26 04 2013  07 23  -21.0302 26022.3 -03436.9 -07.5239 26248.3
 26 04 2013  07 24  -21.0297 26023.0 -03437.2 -07.5243 26249.0
 26 04 2013  07 25  -21.0293 26023.5 -03437.5 -07.5247 26249.5
 26 04 2013  07 26  -21.0284 26023.6 -03437.5 -07.5247 26249.7
 26 04 2013  07 27  -21.0275 26023.5 -03437.3 -07.5244 26249.5
 26 04 2013  07 28  -21.0267 26022.7 -03436.9 -07.5237 26248.7
 26 04 2013  07 29  -21.0258 26021.4 -03436.2 -07.5225 26247.3
 26 04 2013  07 30  -21.0249 26020.6 -03435.7 -07.5216 26246.4
 26 04 2013  07 31  -21.0242 26020.6 -03435.7 -07.5216 26246.4
 26 04 2013  07 32  -21.0237 26021.1 -03436.0 -07.5223 26247.0
 26 04 2013  07 33  -21.0230 26021.7 -03436.5 -07.5230 26247.6
 26 04 2013  07 34  -21.0222 26021.9 -03436.7 -07.5235 26247.9
 26 04 2013  07 35  -21.0218 26021.7 -03436.7 -07.5235 26247.6
 26 04 2013  07 36  -21.0214 26021.3 -03436.6 -07.5234 26247.3
 26 04 2013  07 37  -21.0212 26021.2 -03436.6 -07.5234 26247.2
 26 04 2013  07 38  -21.0207 26021.5 -03436.7 -07.5235 26247.4
 26 04 2013  07 39  -21.0196 26021.9 -03436.9 -07.5240 26247.9
 26 04 2013  07 40  -21.0184 26022.3 -03437.1 -07.5243 26248.3
 26 04 2013  07 41  -21.0180 26022.2 -03437.2 -07.5244 26248.3
 26 04 2013  07 42  -21.0186 26021.8 -03437.0 -07.5242 26247.8
 26 04 2013  07 43  -21.0194 26021.7 -03437.0 -07.5242 26247.7
 26 04 2013  07 44  -21.0200 26021.8 -03437.0 -07.5242 26247.8
 26 04 2013  07 45  -21.0200 26022.2 -03437.3 -07.5246 26248.3
 26 04 2013  07 46  -21.0200 26022.8 -03437.5 -07.5250 26248.9
 26 04 2013  07 47  -21.0203 26023.2 -03437.7 -07.5253 26249.2
 26 04 2013  07 48  -21.0205 26023.4 -03437.8 -07.5254 26249.5
 26 04 2013  07 49  -21.0201 26023.8 -03437.9 -07.5255 26249.9
 26 04 2013  07 50  -21.0195 26023.8 -03437.8 -07.5254 26249.9
 26 04 2013  07 51  -21.0192 26023.9 -03437.8 -07.5254 26250.0
 26 04 2013  07 52  -21.0190 26023.7 -03437.7 -07.5251 26249.8
 26 04 2013  07 53  -21.0194 26023.3 -03437.4 -07.5247 26249.4
 26 04 2013  07 54  -21.0205 26023.2 -03437.3 -07.5245 26249.2
 26 04 2013  07 55  -21.0216 26023.2 -03437.3 -07.5244 26249.2
 26 04 2013  07 56  -21.0228 26023.4 -03437.4 -07.5245 26249.4
 26 04 2013  07 57  -21.0237 26023.9 -03437.6 -07.5249 26250.0
 26 04 2013  07 58  -21.0239 26023.8 -03437.5 -07.5247 26249.9
 26 04 2013  07 59  -21.0240 26024.2 -03437.5 -07.5246 26250.2
 26 04 2013  08 00  -21.0247 26024.6 -03437.7 -07.5249 26250.7
 26 04 2013  08 01  -21.0253 26024.6 -03437.6 -07.5247 26250.7
 26 04 2013  08 02  -21.0260 26024.5 -03437.5 -07.5244 26250.6
 26 04 2013  08 03  -21.0261 26024.5 -03437.3 -07.5240 26250.5
 26 04 2013  08 04  -21.0258 26024.3 -03437.1 -07.5236 26250.3
 26 04 2013  08 05  -21.0256 26024.2 -03436.9 -07.5232 26250.1
 26 04 2013  08 06  -21.0256 26024.0 -03436.7 -07.5229 26249.9
 26 04 2013  08 07  -21.0257 26024.4 -03436.8 -07.5231 26250.3
 26 04 2013  08 08  -21.0255 26024.6 -03437.0 -07.5232 26250.6
 26 04 2013  08 09  -21.0249 26024.7 -03436.9 -07.5231 26250.7
 26 04 2013  08 10  -21.0245 26025.3 -03437.1 -07.5235 26251.3
 26 04 2013  08 11  -21.0239 26025.3 -03437.2 -07.5235 26251.3
 26 04 2013  08 12  -21.0236 26025.0 -03436.9 -07.5231 26250.9
 26 04 2013  08 13  -21.0233 26024.8 -03436.8 -07.5228 26250.8
 26 04 2013  08 14  -21.0233 26024.6 -03436.6 -07.5225 26250.5
 26 04 2013  08 15  -21.0236 26024.4 -03436.5 -07.5223 26250.3
 26 04 2013  08 16  -21.0238 26024.1 -03436.4 -07.5221 26250.0
 26 04 2013  08 17  -21.0235 26023.9 -03436.2 -07.5218 26249.8
 26 04 2013  08 18  -21.0231 26024.0 -03436.2 -07.5218 26249.8
 26 04 2013  08 19  -21.0225 26023.9 -03436.2 -07.5218 26249.8
 26 04 2013  08 20  -21.0219 26023.8 -03436.1 -07.5217 26249.6
 26 04 2013  08 21  -21.0212 26023.8 -03436.2 -07.5218 26249.6
 26 04 2013  08 22  -21.0207 26023.6 -03436.1 -07.5217 26249.4
 26 04 2013  08 23  -21.0207 26023.4 -03436.1 -07.5217 26249.2
 26 04 2013  08 24  -21.0207 26023.4 -03436.0 -07.5216 26249.2
 26 04 2013  08 25  -21.0202 26023.5 -03436.2 -07.5219 26249.4
 26 04 2013  08 26  -21.0201 26023.6 -03436.3 -07.5222 26249.5
 26 04 2013  08 27  -21.0203 26023.9 -03436.5 -07.5225 26249.8
 26 04 2013  08 28  -21.0193 26024.4 -03436.8 -07.5229 26250.3
 26 04 2013  08 29  -21.0178 26024.2 -03436.7 -07.5228 26250.2
 26 04 2013  08 30  -21.0172 26023.9 -03436.5 -07.5226 26249.9
 26 04 2013  08 31  -21.0175 26023.9 -03436.6 -07.5227 26249.9
 26 04 2013  08 32  -21.0178 26024.1 -03436.7 -07.5229 26250.0
 26 04 2013  08 33  -21.0174 26024.3 -03436.8 -07.5229 26250.2
 26 04 2013  08 34  -21.0175 26024.8 -03437.0 -07.5233 26250.7
 26 04 2013  08 35  -21.0178 26025.1 -03437.3 -07.5239 26251.1
 26 04 2013  08 36  -21.0168 26025.5 -03437.5 -07.5242 26251.6
 26 04 2013  08 37  -21.0153 26025.8 -03437.6 -07.5244 26251.8
 26 04 2013  08 38  -21.0156 26025.2 -03437.5 -07.5242 26251.2
 26 04 2013  08 39  -21.0148 26024.9 -03437.2 -07.5237 26250.9
 26 04 2013  08 40  -21.0137 26024.6 -03436.9 -07.5232 26250.6
 26 04 2013  08 41  -21.0130 26024.8 -03437.0 -07.5233 26250.7
 26 04 2013  08 42  -21.0127 26025.0 -03437.2 -07.5238 26251.0
 26 04 2013  08 43  -21.0132 26025.0 -03437.5 -07.5243 26251.0
 26 04 2013  08 44  -21.0136 26025.1 -03437.7 -07.5247 26251.2
 26 04 2013  08 45  -21.0139 26025.5 -03438.0 -07.5252 26251.6
 26 04 2013  08 46  -21.0134 26025.6 -03438.0 -07.5253 26251.8
 26 04 2013  08 47  -21.0136 26025.9 -03438.2 -07.5256 26252.0
 26 04 2013  08 48  -21.0138 26025.9 -03438.2 -07.5257 26252.0
 26 04 2013  08 49  -21.0145 26025.6 -03438.2 -07.5256 26251.7
 26 04 2013  08 50  -21.0148 26025.4 -03438.0 -07.5253 26251.5
 26 04 2013  08 51  -21.0157 26025.1 -03437.9 -07.5252 26251.2
 26 04 2013  08 52  -21.0160 26025.0 -03437.8 -07.5250 26251.1
 26 04 2013  08 53  -21.0162 26024.9 -03437.7 -07.5248 26250.9
 26 04 2013  08 54  -21.0157 26024.7 -03437.5 -07.5245 26250.8
 26 04 2013  08 55  -21.0157 26024.5 -03437.5 -07.5245 26250.6
 26 04 2013  08 56  -21.0153 26024.3 -03437.4 -07.5243 26250.3
 26 04 2013  08 57  -21.0148 26024.1 -03437.3 -07.5241 26250.1
 26 04 2013  08 58  -21.0131 26023.7 -03437.0 -07.5237 26249.7
 26 04 2013  08 59  -21.0120 26023.5 -03437.0 -07.5236 26249.5
 26 04 2013  09 00  -21.0119 26023.5 -03437.1 -07.5239 26249.5
 26 04 2013  09 01  -21.0121 26023.5 -03437.3 -07.5243 26249.5
 26 04 2013  09 02  -21.0125 26023.3 -03437.3 -07.5244 26249.3
 26 04 2013  09 03  -21.0124 26022.8 -03437.1 -07.5241 26248.8
 26 04 2013  09 04  -21.0127 26022.6 -03437.0 -07.5239 26248.6
 26 04 2013  09 05  -21.0124 26022.2 -03436.8 -07.5235 26248.1
 26 04 2013  09 06  -21.0122 26021.9 -03436.6 -07.5233 26247.9
 26 04 2013  09 07  -21.0121 26021.8 -03436.6 -07.5234 26247.8
 26 04 2013  09 08  -21.0121 26021.5 -03436.7 -07.5235 26247.5
 26 04 2013  09 09  -21.0127 26021.1 -03436.6 -07.5235 26247.0
 26 04 2013  09 10  -21.0136 26020.8 -03436.6 -07.5236 26246.8
 26 04 2013  09 11  -21.0145 26020.7 -03436.8 -07.5240 26246.7
 26 04 2013  09 12  -21.0147 26020.8 -03436.9 -07.5243 26246.8
 26 04 2013  09 13  -21.0145 26021.1 -03437.1 -07.5245 26247.1
 26 04 2013  09 14  -21.0145 26020.9 -03437.1 -07.5246 26246.9
 26 04 2013  09 15  -21.0148 26019.9 -03436.7 -07.5240 26245.9
 26 04 2013  09 16  -21.0150 26019.2 -03436.3 -07.5235 26245.1
 26 04 2013  09 17  -21.0156 26019.1 -03436.3 -07.5235 26245.0
 26 04 2013  09 18  -21.0156 26019.0 -03436.3 -07.5235 26245.0
 26 04 2013  09 19  -21.0159 26018.9 -03436.2 -07.5233 26244.8
 26 04 2013  09 20  -21.0174 26019.2 -03436.5 -07.5238 26245.1
 26 04 2013  09 21  -21.0172 26019.3 -03436.6 -07.5241 26245.3
 26 04 2013  09 22  -21.0165 26019.2 -03436.5 -07.5239 26245.2
 26 04 2013  09 23  -21.0177 26019.0 -03436.5 -07.5240 26244.9
 26 04 2013  09 24  -21.0182 26018.6 -03436.4 -07.5238 26244.6
 26 04 2013  09 25  -21.0182 26018.7 -03436.4 -07.5238 26244.7
 26 04 2013  09 26  -21.0175 26018.9 -03436.4 -07.5238 26244.8
 26 04 2013  09 27  -21.0176 26018.6 -03436.3 -07.5236 26244.6
 26 04 2013  09 28  -21.0180 26018.6 -03436.4 -07.5237 26244.6
 26 04 2013  09 29  -21.0194 26018.6 -03436.5 -07.5240 26244.6
 26 04 2013  09 30  -21.0205 26018.3 -03436.5 -07.5240 26244.3
 26 04 2013  09 31  -21.0210 26018.0 -03436.3 -07.5238 26243.9
 26 04 2013  09 32  -21.0224 26018.0 -03436.4 -07.5240 26244.0
 26 04 2013  09 33  -21.0240 26017.7 -03436.4 -07.5241 26243.6
 26 04 2013  09 34  -21.0250 26017.3 -03436.3 -07.5239 26243.3
 26 04 2013  09 35  -21.0263 26017.4 -03436.3 -07.5239 26243.3
 26 04 2013  09 36  -21.0269 26017.3 -03436.4 -07.5241 26243.3
 26 04 2013  09 37  -21.0260 26016.8 -03436.1 -07.5236 26242.7
 26 04 2013  09 38  -21.0249 26016.5 -03435.9 -07.5233 26242.4
 26 04 2013  09 39  -21.0236 26016.4 -03435.8 -07.5232 26242.3
 26 04 2013  09 40  -21.0232 26016.4 -03435.9 -07.5234 26242.3
 26 04 2013  09 41  -21.0235 26016.5 -03436.0 -07.5236 26242.4
 26 04 2013  09 42  -21.0236 26016.5 -03436.1 -07.5237 26242.5
 26 04 2013  09 43  -21.0229 26016.1 -03435.9 -07.5234 26242.0
 26 04 2013  09 44  -21.0215 26015.5 -03435.6 -07.5228 26241.4
 26 04 2013  09 45  -20.9796 26030.2 -03395.4 -07.4317 26250.7
 26 04 2013  09 46  -21.0230 26015.5 -03435.6 -07.5229 26241.4
 26 04 2013  09 47  -21.0238 26015.6 -03435.7 -07.5230 26241.5
 26 04 2013  09 48  -21.0271 26016.2 -03436.1 -07.5237 26242.1
 26 04 2013  09 49  -21.0282 26016.1 -03435.9 -07.5235 26242.0
 26 04 2013  09 50  -21.0283 26016.1 -03435.8 -07.5233 26242.0
 26 04 2013  09 51  -21.0283 26016.1 -03435.9 -07.5234 26242.0
 26 04 2013  09 52  -21.0282 26016.1 -03435.9 -07.5233 26242.0
 26 04 2013  09 53  -21.0280 26016.1 -03435.9 -07.5234 26242.0
 26 04 2013  09 54  -21.0286 26016.0 -03435.9 -07.5235 26241.9
 26 04 2013  09 55  -21.0282 26016.1 -03436.0 -07.5236 26242.0
 26 04 2013  09 56  -21.0290 26016.3 -03436.1 -07.5238 26242.2
 26 04 2013  09 57  -21.0296 26016.3 -03436.2 -07.5239 26242.2
 26 04 2013  09 58  -21.0292 26016.3 -03436.2 -07.5240 26242.3
 26 04 2013  09 59  -21.0286 26016.5 -03436.2 -07.5240 26242.4
 26 04 2013  10 00  -21.0276 26016.7 -03436.4 -07.5243 26242.6
 26 04 2013  10 01  -21.0273 26016.7 -03436.5 -07.5244 26242.7
 26 04 2013  10 02  -21.0275 26016.7 -03436.5 -07.5246 26242.7
 26 04 2013  10 03  -21.0287 26016.6 -03436.6 -07.5248 26242.6
 26 04 2013  10 04  -21.0291 26016.7 -03436.7 -07.5249 26242.7
 26 04 2013  10 05  -21.0290 26016.9 -03436.8 -07.5252 26242.9
 26 04 2013  10 06  -21.0287 26017.2 -03437.0 -07.5255 26243.3
 26 04 2013  10 07  -21.0280 26017.8 -03437.3 -07.5260 26243.9
 26 04 2013  10 08  -21.0263 26018.5 -03437.6 -07.5263 26244.6
 26 04 2013  10 09  -21.0261 26019.1 -03437.8 -07.5266 26245.2
 26 04 2013  10 10  -21.0256 26019.8 -03438.0 -07.5269 26245.9
 26 04 2013  10 11  -21.0248 26020.2 -03438.1 -07.5269 26246.4
 26 04 2013  10 12  -21.0263 26020.5 -03438.2 -07.5271 26246.6
 26 04 2013  10 13  -21.0284 26020.8 -03438.3 -07.5273 26247.0
 26 04 2013  10 14  -21.0293 26020.9 -03438.3 -07.5272 26247.1
 26 04 2013  10 15  -21.0298 26021.3 -03438.4 -07.5273 26247.5
 26 04 2013  10 16  -21.0304 26021.5 -03438.4 -07.5273 26247.7
 26 04 2013  10 17  -21.0310 26021.7 -03438.4 -07.5273 26247.9
 26 04 2013  10 18  -21.0316 26022.0 -03438.5 -07.5273 26248.2
 26 04 2013  10 19  -21.0314 26022.2 -03438.5 -07.5272 26248.4
 26 04 2013  10 20  -21.0327 26022.5 -03438.6 -07.5274 26248.7
 26 04 2013  10 21  -21.0340 26023.0 -03438.8 -07.5277 26249.2
 26 04 2013  10 22  -21.0344 26023.3 -03438.8 -07.5276 26249.5
 26 04 2013  10 23  -21.0354 26023.9 -03438.8 -07.5275 26250.1
 26 04 2013  10 24  -21.0363 26024.4 -03438.9 -07.5276 26250.7
 26 04 2013  10 25  -21.0374 26024.6 -03438.8 -07.5273 26250.8
 26 04 2013  10 26  -21.0378 26025.1 -03438.8 -07.5271 26251.3
 26 04 2013  10 27  -21.0376 26025.7 -03438.8 -07.5270 26251.9
 26 04 2013  10 28  -21.0366 26026.4 -03438.8 -07.5268 26252.6
 26 04 2013  10 29  -21.0370 26026.9 -03438.9 -07.5268 26253.1
 26 04 2013  10 30  -21.0386 26027.5 -03439.1 -07.5271 26253.7
 26 04 2013  10 31  -21.0398 26028.1 -03439.3 -07.5273 26254.4
 26 04 2013  10 32  -21.0401 26028.7 -03439.4 -07.5273 26255.0
 26 04 2013  10 33  -21.0411 26029.2 -03439.3 -07.5269 26255.4
 26 04 2013  10 34  -21.0424 26029.0 -03438.9 -07.5262 26255.2
 26 04 2013  10 35  -21.0440 26028.8 -03438.6 -07.5257 26255.0
 26 04 2013  10 36  -21.0449 26028.8 -03438.5 -07.5253 26254.9
 26 04 2013  10 37  -21.0454 26029.2 -03438.4 -07.5251 26255.3
 26 04 2013  10 38  -21.0460 26029.2 -03438.3 -07.5248 26255.3
 26 04 2013  10 39  -21.0460 26029.0 -03438.0 -07.5243 26255.1
 26 04 2013  10 40  -21.0462 26029.5 -03438.0 -07.5241 26255.5
 26 04 2013  10 41  -21.0470 26029.5 -03437.9 -07.5238 26255.6
 26 04 2013  10 42  -21.0482 26029.7 -03437.8 -07.5236 26255.7
 26 04 2013  10 43  -21.0493 26029.9 -03437.8 -07.5235 26255.9
 26 04 2013  10 44  -21.0502 26030.3 -03437.8 -07.5235 26256.4
 26 04 2013  10 45  -21.0504 26030.9 -03437.8 -07.5234 26256.9
 26 04 2013  10 46  -21.0506 26031.6 -03437.9 -07.5234 26257.7
 26 04 2013  10 47  -21.0520 26032.2 -03438.0 -07.5233 26258.2
 26 04 2013  10 48  -21.0536 26032.6 -03437.9 -07.5231 26258.6
 26 04 2013  10 49  -21.0539 26033.1 -03437.8 -07.5227 26259.1
 26 04 2013  10 50  -21.0548 26033.3 -03437.7 -07.5223 26259.2
 26 04 2013  10 51  -21.0558 26033.4 -03437.4 -07.5218 26259.3
 26 04 2013  10 52  -21.0573 26033.5 -03437.3 -07.5214 26259.4
 26 04 2013  10 53  -21.0574 26033.8 -03437.1 -07.5209 26259.8
 26 04 2013  10 54  -21.0580 26034.0 -03436.9 -07.5204 26259.9
 26 04 2013  10 55  -21.0591 26034.0 -03436.7 -07.5201 26259.9
 26 04 2013  10 56  -21.0596 26034.2 -03436.6 -07.5197 26260.0
 26 04 2013  10 57  -21.0602 26034.1 -03436.4 -07.5193 26259.9
 26 04 2013  10 58  -21.0605 26034.1 -03436.4 -07.5192 26260.0
 26 04 2013  10 59  -21.0602 26034.3 -03436.3 -07.5190 26260.1
 26 04 2013  11 00  -21.0595 26034.5 -03436.2 -07.5187 26260.3
 26 04 2013  11 01  -21.0584 26034.9 -03436.1 -07.5186 26260.6
 26 04 2013  11 02  -21.0582 26034.8 -03436.1 -07.5184 26260.6
 26 04 2013  11 03  -21.0577 26034.6 -03435.9 -07.5180 26260.3
 26 04 2013  11 04  -21.0568 26035.1 -03435.9 -07.5179 26260.8
 26 04 2013  11 05  -21.0554 26036.0 -03436.1 -07.5181 26261.7
 26 04 2013  11 06  -21.0560 26036.7 -03436.3 -07.5183 26262.4
 26 04 2013  11 07  -21.0567 26037.1 -03436.3 -07.5183 26262.9
 26 04 2013  11 08  -21.0564 26037.9 -03436.4 -07.5182 26263.7
 26 04 2013  11 09  -21.0564 26039.2 -03436.6 -07.5183 26265.0
 26 04 2013  11 10  -21.0571 26040.5 -03436.9 -07.5185 26266.3
 26 04 2013  11 11  -21.0580 26041.2 -03436.9 -07.5183 26267.0
 26 04 2013  11 12  -21.0607 26041.4 -03436.6 -07.5177 26267.2
 26 04 2013  11 13  -21.0639 26042.1 -03436.5 -07.5172 26267.9
 26 04 2013  11 14  -21.0660 26044.0 -03436.6 -07.5168 26269.8
 26 04 2013  11 15  -21.0667 26045.9 -03436.5 -07.5162 26271.6
 26 04 2013  11 16  -21.0662 26046.0 -03435.7 -07.5145 26271.6
 26 04 2013  11 17  -21.0657 26045.9 -03435.1 -07.5133 26271.4
 26 04 2013  11 18  -21.0660 26045.1 -03434.5 -07.5120 26270.5
 26 04 2013  11 19  -21.0674 26045.0 -03434.4 -07.5118 26270.5
 26 04 2013  11 20  -21.0676 26046.2 -03434.7 -07.5123 26271.6
 26 04 2013  11 21  -21.0672 26047.0 -03434.9 -07.5124 26272.5
 26 04 2013  11 22  -21.0681 26048.2 -03435.0 -07.5124 26273.7
 26 04 2013  11 23  -21.0695 26050.3 -03435.3 -07.5123 26275.9
 26 04 2013  11 24  -21.0703 26052.1 -03435.2 -07.5115 26277.6
 26 04 2013  11 25  -21.0707 26052.0 -03434.3 -07.5097 26277.4
 26 04 2013  11 26  -21.0715 26050.6 -03433.2 -07.5076 26275.9
 26 04 2013  11 27  -21.0723 26050.1 -03432.6 -07.5065 26275.3
 26 04 2013  11 28  -21.0733 26050.2 -03432.3 -07.5059 26275.3
 26 04 2013  11 29  -21.0750 26049.8 -03431.9 -07.5051 26274.9
 26 04 2013  11 30  -21.0763 26049.0 -03431.3 -07.5041 26274.0
 26 04 2013  11 31  -21.0771 26048.3 -03430.7 -07.5029 26273.2
 26 04 2013  11 32  -21.0779 26048.8 -03430.5 -07.5024 26273.7
 26 04 2013  11 33  -21.0792 26049.5 -03430.4 -07.5019 26274.4
 26 04 2013  11 34  -21.0808 26048.9 -03429.8 -07.5009 26273.7
 26 04 2013  11 35  -21.0812 26048.2 -03429.2 -07.4998 26273.0
 26 04 2013  11 36  -21.0819 26047.8 -03428.8 -07.4990 26272.5
 26 04 2013  11 37  -21.0830 26047.5 -03428.5 -07.4984 26272.2
 26 04 2013  11 38  -21.0844 26047.8 -03428.4 -07.4980 26272.4
 26 04 2013  11 39  -21.0851 26048.0 -03428.2 -07.4976 26272.7
 26 04 2013  11 40  -21.0860 26047.6 -03427.7 -07.4966 26272.2
 26 04 2013  11 41  -21.0863 26047.9 -03427.4 -07.4960 26272.4
 26 04 2013  11 42  -21.0869 26047.2 -03426.9 -07.4950 26271.7
 26 04 2013  11 43  -21.0861 26048.2 -03426.9 -07.4948 26272.6
 26 04 2013  11 44  -21.0859 26047.2 -03426.3 -07.4937 26271.6
 26 04 2013  11 45  -21.0862 26046.9 -03425.9 -07.4930 26271.3
 26 04 2013  11 46  -21.0873 26047.4 -03426.0 -07.4930 26271.7
 26 04 2013  11 47  -21.0883 26047.6 -03425.8 -07.4925 26271.9
 26 04 2013  11 48  -21.0891 26047.2 -03425.4 -07.4918 26271.5
 26 04 2013  11 49  -21.0901 26047.5 -03425.2 -07.4913 26271.7
 26 04 2013  11 50  -21.0903 26048.2 -03425.2 -07.4912 26272.4
 26 04 2013  11 51  -21.0889 26049.3 -03425.3 -07.4909 26273.5
 26 04 2013  11 52  -21.0882 26050.4 -03425.3 -07.4908 26274.6
 26 04 2013  11 53  -21.0875 26051.0 -03425.2 -07.4904 26275.2
 26 04 2013  11 54  -21.0869 26051.6 -03425.1 -07.4900 26275.8
 26 04 2013  11 55  -21.0855 26052.0 -03424.9 -07.4894 26276.1
 26 04 2013  11 56  -21.0849 26052.6 -03424.8 -07.4890 26276.7
 26 04 2013  11 57  -21.0836 26053.8 -03424.9 -07.4888 26277.9
 26 04 2013  11 58  -21.0853 26054.0 -03424.4 -07.4876 26278.0
 26 04 2013  11 59  -21.0847 26054.0 -03423.9 -07.4866 26278.0
 26 04 2013  12 00  -21.0822 26054.6 -03423.7 -07.4860 26278.5
 26 04 2013  12 01  -21.0801 26055.2 -03423.7 -07.4858 26279.2
 26 04 2013  12 02  -21.0786 26055.7 -03423.6 -07.4854 26279.7
 26 04 2013  12 03  -21.0776 26055.9 -03423.4 -07.4851 26279.9
 26 04 2013  12 04  -21.0776 26055.9 -03423.3 -07.4847 26279.9
 26 04 2013  12 05  -21.0765 26056.4 -03423.2 -07.4844 26280.2
 26 04 2013  12 06  -21.0759 26056.8 -03423.1 -07.4841 26280.7
 26 04 2013  12 07  -21.0753 26057.2 -03423.0 -07.4838 26281.1
 26 04 2013  12 08  -21.0752 26057.2 -03422.7 -07.4832 26281.0
 26 04 2013  12 09  -21.0750 26056.9 -03422.3 -07.4825 26280.6
 26 04 2013  12 10  -21.0736 26056.7 -03422.1 -07.4820 26280.5
 26 04 2013  12 11  -21.0716 26057.2 -03422.3 -07.4822 26281.0
 26 04 2013  12 12  -21.0693 26059.3 -03422.9 -07.4829 26283.2
 26 04 2013  12 13  -21.0699 26062.5 -03423.8 -07.4840 26286.4
 26 04 2013  12 14  -21.0714 26064.8 -03424.1 -07.4839 26288.7
 26 04 2013  12 15  -21.0713 26064.6 -03423.1 -07.4819 26288.5
 26 04 2013  12 16  -21.0701 26063.5 -03422.0 -07.4798 26287.2
 26 04 2013  12 17  -21.0693 26063.6 -03421.7 -07.4791 26287.2
 26 04 2013  12 18  -21.0691 26063.8 -03421.6 -07.4789 26287.5
 26 04 2013  12 19  -21.0688 26064.1 -03421.5 -07.4786 26287.7
 26 04 2013  12 20  -21.0671 26065.2 -03421.7 -07.4787 26288.8
 26 04 2013  12 21  -21.0669 26066.0 -03421.8 -07.4786 26289.7
 26 04 2013  12 22  -21.0693 26068.7 -03422.6 -07.4796 26292.4
 26 04 2013  12 23  -21.0713 26070.1 -03422.5 -07.4791 26293.8
 26 04 2013  12 24  -21.0708 26070.0 -03421.6 -07.4772 26293.6
 26 04 2013  12 25  -21.0693 26069.7 -03420.9 -07.4758 26293.2
 26 04 2013  12 26  -21.0669 26070.1 -03420.7 -07.4752 26293.6
 26 04 2013  12 27  -21.0657 26070.1 -03420.6 -07.4749 26293.5
 26 04 2013  12 28  -21.0653 26068.7 -03420.1 -07.4742 26292.1
 26 04 2013  12 29  -21.0659 26068.1 -03420.0 -07.4741 26291.5
 26 04 2013  12 30  -21.0657 26068.0 -03420.0 -07.4743 26291.4
 26 04 2013  12 31  -21.0611 26068.0 -03420.3 -07.4749 26291.5
 26 04 2013  12 32  -21.0591 26067.3 -03420.4 -07.4752 26290.8
 26 04 2013  12 33  -21.0579 26067.5 -03420.7 -07.4759 26291.0
 26 04 2013  12 34  -21.0583 26069.4 -03421.7 -07.4775 26292.9
 26 04 2013  12 35  -21.0597 26071.7 -03422.5 -07.4787 26295.3
 26 04 2013  12 36  -21.0597 26071.1 -03421.8 -07.4773 26294.7
 26 04 2013  12 37  -21.0586 26069.4 -03420.9 -07.4757 26292.9
 26 04 2013  12 38  -21.0568 26068.1 -03420.4 -07.4750 26291.6
 26 04 2013  12 39  -21.0562 26068.0 -03420.6 -07.4754 26291.4
 26 04 2013  12 40  -21.0563 26068.4 -03421.0 -07.4763 26291.9
 26 04 2013  12 41  -21.0564 26068.8 -03421.4 -07.4770 26292.4
 26 04 2013  12 42  -21.0553 26069.6 -03421.8 -07.4777 26293.2
 26 04 2013  12 43  -21.0544 26070.1 -03422.1 -07.4782 26293.8
 26 04 2013  12 44  -21.0538 26069.6 -03422.1 -07.4782 26293.2
 26 04 2013  12 45  -21.0534 26069.3 -03422.1 -07.4785 26292.9
 26 04 2013  12 46  -21.0527 26069.7 -03422.4 -07.4790 26293.4
 26 04 2013  12 47  -21.0522 26070.8 -03423.1 -07.4800 26294.6
 26 04 2013  12 48  -21.0526 26072.0 -03423.7 -07.4810 26295.9
 26 04 2013  12 49  -21.0533 26072.8 -03423.9 -07.4813 26296.7
 26 04 2013  12 50  -21.0532 26073.4 -03424.0 -07.4813 26297.3
 26 04 2013  12 51  -21.0527 26073.4 -03423.8 -07.4809 26297.2
 26 04 2013  12 52  -21.0526 26073.2 -03423.6 -07.4805 26297.0
 26 04 2013  12 53  -21.0523 26072.8 -03423.4 -07.4802 26296.6
 26 04 2013  12 54  -21.0519 26072.7 -03423.4 -07.4803 26296.5
 26 04 2013  12 55  -21.0518 26072.6 -03423.5 -07.4805 26296.4
 26 04 2013  12 56  -21.0515 26072.8 -03423.7 -07.4809 26296.6
 26 04 2013  12 57  -21.0510 26072.9 -03423.8 -07.4811 26296.7
 26 04 2013  12 58  -21.0505 26073.0 -03423.9 -07.4812 26296.9
 26 04 2013  12 59  -21.0507 26073.9 -03424.3 -07.4819 26297.8
 26 04 2013  13 00  -21.0511 26074.5 -03424.6 -07.4823 26298.4
 26 04 2013  13 01  -21.0510 26074.2 -03424.5 -07.4822 26298.1
 26 04 2013  13 02  -21.0505 26073.5 -03424.3 -07.4820 26297.4
 26 04 2013  13 03  -21.0503 26074.0 -03424.7 -07.4828 26298.0
 26 04 2013  13 04  -21.0506 26074.6 -03425.2 -07.4835 26298.6
 26 04 2013  13 05  -21.0508 26075.0 -03425.5 -07.4840 26299.1
 26 04 2013  13 06  -21.0509 26074.9 -03425.4 -07.4840 26298.9
 26 04 2013  13 07  -21.0508 26074.4 -03425.3 -07.4839 26298.5
 26 04 2013  13 08  -21.0506 26074.1 -03425.3 -07.4839 26298.1
 26 04 2013  13 09  -21.0506 26074.1 -03425.5 -07.4843 26298.1
 26 04 2013  13 10  -21.0510 26074.3 -03425.7 -07.4848 26298.3
 26 04 2013  13 11  -21.0515 26074.4 -03425.9 -07.4852 26298.5
 26 04 2013  13 12  -21.0513 26074.4 -03426.0 -07.4854 26298.5
 26 04 2013  13 13  -21.0513 26074.3 -03426.1 -07.4856 26298.5
 26 04 2013  13 14  -21.0514 26074.6 -03426.3 -07.4859 26298.8
 26 04 2013  13 15  -21.0522 26074.4 -03426.3 -07.4861 26298.6
 26 04 2013  13 16  -21.0527 26075.3 -03426.8 -07.4868 26299.5
 26 04 2013  13 17  -21.0552 26075.7 -03426.9 -07.4870 26299.9
 26 04 2013  13 18  -21.0588 26075.4 -03426.7 -07.4866 26299.6
 26 04 2013  13 19  -21.0594 26076.1 -03427.0 -07.4870 26300.3
 26 04 2013  13 20  -21.0597 26076.4 -03427.1 -07.4872 26300.7
 26 04 2013  13 21  -21.0601 26076.8 -03427.2 -07.4874 26301.1
 26 04 2013  13 22  -21.0606 26076.9 -03427.3 -07.4874 26301.2
 26 04 2013  13 23  -21.0601 26077.0 -03427.3 -07.4874 26301.3
 26 04 2013  13 24  -21.0577 26077.9 -03427.8 -07.4882 26302.3
 26 04 2013  13 25  -21.0585 26078.2 -03427.8 -07.4881 26302.5
 26 04 2013  13 26  -21.0593 26078.2 -03427.7 -07.4879 26302.5
 26 04 2013  13 27  -21.0603 26078.2 -03427.6 -07.4877 26302.5
 26 04 2013  13 28  -21.0610 26078.8 -03427.6 -07.4877 26303.0
 26 04 2013  13 29  -21.0616 26079.7 -03427.9 -07.4880 26304.0
 26 04 2013  13 30  -21.0622 26080.3 -03428.1 -07.4882 26304.6
 26 04 2013  13 31  -21.0629 26080.1 -03427.9 -07.4879 26304.4
 26 04 2013  13 32  -21.0639 26080.0 -03427.9 -07.4878 26304.3
 26 04 2013  13 33  -21.0646 26080.5 -03428.0 -07.4880 26304.8
 26 04 2013  13 34  -21.0660 26081.7 -03428.3 -07.4884 26306.0
 26 04 2013  13 35  -21.0674 26082.8 -03428.5 -07.4884 26307.2
 26 04 2013  13 36  -21.0678 26083.5 -03428.4 -07.4880 26307.8
 26 04 2013  13 37  -21.0678 26083.8 -03428.2 -07.4875 26308.2
 26 04 2013  13 38  -21.0683 26084.5 -03428.2 -07.4873 26308.8
 26 04 2013  13 39  -21.0691 26084.8 -03428.1 -07.4870 26309.1
 26 04 2013  13 40  -21.0696 26085.9 -03428.3 -07.4870 26310.2
 26 04 2013  13 41  -21.0703 26086.1 -03428.1 -07.4866 26310.4
 26 04 2013  13 42  -21.0712 26085.9 -03427.8 -07.4859 26310.2
 26 04 2013  13 43  -21.0718 26085.8 -03427.4 -07.4852 26310.0
 26 04 2013  13 44  -21.0724 26084.9 -03426.9 -07.4843 26309.0
 26 04 2013  13 45  -21.0725 26084.9 -03426.8 -07.4841 26309.0
 26 04 2013  13 46  -21.0734 26084.7 -03426.7 -07.4839 26308.8
 26 04 2013  13 47  -21.0741 26084.4 -03426.4 -07.4834 26308.5
 26 04 2013  13 48  -21.0749 26083.9 -03426.0 -07.4828 26307.9
 26 04 2013  13 49  -21.0751 26082.6 -03425.3 -07.4817 26306.5
 26 04 2013  13 50  -21.0748 26081.8 -03425.0 -07.4812 26305.7
 26 04 2013  13 51  -21.0772 26083.1 -03425.9 -07.4826 26307.1
 26 04 2013  13 52  -21.0789 26084.3 -03426.1 -07.4828 26308.3
 26 04 2013  13 53  -21.0798 26086.2 -03426.4 -07.4830 26310.2
 26 04 2013  13 54  -21.0809 26087.6 -03426.4 -07.4826 26311.7
 26 04 2013  13 55  -21.0817 26087.3 -03425.7 -07.4810 26311.3
 26 04 2013  13 56  -21.0824 26086.0 -03424.7 -07.4793 26309.8
 26 04 2013  13 57  -21.0827 26084.7 -03423.9 -07.4780 26308.5
 26 04 2013  13 58  -21.0839 26084.9 -03424.0 -07.4780 26308.6
 26 04 2013  13 59  -21.0842 26085.0 -03423.8 -07.4777 26308.7
 26 04 2013  14 00  -21.0838 26084.8 -03423.6 -07.4772 26308.5
 26 04 2013  14 01  -21.0843 26084.0 -03423.1 -07.4764 26307.7
 26 04 2013  14 02  -21.0847 26083.6 -03422.8 -07.4758 26307.2
 26 04 2013  14 03  -21.0852 26082.9 -03422.3 -07.4751 26306.4
 26 04 2013  14 04  -21.0857 26082.4 -03422.0 -07.4745 26305.9
 26 04 2013  14 05  -21.0865 26082.0 -03421.8 -07.4741 26305.5
 26 04 2013  14 06  -21.0871 26080.9 -03421.3 -07.4734 26304.3
 26 04 2013  14 07  -21.0876 26081.1 -03421.3 -07.4734 26304.6
 26 04 2013  14 08  -21.0886 26080.9 -03421.2 -07.4732 26304.3
 26 04 2013  14 09  -21.0895 26081.2 -03421.3 -07.4732 26304.6
 26 04 2013  14 10  -21.0900 26081.3 -03421.2 -07.4730 26304.7
 26 04 2013  14 11  -21.0906 26081.8 -03421.2 -07.4728 26305.2
 26 04 2013  14 12  -21.0908 26082.0 -03420.9 -07.4722 26305.3
 26 04 2013  14 13  -21.0907 26082.3 -03420.7 -07.4718 26305.6
 26 04 2013  14 14  -21.0907 26082.5 -03420.6 -07.4714 26305.9
 26 04 2013  14 15  -21.0902 26082.3 -03420.3 -07.4708 26305.6
 26 04 2013  14 16  -21.0900 26082.5 -03420.2 -07.4706 26305.8
 26 04 2013  14 17  -21.0905 26083.1 -03420.3 -07.4705 26306.4
 26 04 2013  14 18  -21.0913 26083.3 -03420.1 -07.4701 26306.6
 26 04 2013  14 19  -21.0921 26083.6 -03420.0 -07.4697 26306.9
 26 04 2013  14 20  -21.0929 26083.8 -03419.8 -07.4692 26307.0
 26 04 2013  14 21  -21.0930 26084.1 -03419.6 -07.4688 26307.3
 26 04 2013  14 22  -21.0927 26084.3 -03419.4 -07.4682 26307.4
 26 04 2013  14 23  -21.0915 26083.9 -03418.9 -07.4673 26307.0
 26 04 2013  14 24  -21.0900 26083.6 -03418.6 -07.4667 26306.7
 26 04 2013  14 25  -21.0878 26082.3 -03417.8 -07.4654 26305.3
 26 04 2013  14 26  -21.0863 26081.2 -03417.4 -07.4648 26304.2
 26 04 2013  14 27  -21.0861 26080.9 -03417.5 -07.4652 26303.8
 26 04 2013  14 28  -21.0865 26079.9 -03417.4 -07.4653 26302.8
 26 04 2013  14 29  -21.0868 26078.7 -03417.3 -07.4653 26301.7
 26 04 2013  14 30  -21.0875 26078.0 -03417.3 -07.4657 26301.0
 26 04 2013  14 31  -21.0874 26077.7 -03417.5 -07.4661 26300.7
 26 04 2013  14 32  -21.0866 26077.3 -03417.5 -07.4662 26300.2
 26 04 2013  14 33  -21.0855 26076.7 -03417.5 -07.4663 26299.7
 26 04 2013  14 34  -21.0853 26076.7 -03417.8 -07.4670 26299.8
 26 04 2013  14 35  -21.0857 26076.5 -03418.0 -07.4674 26299.6
 26 04 2013  14 36  -21.0857 26075.5 -03417.9 -07.4675 26298.6
 26 04 2013  14 37  -21.0859 26074.2 -03417.8 -07.4677 26297.2
 26 04 2013  14 38  -21.0866 26073.7 -03418.1 -07.4684 26296.8
 26 04 2013  14 39  -21.0871 26073.4 -03418.4 -07.4692 26296.5
 26 04 2013  14 40  -21.0878 26073.1 -03418.7 -07.4699 26296.3
 26 04 2013  14 41  -21.0888 26072.5 -03418.7 -07.4702 26295.7
 26 04 2013  14 42  -21.0898 26072.3 -03418.8 -07.4704 26295.5
 26 04 2013  14 43  -21.0907 26072.3 -03419.0 -07.4708 26295.5
 26 04 2013  14 44  -21.0910 26072.5 -03419.0 -07.4708 26295.7
 26 04 2013  14 45  -21.0904 26072.5 -03418.8 -07.4705 26295.7
 26 04 2013  14 46  -21.0899 26072.5 -03418.7 -07.4702 26295.7
 26 04 2013  14 47  -21.0895 26072.6 -03418.7 -07.4700 26295.8
 26 04 2013  14 48  -21.0887 26072.0 -03418.3 -07.4695 26295.2
 26 04 2013  14 49  -21.0871 26070.5 -03417.7 -07.4685 26293.6
 26 04 2013  14 50  -21.0867 26070.2 -03417.6 -07.4685 26293.2
 26 04 2013  14 51  -21.0861 26070.7 -03418.0 -07.4692 26293.8
 26 04 2013  14 52  -21.0843 26070.2 -03417.7 -07.4687 26293.3
 26 04 2013  14 53  -21.0834 26069.5 -03417.5 -07.4684 26292.5
 26 04 2013  14 54  -21.0844 26068.2 -03417.2 -07.4681 26291.2
 26 04 2013  14 55  -21.0858 26066.9 -03417.1 -07.4682 26290.0
 26 04 2013  14 56  -21.0864 26067.3 -03417.5 -07.4690 26290.3
 26 04 2013  14 57  -21.0862 26068.4 -03418.1 -07.4701 26291.5
 26 04 2013  14 58  -21.0860 26068.1 -03418.1 -07.4701 26291.3
 26 04 2013  14 59  -21.0840 26066.5 -03417.4 -07.4691 26289.6
 26 04 2013  15 00  -21.0811 26063.6 -03416.4 -07.4678 26286.6
 26 04 2013  15 01  -21.0804 26062.1 -03416.4 -07.4682 26285.1
 26 04 2013  15 02  -21.0812 26062.1 -03417.1 -07.4697 26285.2
 26 04 2013  15 03  -21.0825 26062.8 -03417.8 -07.4710 26285.9
 26 04 2013  15 04  -21.0833 26063.6 -03418.3 -07.4718 26286.8
 26 04 2013  15 05  -21.0831 26062.8 -03418.1 -07.4715 26285.9
 26 04 2013  15 06  -21.0819 26061.7 -03417.8 -07.4712 26284.8
 26 04 2013  15 07  -21.0796 26060.5 -03417.6 -07.4712 26283.7
 26 04 2013  15 08  -21.0798 26060.1 -03418.2 -07.4725 26283.3
 26 04 2013  15 09  -21.0810 26060.4 -03419.0 -07.4742 26283.7
 26 04 2013  15 10  -21.0823 26061.4 -03419.9 -07.4760 26284.8
 26 04 2013  15 11  -21.0853 26063.6 -03421.2 -07.4782 26287.2
 26 04 2013  15 12  -21.0872 26064.3 -03421.4 -07.4783 26287.9
 26 04 2013  15 13  -21.0855 26063.1 -03420.2 -07.4761 26286.6
 26 04 2013  15 14  -21.0842 26060.7 -03419.0 -07.4742 26284.0
 26 04 2013  15 15  -21.0840 26059.1 -03418.7 -07.4738 26282.4
 26 04 2013  15 16  -21.0838 26058.9 -03418.9 -07.4745 26282.2
 26 04 2013  15 17  -21.0844 26058.5 -03419.2 -07.4752 26281.8
 26 04 2013  15 18  -21.0851 26057.6 -03419.2 -07.4755 26280.9
 26 04 2013  15 19  -21.0853 26056.4 -03419.1 -07.4757 26279.8
 26 04 2013  15 20  -21.0857 26055.5 -03419.3 -07.4762 26278.9
 26 04 2013  15 21  -21.0860 26054.9 -03419.4 -07.4767 26278.4
 26 04 2013  15 22  -21.0867 26055.3 -03420.0 -07.4778 26278.7
 26 04 2013  15 23  -21.0875 26055.7 -03420.5 -07.4788 26279.2
 26 04 2013  15 24  -21.0886 26055.8 -03420.8 -07.4794 26279.4
 26 04 2013  15 25  -21.0895 26055.8 -03420.9 -07.4797 26279.4
 26 04 2013  15 26  -21.0898 26055.6 -03420.9 -07.4797 26279.2
 26 04 2013  15 27  -21.0897 26055.0 -03420.7 -07.4795 26278.6
 26 04 2013  15 28  -21.0896 26055.0 -03420.8 -07.4797 26278.6
 26 04 2013  15 29  -21.0899 26054.7 -03420.8 -07.4798 26278.3
 26 04 2013  15 30  -21.0897 26054.2 -03420.9 -07.4800 26277.8
 26 04 2013  15 31  -21.0902 26054.0 -03421.2 -07.4807 26277.6
 26 04 2013  15 32  -21.0907 26053.9 -03421.4 -07.4813 26277.6
 26 04 2013  15 33  -21.0913 26054.0 -03421.7 -07.4818 26277.7
 26 04 2013  15 34  -21.0914 26054.8 -03422.1 -07.4824 26278.5
 26 04 2013  15 35  -21.0921 26055.7 -03422.4 -07.4829 26279.5
 26 04 2013  15 36  -21.0919 26055.8 -03422.3 -07.4827 26279.6
 26 04 2013  15 37  -21.0910 26055.9 -03422.2 -07.4825 26279.7
 26 04 2013  15 38  -21.0911 26055.9 -03422.2 -07.4825 26279.7
 26 04 2013  15 39  -21.0906 26054.9 -03421.8 -07.4818 26278.6
 26 04 2013  15 40  -21.0897 26054.3 -03421.7 -07.4818 26278.0
 26 04 2013  15 41  -21.0900 26054.6 -03422.0 -07.4825 26278.4
 26 04 2013  15 42  -21.0905 26055.5 -03422.5 -07.4833 26279.3
 26 04 2013  15 43  -21.0906 26055.9 -03422.7 -07.4835 26279.7
 26 04 2013  15 44  -21.0903 26055.7 -03422.7 -07.4835 26279.6
 26 04 2013  15 45  -21.0898 26055.1 -03422.6 -07.4834 26278.9
 26 04 2013  15 46  -21.0886 26054.0 -03422.4 -07.4833 26277.8
 26 04 2013  15 47  -21.0872 26052.9 -03422.3 -07.4835 26276.7
 26 04 2013  15 48  -21.0870 26052.7 -03422.8 -07.4846 26276.6
 26 04 2013  15 49  -21.0878 26053.3 -03423.5 -07.4860 26277.3
 26 04 2013  15 50  -21.0885 26053.8 -03424.0 -07.4869 26277.8
 26 04 2013  15 51  -21.0887 26054.5 -03424.4 -07.4876 26278.6
 26 04 2013  15 52  -21.0888 26055.7 -03424.8 -07.4881 26279.8
 26 04 2013  15 53  -21.0890 26055.5 -03424.6 -07.4878 26279.6
 26 04 2013  15 54  -21.0876 26055.1 -03424.3 -07.4872 26279.1
 26 04 2013  15 55  -21.0874 26054.6 -03424.3 -07.4874 26278.6
 26 04 2013  15 56  -21.0878 26054.3 -03424.6 -07.4880 26278.4
 26 04 2013  15 57  -21.0878 26053.6 -03424.6 -07.4883 26277.7
 26 04 2013  15 58  -21.0869 26053.1 -03424.8 -07.4887 26277.3
 26 04 2013  15 59  -21.0869 26053.1 -03425.2 -07.4897 26277.3
 26 04 2013  16 00  -21.0868 26052.3 -03425.3 -07.4900 26276.5
 26 04 2013  16 01  -21.0863 26051.5 -03425.3 -07.4903 26275.7
 26 04 2013  16 02  -21.0864 26051.0 -03425.5 -07.4910 26275.3
 26 04 2013  16 03  -21.0868 26050.9 -03425.8 -07.4917 26275.1
 26 04 2013  16 04  -21.0869 26050.3 -03425.9 -07.4920 26274.6
 26 04 2013  16 05  -21.0861 26049.5 -03425.8 -07.4921 26273.8
 26 04 2013  16 06  -21.0857 26049.1 -03426.0 -07.4926 26273.4
 26 04 2013  16 07  -21.0860 26049.2 -03426.4 -07.4935 26273.6
 26 04 2013  16 08  -21.0857 26049.0 -03426.6 -07.4940 26273.4
 26 04 2013  16 09  -21.0847 26048.5 -03426.7 -07.4943 26272.9
 26 04 2013  16 10  -21.0840 26047.9 -03426.8 -07.4947 26272.3
 26 04 2013  16 11  -21.0845 26048.1 -03427.3 -07.4958 26272.6
 26 04 2013  16 12  -21.0852 26048.2 -03427.6 -07.4963 26272.8
 26 04 2013  16 13  -21.0861 26049.1 -03428.1 -07.4971 26273.7
 26 04 2013  16 14  -21.0863 26049.2 -03428.0 -07.4969 26273.8
 26 04 2013  16 15  -21.0853 26048.7 -03427.7 -07.4963 26273.2
 26 04 2013  16 16  -21.0847 26048.4 -03427.6 -07.4962 26272.9
 26 04 2013  16 17  -21.0847 26048.8 -03427.8 -07.4966 26273.3
 26 04 2013  16 18  -21.0842 26048.8 -03427.9 -07.4967 26273.4
 26 04 2013  16 19  -21.0833 26047.8 -03427.5 -07.4961 26272.3
 26 04 2013  16 20  -21.0826 26046.5 -03427.2 -07.4959 26271.0
 26 04 2013  16 21  -21.0814 26046.3 -03427.4 -07.4965 26270.8
 26 04 2013  16 22  -21.0818 26046.2 -03427.8 -07.4973 26270.7
 26 04 2013  16 23  -21.0831 26046.3 -03428.2 -07.4981 26271.0
 26 04 2013  16 24  -21.0834 26045.5 -03428.1 -07.4981 26270.1
 26 04 2013  16 25  -21.0822 26044.4 -03427.9 -07.4979 26269.0
 26 04 2013  16 26  -21.0814 26043.2 -03427.8 -07.4982 26267.9
 26 04 2013  16 27  -21.0806 26042.8 -03428.1 -07.4990 26267.5
 26 04 2013  16 28  -21.0808 26042.5 -03428.5 -07.5000 26267.2
 26 04 2013  16 29  -21.0806 26042.4 -03429.0 -07.5009 26267.2
 26 04 2013  16 30  -21.0803 26042.3 -03429.3 -07.5016 26267.1
 26 04 2013  16 31  -21.0802 26041.9 -03429.5 -07.5022 26266.7
 26 04 2013  16 32  -21.0807 26041.6 -03429.8 -07.5028 26266.5
 26 04 2013  16 33  -21.0812 26041.7 -03430.1 -07.5036 26266.7
 26 04 2013  16 34  -21.0816 26042.2 -03430.5 -07.5043 26267.2
 26 04 2013  16 35  -21.0819 26042.6 -03430.8 -07.5048 26267.6
 26 04 2013  16 36  -21.0823 26042.7 -03430.9 -07.5049 26267.8
 26 04 2013  16 37  -21.0822 26042.8 -03430.9 -07.5050 26267.8
 26 04 2013  16 38  -21.0819 26042.8 -03430.9 -07.5050 26267.8
 26 04 2013  16 39  -21.0822 26043.0 -03431.0 -07.5051 26268.0
 26 04 2013  16 40  -21.0825 26043.0 -03431.0 -07.5052 26268.0
 26 04 2013  16 41  -21.0828 26042.9 -03431.1 -07.5053 26267.9
 26 04 2013  16 42  -21.0831 26042.6 -03431.0 -07.5051 26267.6
 26 04 2013  16 43  -21.0832 26042.5 -03431.0 -07.5052 26267.6
 26 04 2013  16 44  -21.0835 26042.9 -03431.1 -07.5054 26267.9
 26 04 2013  16 45  -21.0838 26043.5 -03431.4 -07.5058 26268.6
 26 04 2013  16 46  -21.0833 26043.7 -03431.3 -07.5055 26268.8
 26 04 2013  16 47  -21.0828 26043.7 -03431.1 -07.5051 26268.8
 26 04 2013  16 48  -21.0815 26043.1 -03430.7 -07.5044 26268.1
 26 04 2013  16 49  -21.0805 26042.4 -03430.4 -07.5040 26267.4
 26 04 2013  16 50  -21.0798 26042.2 -03430.4 -07.5041 26267.2
 26 04 2013  16 51  -21.0797 26042.3 -03430.7 -07.5046 26267.3
 26 04 2013  16 52  -21.0792 26042.6 -03431.0 -07.5051 26267.7
 26 04 2013  16 53  -21.0791 26042.6 -03431.0 -07.5052 26267.6
 26 04 2013  16 54  -21.0786 26042.6 -03431.0 -07.5052 26267.6
 26 04 2013  16 55  -21.0779 26042.0 -03430.8 -07.5050 26267.0
 26 04 2013  16 56  -21.0776 26041.6 -03430.8 -07.5051 26266.6
 26 04 2013  16 57  -21.0778 26041.5 -03430.9 -07.5054 26266.5
 26 04 2013  16 58  -21.0778 26041.6 -03431.1 -07.5058 26266.6
 26 04 2013  16 59  -21.0776 26041.1 -03431.0 -07.5057 26266.2
 26 04 2013  17 00  -21.0775 26040.9 -03431.0 -07.5058 26265.9
 26 04 2013  17 01  -21.0776 26041.1 -03431.2 -07.5061 26266.2
 26 04 2013  17 02  -21.0776 26041.0 -03431.2 -07.5061 26266.1
 26 04 2013  17 03  -21.0778 26040.7 -03431.2 -07.5061 26265.8
 26 04 2013  17 04  -21.0781 26040.6 -03431.2 -07.5063 26265.7
 26 04 2013  17 05  -21.0782 26040.6 -03431.4 -07.5066 26265.7
 26 04 2013  17 06  -21.0781 26040.5 -03431.4 -07.5066 26265.6
 26 04 2013  17 07  -21.0786 26040.5 -03431.4 -07.5067 26265.7
 26 04 2013  17 08  -21.0793 26041.3 -03431.6 -07.5069 26266.4
 26 04 2013  17 09  -21.0794 26042.1 -03431.8 -07.5071 26267.2
 26 04 2013  17 10  -21.0800 26042.3 -03431.7 -07.5068 26267.4
 26 04 2013  17 11  -21.0800 26042.7 -03431.6 -07.5065 26267.8
 26 04 2013  17 12  -21.0804 26043.2 -03431.6 -07.5063 26268.4
 26 04 2013  17 13  -21.0805 26043.6 -03431.5 -07.5060 26268.7
 26 04 2013  17 14  -21.0796 26044.2 -03431.4 -07.5056 26269.3
 26 04 2013  17 15  -21.0794 26044.1 -03430.8 -07.5045 26269.1
 26 04 2013  17 16  -21.0784 26043.6 -03430.5 -07.5038 26268.5
 26 04 2013  17 17  -21.0781 26042.7 -03430.0 -07.5030 26267.6
 26 04 2013  17 18  -21.0784 26041.9 -03429.7 -07.5025 26266.8
 26 04 2013  17 19  -21.0784 26041.3 -03429.4 -07.5021 26266.1
 26 04 2013  17 20  -21.0767 26039.9 -03428.8 -07.5012 26264.7
 26 04 2013  17 21  -21.0747 26038.7 -03428.3 -07.5006 26263.4
 26 04 2013  17 22  -21.0731 26037.3 -03428.0 -07.5003 26262.0
 26 04 2013  17 23  -21.0718 26036.3 -03428.0 -07.5005 26261.0
 26 04 2013  17 24  -21.0712 26034.9 -03427.7 -07.5004 26259.6
 26 04 2013  17 25  -21.0713 26034.8 -03428.2 -07.5014 26259.6
 26 04 2013  17 26  -21.0712 26034.2 -03428.2 -07.5015 26258.9
 26 04 2013  17 27  -21.0701 26033.6 -03428.2 -07.5017 26258.4
 26 04 2013  17 28  -21.0704 26033.8 -03428.6 -07.5025 26258.6
 26 04 2013  17 29  -21.0709 26033.4 -03428.7 -07.5028 26258.3
 26 04 2013  17 30  -21.0693 26031.7 -03428.1 -07.5020 26256.5
 26 04 2013  17 31  -21.0688 26030.7 -03428.0 -07.5020 26255.5
 26 04 2013  17 32  -21.0690 26030.9 -03428.5 -07.5031 26255.7
 26 04 2013  17 33  -21.0699 26031.7 -03429.1 -07.5043 26256.6
 26 04 2013  17 34  -21.0705 26031.7 -03429.4 -07.5048 26256.7
 26 04 2013  17 35  -21.0699 26030.3 -03428.8 -07.5040 26255.2
 26 04 2013  17 36  -21.0681 26028.6 -03428.3 -07.5033 26253.4
 26 04 2013  17 37  -21.0670 26027.7 -03428.4 -07.5038 26252.5
 26 04 2013  17 38  -21.0664 26027.4 -03428.8 -07.5048 26252.3
 26 04 2013  17 39  -21.0668 26027.6 -03429.4 -07.5061 26252.5
 26 04 2013  17 40  -21.0670 26027.0 -03429.5 -07.5064 26252.0
 26 04 2013  17 41  -21.0645 26025.5 -03429.0 -07.5057 26250.4
 26 04 2013  17 42  -21.0670 26026.8 -03429.8 -07.5072 26251.8
 26 04 2013  17 43  -21.0696 26028.2 -03430.5 -07.5083 26253.3
 26 04 2013  17 44  -21.0683 26027.5 -03429.8 -07.5070 26252.5
 26 04 2013  17 45  -21.0673 26026.9 -03429.4 -07.5063 26251.9
 26 04 2013  17 46  -21.0679 26027.5 -03429.7 -07.5067 26252.5
 26 04 2013  17 47  -21.0681 26027.8 -03429.7 -07.5067 26252.8
 26 04 2013  17 48  -21.0666 26026.7 -03429.1 -07.5056 26251.6
 26 04 2013  17 49  -21.0654 26025.7 -03428.8 -07.5053 26250.6
 26 04 2013  17 50  -21.0636 26024.9 -03428.7 -07.5053 26249.8
 26 04 2013  17 51  -21.0638 26025.6 -03429.4 -07.5066 26250.5
 26 04 2013  17 52  -21.0653 26027.1 -03430.4 -07.5084 26252.2
 26 04 2013  17 53  -21.0655 26027.7 -03430.7 -07.5088 26252.8
 26 04 2013  17 54  -21.0643 26027.0 -03430.3 -07.5082 26252.1
 26 04 2013  17 55  -21.0634 26026.3 -03430.1 -07.5080 26251.4
 26 04 2013  17 56  -21.0635 26026.2 -03430.2 -07.5082 26251.3
 26 04 2013  17 57  -21.0624 26025.2 -03429.8 -07.5075 26250.2
 26 04 2013  17 58  -21.0617 26024.6 -03429.7 -07.5074 26249.6
 26 04 2013  17 59  -21.0631 26025.5 -03430.2 -07.5084 26250.5
 26 04 2013  18 00  -21.0635 26025.8 -03430.3 -07.5086 26250.9
 26 04 2013  18 01  -21.0628 26024.9 -03429.8 -07.5077 26249.9
 26 04 2013  18 02  -21.0626 26024.4 -03429.6 -07.5074 26249.4
 26 04 2013  18 03  -21.0631 26024.6 -03429.7 -07.5076 26249.6
 26 04 2013  18 04  -21.0641 26025.0 -03429.9 -07.5079 26250.1
 26 04 2013  18 05  -21.0634 26024.8 -03429.7 -07.5075 26249.8
 26 04 2013  18 06  -21.0625 26024.1 -03429.5 -07.5072 26249.1
 26 04 2013  18 07  -21.0622 26024.3 -03429.7 -07.5076 26249.3
 26 04 2013  18 08  -21.0625 26024.4 -03429.8 -07.5078 26249.4
 26 04 2013  18 09  -21.0617 26024.2 -03429.7 -07.5077 26249.2
 26 04 2013  18 10  -21.0623 26024.5 -03429.9 -07.5079 26249.6
 26 04 2013  18 11  -21.0625 26024.7 -03430.0 -07.5081 26249.7
 26 04 2013  18 12  -21.0620 26023.9 -03429.6 -07.5075 26249.0
 26 04 2013  18 13  -21.0607 26022.3 -03428.9 -07.5065 26247.2
 26 04 2013  18 14  -21.0599 26021.5 -03428.7 -07.5064 26246.4
 26 04 2013  18 15  -21.0596 26022.2 -03429.3 -07.5074 26247.2
 26 04 2013  18 16  -21.0593 26023.2 -03430.0 -07.5085 26248.3
 26 04 2013  18 17  -21.0591 26024.7 -03430.6 -07.5094 26249.8
 26 04 2013  18 18  -21.0597 26026.3 -03431.2 -07.5103 26251.5
 26 04 2013  18 19  -21.0615 26028.1 -03431.6 -07.5107 26253.3
 26 04 2013  18 20  -21.0634 26029.5 -03431.7 -07.5105 26254.7
 26 04 2013  18 21  -21.0626 26029.5 -03430.9 -07.5087 26254.6
 26 04 2013  18 22  -21.0592 26028.2 -03429.5 -07.5061 26253.2
 26 04 2013  18 23  -21.0565 26027.0 -03428.7 -07.5047 26251.9
 26 04 2013  18 24  -21.0554 26026.3 -03428.4 -07.5043 26251.2
 26 04 2013  18 25  -21.0548 26025.7 -03428.3 -07.5043 26250.6
 26 04 2013  18 26  -21.0546 26025.5 -03428.4 -07.5044 26250.3
 26 04 2013  18 27  -21.0543 26025.2 -03428.4 -07.5045 26250.1
 26 04 2013  18 28  -21.0540 26025.1 -03428.5 -07.5047 26250.0
 26 04 2013  18 29  -21.0543 26025.0 -03428.6 -07.5050 26249.8
 26 04 2013  18 30  -21.0547 26024.9 -03428.7 -07.5052 26249.8
 26 04 2013  18 31  -21.0556 26025.2 -03428.8 -07.5056 26250.1
 26 04 2013  18 32  -21.0563 26025.2 -03428.9 -07.5056 26250.1
 26 04 2013  18 33  -21.0565 26024.8 -03428.7 -07.5052 26249.7
 26 04 2013  18 34  -21.0566 26024.8 -03428.6 -07.5051 26249.7
 26 04 2013  18 35  -21.0573 26024.9 -03428.6 -07.5051 26249.8
 26 04 2013  18 36  -21.0577 26024.9 -03428.5 -07.5050 26249.8
 26 04 2013  18 37  -21.0583 26024.6 -03428.3 -07.5045 26249.4
 26 04 2013  18 38  -21.0587 26024.4 -03428.1 -07.5042 26249.2
 26 04 2013  18 39  -21.0589 26024.1 -03427.9 -07.5038 26248.9
 26 04 2013  18 40  -21.0600 26024.4 -03428.0 -07.5039 26249.2
 26 04 2013  18 41  -21.0605 26024.7 -03428.0 -07.5038 26249.5
 26 04 2013  18 42  -21.0610 26024.7 -03427.9 -07.5036 26249.5
 26 04 2013  18 43  -21.0615 26024.6 -03427.7 -07.5033 26249.3
 26 04 2013  18 44  -21.0624 26024.8 -03427.8 -07.5033 26249.5
 26 04 2013  18 45  -21.0630 26024.9 -03427.7 -07.5031 26249.7
 26 04 2013  18 46  -21.0633 26024.7 -03427.5 -07.5027 26249.4
 26 04 2013  18 47  -21.0634 26024.1 -03427.0 -07.5019 26248.7
 26 04 2013  18 48  -21.0630 26023.3 -03426.6 -07.5013 26247.9
 26 04 2013  18 49  -21.0628 26022.7 -03426.3 -07.5007 26247.3
 26 04 2013  18 50  -21.0627 26021.9 -03426.0 -07.5004 26246.4
 26 04 2013  18 51  -21.0629 26021.6 -03426.0 -07.5003 26246.2
 26 04 2013  18 52  -21.0633 26021.6 -03426.1 -07.5006 26246.2
 26 04 2013  18 53  -21.0628 26020.8 -03425.7 -07.5000 26245.3
 26 04 2013  18 54  -21.0623 26019.9 -03425.4 -07.4996 26244.4
 26 04 2013  18 55  -21.0624 26019.5 -03425.4 -07.4997 26244.0
 26 04 2013  18 56  -21.0626 26019.1 -03425.4 -07.4998 26243.6
 26 04 2013  18 57  -21.0624 26018.3 -03425.2 -07.4995 26242.8
 26 04 2013  18 58  -21.0620 26017.8 -03425.1 -07.4995 26242.2
 26 04 2013  18 59  -21.0619 26017.5 -03425.2 -07.4997 26242.0
 26 04 2013  19 00  -21.0619 26017.6 -03425.3 -07.5001 26242.1
 26 04 2013  19 01  -21.0622 26017.6 -03425.4 -07.5003 26242.1
 26 04 2013  19 02  -21.0624 26017.3 -03425.4 -07.5003 26241.9
 26 04 2013  19 03  -21.0628 26017.1 -03425.4 -07.5003 26241.6
 26 04 2013  19 04  -21.0631 26016.8 -03425.4 -07.5004 26241.4
 26 04 2013  19 05  -21.0635 26016.5 -03425.3 -07.5003 26241.0
 26 04 2013  19 06  -21.0637 26015.9 -03425.1 -07.5002 26240.4
 26 04 2013  19 07  -21.0642 26015.6 -03425.2 -07.5003 26240.1
 26 04 2013  19 08  -21.0645 26015.7 -03425.3 -07.5006 26240.2
 26 04 2013  19 09  -21.0640 26015.4 -03425.2 -07.5005 26239.9
 26 04 2013  19 10  -21.0635 26014.9 -03425.1 -07.5004 26239.4
 26 04 2013  19 11  -21.0632 26014.8 -03425.2 -07.5006 26239.3
 26 04 2013  19 12  -21.0633 26014.5 -03425.2 -07.5007 26239.0
 26 04 2013  19 13  -21.0631 26014.1 -03425.2 -07.5007 26238.6
 26 04 2013  19 14  -21.0635 26013.8 -03425.2 -07.5008 26238.3
 26 04 2013  19 15  -21.0631 26013.2 -03425.0 -07.5006 26237.7
 26 04 2013  19 16  -21.0631 26013.3 -03425.2 -07.5009 26237.8
 26 04 2013  19 17  -21.0631 26012.8 -03425.1 -07.5009 26237.3
 26 04 2013  19 18  -21.0629 26012.3 -03424.9 -07.5007 26236.8
 26 04 2013  19 19  -21.0629 26012.1 -03425.0 -07.5009 26236.6
 26 04 2013  19 20  -21.0629 26012.2 -03425.2 -07.5013 26236.7
 26 04 2013  19 21  -21.0632 26012.1 -03425.3 -07.5015 26236.6
 26 04 2013  19 22  -21.0631 26011.6 -03425.1 -07.5013 26236.1
 26 04 2013  19 23  -21.0631 26011.3 -03425.1 -07.5013 26235.9
 26 04 2013  19 24  -21.0636 26011.4 -03425.2 -07.5017 26235.9
 26 04 2013  19 25  -21.0638 26011.3 -03425.3 -07.5018 26235.8
 26 04 2013  19 26  -21.0641 26011.0 -03425.2 -07.5017 26235.5
 26 04 2013  19 27  -21.0646 26010.6 -03425.1 -07.5015 26235.2
 26 04 2013  19 28  -21.0648 26010.4 -03425.0 -07.5014 26234.9
 26 04 2013  19 29  -21.0645 26010.0 -03424.8 -07.5011 26234.6
 26 04 2013  19 30  -21.0656 26009.5 -03424.4 -07.5005 26234.0
 26 04 2013  19 31  -21.0680 26008.9 -03424.2 -07.5001 26233.3
 26 04 2013  19 32  -21.0682 26009.0 -03424.3 -07.5002 26233.5
 26 04 2013  19 33  -21.0682 26009.2 -03424.4 -07.5004 26233.6
 26 04 2013  19 34  -21.0680 26009.0 -03424.4 -07.5004 26233.4
 26 04 2013  19 35  -21.0679 26008.8 -03424.4 -07.5005 26233.2
 26 04 2013  19 36  -21.0640 26008.8 -03424.6 -07.5010 26233.3
 26 04 2013  19 37  -21.0640 26008.5 -03424.6 -07.5011 26233.0
 26 04 2013  19 38  -21.0643 26008.6 -03424.7 -07.5014 26233.1
 26 04 2013  19 39  -21.0646 26008.9 -03424.9 -07.5017 26233.4
 26 04 2013  19 40  -21.0640 26008.7 -03424.7 -07.5013 26233.2
 26 04 2013  19 41  -21.0638 26008.6 -03424.7 -07.5014 26233.1
 26 04 2013  19 42  -21.0637 26008.6 -03424.8 -07.5016 26233.1
 26 04 2013  19 43  -21.0633 26008.3 -03424.8 -07.5015 26232.8
 26 04 2013  19 44  -21.0626 26008.1 -03424.7 -07.5015 26232.6
 26 04 2013  19 45  -21.0618 26008.0 -03424.7 -07.5016 26232.5
 26 04 2013  19 46  -21.0613 26008.1 -03424.9 -07.5018 26232.6
 26 04 2013  19 47  -21.0609 26008.3 -03425.1 -07.5023 26232.9
 26 04 2013  19 48  -21.0607 26008.4 -03425.3 -07.5027 26233.0
 26 04 2013  19 49  -21.0606 26008.7 -03425.6 -07.5031 26233.3
 26 04 2013  19 50  -21.0601 26009.0 -03425.8 -07.5035 26233.6
 26 04 2013  19 51  -21.0602 26009.4 -03426.0 -07.5039 26234.0
 26 04 2013  19 52  -21.0603 26009.7 -03426.2 -07.5042 26234.4
 26 04 2013  19 53  -21.0603 26010.0 -03426.4 -07.5045 26234.7
 26 04 2013  19 54  -21.0601 26010.0 -03426.4 -07.5045 26234.7
 26 04 2013  19 55  -21.0597 26009.7 -03426.2 -07.5042 26234.4
 26 04 2013  19 56  -21.0595 26009.4 -03426.1 -07.5040 26234.1
 26 04 2013  19 57  -21.0594 26009.7 -03426.2 -07.5043 26234.4
 26 04 2013  19 58  -21.0591 26010.0 -03426.4 -07.5046 26234.7
 26 04 2013  19 59  -21.0588 26010.1 -03426.5 -07.5047 26234.8
 26 04 2013  20 00  -21.0588 26010.2 -03426.6 -07.5049 26235.0
 26 04 2013  20 01  -21.0586 26010.3 -03426.6 -07.5050 26235.0
 26 04 2013  20 02  -21.0587 26010.3 -03426.6 -07.5050 26235.0
 26 04 2013  20 03  -21.0589 26010.7 -03426.8 -07.5052 26235.5
 26 04 2013  20 04  -21.0592 26011.4 -03427.1 -07.5057 26236.2
 26 04 2013  20 05  -21.0590 26011.5 -03427.2 -07.5058 26236.3
 26 04 2013  20 06  -21.0588 26011.6 -03427.2 -07.5058 26236.4
 26 04 2013  20 07  -21.0590 26012.1 -03427.4 -07.5061 26237.0
 26 04 2013  20 08  -21.0592 26012.5 -03427.5 -07.5062 26237.3
 26 04 2013  20 09  -21.0588 26012.4 -03427.4 -07.5060 26237.2
 26 04 2013  20 10  -21.0584 26012.1 -03427.2 -07.5056 26236.9
 26 04 2013  20 11  -21.0575 26011.5 -03426.9 -07.5052 26236.3
 26 04 2013  20 12  -21.0569 26011.2 -03426.8 -07.5050 26236.0
 26 04 2013  20 13  -21.0561 26010.9 -03426.7 -07.5049 26235.7
 26 04 2013  20 14  -21.0549 26010.3 -03426.5 -07.5047 26235.1
 26 04 2013  20 15  -21.0537 26009.8 -03426.4 -07.5045 26234.5
 26 04 2013  20 16  -21.0529 26009.5 -03426.4 -07.5047 26234.2
 26 04 2013  20 17  -21.0520 26009.4 -03426.5 -07.5049 26234.1
 26 04 2013  20 18  -21.0514 26009.1 -03426.5 -07.5050 26233.9
 26 04 2013  20 19  -21.0507 26009.2 -03426.7 -07.5054 26234.0
 26 04 2013  20 20  -21.0501 26009.4 -03426.9 -07.5058 26234.2
 26 04 2013  20 21  -21.0499 26009.5 -03427.1 -07.5061 26234.3
 26 04 2013  20 22  -21.0499 26009.6 -03427.2 -07.5063 26234.4
 26 04 2013  20 23  -21.0496 26009.8 -03427.3 -07.5066 26234.6
 26 04 2013  20 24  -21.0492 26009.9 -03427.5 -07.5070 26234.8
 26 04 2013  20 25  -21.0488 26010.2 -03427.7 -07.5073 26235.1
 26 04 2013  20 26  -21.0487 26010.5 -03427.9 -07.5078 26235.4
 26 04 2013  20 27  -21.0487 26010.6 -03428.1 -07.5080 26235.6
 26 04 2013  20 28  -21.0487 26010.8 -03428.2 -07.5083 26235.8
 26 04 2013  20 29  -21.0489 26011.1 -03428.4 -07.5085 26236.1
 26 04 2013  20 30  -21.0492 26011.3 -03428.5 -07.5088 26236.3
 26 04 2013  20 31  -21.0491 26011.2 -03428.4 -07.5086 26236.2
 26 04 2013  20 32  -21.0484 26011.3 -03428.3 -07.5084 26236.2
 26 04 2013  20 33  -21.0478 26011.3 -03428.4 -07.5085 26236.3
 26 04 2013  20 34  -21.0471 26011.1 -03428.3 -07.5085 26236.1
 26 04 2013  20 35  -21.0468 26010.8 -03428.3 -07.5085 26235.7
 26 04 2013  20 36  -21.0465 26010.6 -03428.4 -07.5086 26235.5
 26 04 2013  20 37  -21.0462 26010.7 -03428.5 -07.5089 26235.7
 26 04 2013  20 38  -21.0463 26010.9 -03428.7 -07.5093 26235.9
 26 04 2013  20 39  -21.0465 26011.5 -03429.0 -07.5099 26236.6
 26 04 2013  20 40  -21.0466 26012.3 -03429.5 -07.5105 26237.4
 26 04 2013  20 41  -21.0466 26012.7 -03429.7 -07.5109 26237.8
 26 04 2013  20 42  -21.0465 26013.0 -03429.8 -07.5111 26238.2
 26 04 2013  20 43  -21.0464 26013.4 -03430.0 -07.5114 26238.5
 26 04 2013  20 44  -21.0464 26013.4 -03430.0 -07.5115 26238.6
 26 04 2013  20 45  -21.0465 26013.4 -03430.0 -07.5114 26238.5
 26 04 2013  20 46  -21.0465 26013.4 -03430.0 -07.5114 26238.6
 26 04 2013  20 47  -21.0468 26013.7 -03430.1 -07.5116 26238.9
 26 04 2013  20 48  -21.0472 26014.0 -03430.3 -07.5118 26239.2
 26 04 2013  20 49  -21.0476 26014.0 -03430.2 -07.5117 26239.2
 26 04 2013  20 50  -21.0478 26013.9 -03430.2 -07.5116 26239.1
 26 04 2013  20 51  -21.0479 26014.0 -03430.1 -07.5116 26239.1
 26 04 2013  20 52  -21.0479 26014.2 -03430.2 -07.5116 26239.4
 26 04 2013  20 53  -21.0478 26014.7 -03430.4 -07.5118 26239.9
 26 04 2013  20 54  -21.0479 26014.9 -03430.4 -07.5119 26240.1
 26 04 2013  20 55  -21.0478 26014.9 -03430.3 -07.5117 26240.0
 26 04 2013  20 56  -21.0477 26014.6 -03430.1 -07.5113 26239.7
 26 04 2013  20 57  -21.0477 26014.2 -03429.9 -07.5109 26239.3
 26 04 2013  20 58  -21.0477 26014.3 -03429.8 -07.5108 26239.4
 26 04 2013  20 59  -21.0474 26014.1 -03429.7 -07.5106 26239.3
 26 04 2013  21 00  -21.0473 26013.9 -03429.6 -07.5105 26239.0
 26 04 2013  21 01  -21.0472 26013.6 -03429.5 -07.5103 26238.7
 26 04 2013  21 02  -21.0470 26013.5 -03429.5 -07.5103 26238.6
 26 04 2013  21 03  -21.0470 26013.4 -03429.5 -07.5103 26238.4
 26 04 2013  21 04  -21.0470 26013.3 -03429.5 -07.5103 26238.3
 26 04 2013  21 05  -21.0469 26012.9 -03429.4 -07.5102 26238.0
 26 04 2013  21 06  -21.0468 26012.6 -03429.3 -07.5100 26237.7
 26 04 2013  21 07  -21.0464 26012.4 -03429.2 -07.5100 26237.4
 26 04 2013  21 08  -21.0461 26012.3 -03429.2 -07.5101 26237.4
 26 04 2013  21 09  -21.0458 26012.5 -03429.4 -07.5103 26237.6
 26 04 2013  21 10  -21.0457 26012.6 -03429.5 -07.5106 26237.7
 26 04 2013  21 11  -21.0454 26012.6 -03429.6 -07.5107 26237.7
 26 04 2013  21 12  -21.0451 26012.4 -03429.6 -07.5107 26237.5
 26 04 2013  21 13  -21.0447 26011.9 -03429.4 -07.5105 26237.0
 26 04 2013  21 14  -21.0444 26011.7 -03429.4 -07.5105 26236.8
 26 04 2013  21 15  -21.0444 26012.0 -03429.6 -07.5109 26237.1
 26 04 2013  21 16  -21.0446 26012.1 -03429.8 -07.5113 26237.2
 26 04 2013  21 17  -21.0447 26011.9 -03429.8 -07.5114 26237.0
 26 04 2013  21 18  -21.0447 26012.1 -03430.0 -07.5117 26237.2
 26 04 2013  21 19  -21.0445 26012.4 -03430.2 -07.5120 26237.6
 26 04 2013  21 20  -21.0446 26012.6 -03430.4 -07.5125 26237.8
 26 04 2013  21 21  -21.0452 26012.6 -03430.5 -07.5126 26237.9
 26 04 2013  21 22  -21.0455 26012.5 -03430.4 -07.5126 26237.7
 26 04 2013  21 23  -21.0457 26012.1 -03430.3 -07.5124 26237.3
 26 04 2013  21 24  -21.0455 26011.6 -03430.0 -07.5120 26236.8
 26 04 2013  21 25  -21.0455 26011.9 -03430.2 -07.5122 26237.1
 26 04 2013  21 26  -21.0455 26012.4 -03430.6 -07.5129 26237.7
 26 04 2013  21 27  -21.0456 26012.9 -03430.9 -07.5134 26238.2
 26 04 2013  21 28  -21.0456 26012.9 -03430.9 -07.5136 26238.2
 26 04 2013  21 29  -21.0454 26012.6 -03430.8 -07.5133 26237.8
 26 04 2013  21 30  -21.0452 26012.4 -03430.7 -07.5132 26237.6
 26 04 2013  21 31  -21.0448 26012.1 -03430.6 -07.5130 26237.3
 26 04 2013  21 32  -21.0446 26011.9 -03430.5 -07.5128 26237.1
 26 04 2013  21 33  -21.0444 26011.9 -03430.5 -07.5130 26237.2
 26 04 2013  21 34  -21.0443 26012.3 -03430.8 -07.5133 26237.6
 26 04 2013  21 35  -21.0444 26012.8 -03431.1 -07.5140 26238.1
 26 04 2013  21 36  -21.0448 26013.1 -03431.3 -07.5144 26238.4
 26 04 2013  21 37  -21.0453 26013.4 -03431.6 -07.5148 26238.8
 26 04 2013  21 38  -21.0459 26013.4 -03431.6 -07.5148 26238.8
 26 04 2013  21 39  -21.0463 26013.3 -03431.5 -07.5146 26238.7
 26 04 2013  21 40  -21.0464 26013.2 -03431.4 -07.5145 26238.6
 26 04 2013  21 41  -21.0467 26013.2 -03431.4 -07.5145 26238.6
 26 04 2013  21 42  -21.0469 26013.2 -03431.4 -07.5145 26238.6
 26 04 2013  21 43  -21.0472 26013.8 -03431.6 -07.5148 26239.1
 26 04 2013  21 44  -21.0473 26014.4 -03431.9 -07.5153 26239.8
 26 04 2013  21 45  -21.0476 26015.0 -03432.2 -07.5157 26240.5
 26 04 2013  21 46  -21.0480 26015.7 -03432.5 -07.5162 26241.1
 26 04 2013  21 47  -21.0485 26016.4 -03432.8 -07.5167 26241.9
 26 04 2013  21 48  -21.0489 26016.8 -03432.9 -07.5168 26242.3
 26 04 2013  21 49  -21.0494 26017.3 -03433.1 -07.5169 26242.8
 26 04 2013  21 50  -21.0502 26017.5 -03433.1 -07.5170 26243.1
 26 04 2013  21 51  -21.0511 26017.3 -03432.9 -07.5165 26242.8
 26 04 2013  21 52  -21.0515 26017.2 -03432.6 -07.5160 26242.6
 26 04 2013  21 53  -21.0515 26017.1 -03432.5 -07.5158 26242.6
 26 04 2013  21 54  -21.0514 26017.3 -03432.4 -07.5156 26242.7
 26 04 2013  21 55  -21.0516 26017.9 -03432.7 -07.5159 26243.4
 26 04 2013  21 56  -21.0517 26018.6 -03432.9 -07.5163 26244.1
 26 04 2013  21 57  -21.0517 26019.3 -03433.2 -07.5167 26244.8
 26 04 2013  21 58  -21.0520 26019.7 -03433.4 -07.5169 26245.3
 26 04 2013  21 59  -21.0522 26019.8 -03433.3 -07.5168 26245.4
 26 04 2013  22 00  -21.0524 26020.0 -03433.3 -07.5166 26245.5
 26 04 2013  22 01  -21.0527 26019.8 -03433.1 -07.5162 26245.3
 26 04 2013  22 02  -21.0531 26019.4 -03432.8 -07.5157 26244.9
 26 04 2013  22 03  -21.0536 26019.4 -03432.7 -07.5155 26244.8
 26 04 2013  22 04  -21.0534 26019.0 -03432.4 -07.5151 26244.4
 26 04 2013  22 05  -21.0531 26018.1 -03431.9 -07.5142 26243.4
 26 04 2013  22 06  -21.0528 26017.3 -03431.5 -07.5135 26242.6
 26 04 2013  22 07  -21.0520 26017.5 -03431.4 -07.5134 26242.8
 26 04 2013  22 08  -21.0509 26018.2 -03431.8 -07.5139 26243.5
 26 04 2013  22 09  -21.0498 26018.2 -03431.9 -07.5141 26243.6
 26 04 2013  22 10  -21.0494 26017.6 -03431.6 -07.5138 26242.9
 26 04 2013  22 11  -21.0491 26017.2 -03431.5 -07.5135 26242.5
 26 04 2013  22 12  -21.0485 26017.2 -03431.4 -07.5134 26242.5
 26 04 2013  22 13  -21.0477 26017.4 -03431.6 -07.5137 26242.7
 26 04 2013  22 14  -21.0470 26017.6 -03431.8 -07.5140 26243.0
 26 04 2013  22 15  -21.0469 26017.8 -03431.9 -07.5143 26243.2
 26 04 2013  22 16  -21.0468 26017.9 -03432.1 -07.5146 26243.3
 26 04 2013  22 17  -21.0469 26017.7 -03432.0 -07.5145 26243.1
 26 04 2013  22 18  -21.0471 26017.8 -03432.1 -07.5146 26243.2
 26 04 2013  22 19  -21.0474 26017.7 -03432.0 -07.5146 26243.1
 26 04 2013  22 20  -21.0477 26017.9 -03432.2 -07.5148 26243.3
 26 04 2013  22 21  -21.0484 26017.8 -03432.2 -07.5148 26243.3
 26 04 2013  22 22  -21.0488 26017.9 -03432.2 -07.5148 26243.3
 26 04 2013  22 23  -21.0494 26017.8 -03432.1 -07.5148 26243.2
 26 04 2013  22 24  -21.0495 26017.4 -03431.9 -07.5144 26242.8
 26 04 2013  22 25  -21.0497 26017.4 -03431.8 -07.5142 26242.8
 26 04 2013  22 26  -21.0495 26017.8 -03432.0 -07.5144 26243.2
 26 04 2013  22 27  -21.0495 26018.3 -03432.3 -07.5149 26243.7
 26 04 2013  22 28  -21.0498 26018.3 -03432.3 -07.5150 26243.7
 26 04 2013  22 29  -21.0504 26017.7 -03432.1 -07.5146 26243.1
 26 04 2013  22 30  -21.0508 26017.6 -03432.0 -07.5144 26243.0
 26 04 2013  22 31  -21.0511 26017.8 -03432.0 -07.5145 26243.2
 26 04 2013  22 32  -21.0515 26017.6 -03431.9 -07.5144 26243.0
 26 04 2013  22 33  -21.0517 26017.3 -03431.7 -07.5140 26242.6
 26 04 2013  22 34  -21.0519 26017.1 -03431.6 -07.5139 26242.5
 26 04 2013  22 35  -21.0524 26016.6 -03431.4 -07.5135 26242.0
 26 04 2013  22 36  -21.0527 26016.3 -03431.2 -07.5133 26241.6
 26 04 2013  22 37  -21.0533 26015.5 -03430.9 -07.5127 26240.8
 26 04 2013  22 38  -21.0539 26015.2 -03430.8 -07.5125 26240.4
 26 04 2013  22 39  -21.0543 26015.1 -03430.7 -07.5125 26240.3
 26 04 2013  22 40  -21.0543 26015.3 -03430.8 -07.5127 26240.6
 26 04 2013  22 41  -21.0542 26015.8 -03431.1 -07.5131 26241.1
 26 04 2013  22 42  -21.0540 26016.5 -03431.5 -07.5137 26241.8
 26 04 2013  22 43  -21.0537 26016.9 -03431.7 -07.5141 26242.3
 26 04 2013  22 44  -21.0535 26017.5 -03432.0 -07.5145 26242.9
 26 04 2013  22 45  -21.0534 26017.9 -03432.2 -07.5149 26243.3
 26 04 2013  22 46  -21.0536 26017.9 -03432.2 -07.5149 26243.4
 26 04 2013  22 47  -21.0536 26018.4 -03432.3 -07.5150 26243.8
 26 04 2013  22 48  -21.0535 26019.3 -03432.7 -07.5156 26244.7
 26 04 2013  22 49  -21.0537 26019.7 -03433.0 -07.5160 26245.2
 26 04 2013  22 50  -21.0541 26020.0 -03433.1 -07.5162 26245.5
 26 04 2013  22 51  -21.0546 26020.3 -03433.1 -07.5162 26245.8
 26 04 2013  22 52  -21.0548 26020.5 -03433.2 -07.5163 26246.0
 26 04 2013  22 53  -21.0548 26020.9 -03433.2 -07.5163 26246.4
 26 04 2013  22 54  -21.0548 26021.4 -03433.4 -07.5164 26246.9
 26 04 2013  22 55  -21.0550 26021.9 -03433.5 -07.5166 26247.4
 26 04 2013  22 56  -21.0553 26022.5 -03433.8 -07.5170 26248.1
 26 04 2013  22 57  -21.0556 26023.1 -03434.0 -07.5173 26248.7
 26 04 2013  22 58  -21.0560 26023.4 -03434.1 -07.5174 26249.0
 26 04 2013  22 59  -21.0561 26023.8 -03434.2 -07.5175 26249.4
 26 04 2013  23 00  -21.0560 26024.2 -03434.2 -07.5175 26249.8
 26 04 2013  23 01  -21.0559 26024.1 -03434.1 -07.5172 26249.7
 26 04 2013  23 02  -21.0557 26024.1 -03434.0 -07.5169 26249.7
 26 04 2013  23 03  -21.0553 26024.0 -03433.8 -07.5166 26249.6
 26 04 2013  23 04  -21.0549 26024.1 -03433.7 -07.5164 26249.7
 26 04 2013  23 05  -21.0547 26024.2 -03433.7 -07.5164 26249.8
 26 04 2013  23 06  -21.0544 26024.2 -03433.7 -07.5163 26249.7
 26 04 2013  23 07  -21.0542 26024.0 -03433.5 -07.5160 26249.6
 26 04 2013  23 08  -21.0540 26023.7 -03433.4 -07.5157 26249.2
 26 04 2013  23 09  -21.0537 26023.6 -03433.2 -07.5154 26249.0
 26 04 2013  23 10  -21.0535 26023.5 -03433.1 -07.5153 26248.9
 26 04 2013  23 11  -21.0534 26023.3 -03433.1 -07.5152 26248.8
 26 04 2013  23 12  -21.0533 26023.0 -03432.9 -07.5149 26248.4
 26 04 2013  23 13  -21.0532 26022.9 -03432.8 -07.5148 26248.4
 26 04 2013  23 14  -21.0529 26023.6 -03433.0 -07.5150 26249.0
 26 04 2013  23 15  -21.0522 26024.9 -03433.7 -07.5162 26250.4
 26 04 2013  23 16  -21.0516 26025.6 -03434.1 -07.5167 26251.2
 26 04 2013  23 17  -21.0512 26026.0 -03434.3 -07.5172 26251.6
 26 04 2013  23 18  -21.0504 26027.2 -03434.8 -07.5179 26252.9
 26 04 2013  23 19  -21.0502 26028.2 -03435.3 -07.5187 26253.9
 26 04 2013  23 20  -21.0497 26029.8 -03436.1 -07.5200 26255.7
 26 04 2013  23 21  -21.0500 26031.3 -03436.9 -07.5211 26257.2
 26 04 2013  23 22  -21.0502 26032.6 -03437.5 -07.5222 26258.6
 26 04 2013  23 23  -21.0505 26033.6 -03438.0 -07.5228 26259.7
 26 04 2013  23 24  -21.0509 26034.3 -03438.1 -07.5230 26260.3
 26 04 2013  23 25  -21.0515 26034.9 -03438.2 -07.5231 26260.9
 26 04 2013  23 26  -21.0523 26035.2 -03438.2 -07.5229 26261.2
 26 04 2013  23 27  -21.0529 26035.4 -03438.0 -07.5225 26261.5
 26 04 2013  23 28  -21.0534 26035.4 -03437.8 -07.5219 26261.4
 26 04 2013  23 29  -21.0535 26035.4 -03437.4 -07.5212 26261.3
 26 04 2013  23 30  -21.0533 26035.6 -03437.3 -07.5208 26261.5
 26 04 2013  23 31  -21.0533 26035.7 -03437.1 -07.5204 26261.6
 26 04 2013  23 32  -21.0535 26035.6 -03436.9 -07.5199 26261.4
 26 04 2013  23 33  -21.0538 26035.6 -03436.6 -07.5194 26261.4
 26 04 2013  23 34  -21.0541 26035.3 -03436.3 -07.5189 26261.1
 26 04 2013  23 35  -21.0543 26035.1 -03436.1 -07.5184 26260.9
 26 04 2013  23 36  -21.0546 26034.4 -03435.6 -07.5176 26260.2
 26 04 2013  23 37  -21.0551 26033.5 -03435.0 -07.5165 26259.1
 26 04 2013  23 38  -21.0554 26032.5 -03434.4 -07.5154 26258.0
 26 04 2013  23 39  -21.0553 26031.5 -03433.8 -07.5144 26257.0
 26 04 2013  23 40  -21.0552 26030.6 -03433.3 -07.5136 26256.0
 26 04 2013  23 41  -21.0551 26030.0 -03433.0 -07.5130 26255.4
 26 04 2013  23 42  -21.0546 26029.9 -03432.9 -07.5129 26255.3
 26 04 2013  23 43  -21.0539 26029.8 -03432.9 -07.5130 26255.2
 26 04 2013  23 44  -21.0536 26029.5 -03432.8 -07.5129 26254.9
 26 04 2013  23 45  -21.0534 26029.2 -03432.7 -07.5128 26254.6
 26 04 2013  23 46  -21.0536 26028.6 -03432.5 -07.5125 26253.9
 26 04 2013  23 47  -21.0535 26028.4 -03432.4 -07.5124 26253.7
 26 04 2013  23 48  -21.0532 26028.0 -03432.4 -07.5124 26253.3
 26 04 2013  23 49  -21.0533 26027.5 -03432.3 -07.5123 26252.8
 26 04 2013  23 50  -21.0536 26027.1 -03432.1 -07.5121 26252.4
 26 04 2013  23 51  -21.0537 26026.7 -03431.9 -07.5118 26252.0
 26 04 2013  23 52  -21.0538 26026.0 -03431.7 -07.5115 26251.3
 26 04 2013  23 53  -21.0539 26025.4 -03431.5 -07.5112 26250.6
 26 04 2013  23 54  -21.0544 26025.7 -03431.7 -07.5116 26251.0
 26 04 2013  23 55  -21.0549 26025.8 -03431.9 -07.5120 26251.1
 26 04 2013  23 56  -21.0556 26025.5 -03431.9 -07.5121 26250.8
 26 04 2013  23 57  -21.0560 26025.2 -03431.8 -07.5120 26250.5
 26 04 2013  23 58  -21.0563 26024.6 -03431.6 -07.5116 26249.9
