SAO LUIS EMBRACE-03 <114> 1 Min. Reported data

 DD MM YYYY  HH MM   D(Deg)  H(nT)   Z(nT)   I(Deg)   F(nT)

 24 04 2013  00 00  -21.0634 26028.4 -03426.2 -07.4989 26252.9
 24 04 2013  00 01  -21.0631 26027.9 -03426.0 -07.4987 26252.4
 24 04 2013  00 02  -21.0629 26027.3 -03425.8 -07.4984 26251.8
 24 04 2013  00 03  -21.0623 26026.8 -03425.7 -07.4983 26251.3
 24 04 2013  00 04  -21.0615 26026.3 -03425.6 -07.4981 26250.8
 24 04 2013  00 05  -21.0610 26025.4 -03425.3 -07.4979 26249.9
 24 04 2013  00 06  -21.0604 26025.0 -03425.3 -07.4979 26249.5
 24 04 2013  00 07  -21.0601 26024.6 -03425.3 -07.4980 26249.0
 24 04 2013  00 08  -21.0601 26024.0 -03425.2 -07.4981 26248.5
 24 04 2013  00 09  -21.0601 26023.4 -03425.2 -07.4981 26247.8
 24 04 2013  00 10  -21.0597 26022.7 -03425.1 -07.4981 26247.2
 24 04 2013  00 11  -21.0596 26022.2 -03425.0 -07.4980 26246.6
 24 04 2013  00 12  -21.0595 26021.8 -03425.0 -07.4982 26246.2
 24 04 2013  00 13  -21.0592 26021.4 -03425.0 -07.4984 26245.8
 24 04 2013  00 14  -21.0590 26021.2 -03425.2 -07.4987 26245.7
 24 04 2013  00 15  -21.0589 26021.2 -03425.4 -07.4991 26245.7
 24 04 2013  00 16  -21.0588 26020.8 -03425.4 -07.4994 26245.3
 24 04 2013  00 17  -21.0588 26020.4 -03425.4 -07.4995 26244.9
 24 04 2013  00 18  -21.0589 26020.0 -03425.4 -07.4996 26244.5
 24 04 2013  00 19  -21.0593 26019.4 -03425.4 -07.4996 26243.9
 24 04 2013  00 20  -21.0598 26019.2 -03425.4 -07.4998 26243.7
 24 04 2013  00 21  -21.0601 26019.0 -03425.5 -07.5001 26243.5
 24 04 2013  00 22  -21.0600 26018.5 -03425.4 -07.5000 26243.0
 24 04 2013  00 23  -21.0597 26018.3 -03425.5 -07.5001 26242.8
 24 04 2013  00 24  -21.0597 26017.9 -03425.5 -07.5003 26242.5
 24 04 2013  00 25  -21.0595 26017.6 -03425.4 -07.5003 26242.1
 24 04 2013  00 26  -21.0593 26017.6 -03425.5 -07.5006 26242.1
 24 04 2013  00 27  -21.0594 26017.5 -03425.7 -07.5009 26242.0
 24 04 2013  00 28  -21.0593 26017.4 -03425.8 -07.5013 26242.0
 24 04 2013  00 29  -21.0592 26017.5 -03426.0 -07.5016 26242.1
 24 04 2013  00 30  -21.0590 26017.9 -03426.4 -07.5023 26242.5
 24 04 2013  00 31  -21.0590 26018.1 -03426.6 -07.5028 26242.8
 24 04 2013  00 32  -21.0592 26018.1 -03426.8 -07.5031 26242.8
 24 04 2013  00 33  -21.0592 26017.9 -03426.8 -07.5032 26242.6
 24 04 2013  00 34  -21.0591 26017.7 -03426.8 -07.5032 26242.4
 24 04 2013  00 35  -21.0591 26017.5 -03426.8 -07.5032 26242.2
 24 04 2013  00 36  -21.0588 26017.6 -03426.8 -07.5034 26242.3
 24 04 2013  00 37  -21.0587 26018.0 -03427.2 -07.5040 26242.7
 24 04 2013  00 38  -21.0584 26017.7 -03427.2 -07.5040 26242.4
 24 04 2013  00 39  -21.0586 26017.2 -03427.0 -07.5038 26241.9
 24 04 2013  00 40  -21.0589 26016.9 -03426.9 -07.5038 26241.6
 24 04 2013  00 41  -21.0590 26016.8 -03427.0 -07.5040 26241.6
 24 04 2013  00 42  -21.0590 26016.7 -03427.0 -07.5041 26241.4
 24 04 2013  00 43  -21.0589 26017.0 -03427.3 -07.5044 26241.8
 24 04 2013  00 44  -21.0590 26017.2 -03427.5 -07.5049 26242.0
 24 04 2013  00 45  -21.0588 26017.4 -03427.6 -07.5052 26242.2
 24 04 2013  00 46  -21.0583 26017.2 -03427.6 -07.5052 26242.0
 24 04 2013  00 47  -21.0576 26016.8 -03427.5 -07.5050 26241.6
 24 04 2013  00 48  -21.0568 26017.0 -03427.6 -07.5052 26241.8
 24 04 2013  00 49  -21.0563 26016.8 -03427.7 -07.5054 26241.6
 24 04 2013  00 50  -21.0557 26016.9 -03427.8 -07.5056 26241.7
 24 04 2013  00 51  -21.0548 26016.9 -03427.9 -07.5058 26241.7
 24 04 2013  00 52  -21.0538 26017.0 -03428.0 -07.5061 26241.9
 24 04 2013  00 53  -21.0532 26016.8 -03428.0 -07.5062 26241.7
 24 04 2013  00 54  -21.0527 26017.0 -03428.2 -07.5065 26241.9
 24 04 2013  00 55  -21.0523 26017.3 -03428.5 -07.5070 26242.3
 24 04 2013  00 56  -21.0519 26017.7 -03428.8 -07.5075 26242.7
 24 04 2013  00 57  -21.0519 26017.8 -03428.9 -07.5078 26242.8
 24 04 2013  00 58  -21.0515 26018.2 -03429.2 -07.5083 26243.2
 24 04 2013  00 59  -21.0514 26018.2 -03429.2 -07.5084 26243.2
 24 04 2013  01 00  -21.0516 26017.9 -03429.2 -07.5083 26242.9
 24 04 2013  01 01  -21.0518 26017.8 -03429.1 -07.5083 26242.9
 24 04 2013  01 02  -21.0522 26017.6 -03429.1 -07.5082 26242.6
 24 04 2013  01 03  -21.0528 26017.3 -03429.0 -07.5081 26242.3
 24 04 2013  01 04  -21.0533 26017.3 -03429.0 -07.5081 26242.3
 24 04 2013  01 05  -21.0538 26017.3 -03429.1 -07.5082 26242.3
 24 04 2013  01 06  -21.0543 26017.6 -03429.3 -07.5087 26242.6
 24 04 2013  01 07  -21.0548 26017.7 -03429.4 -07.5088 26242.7
 24 04 2013  01 08  -21.0552 26018.0 -03429.6 -07.5092 26243.0
 24 04 2013  01 09  -21.0556 26018.3 -03429.8 -07.5095 26243.4
 24 04 2013  01 10  -21.0564 26018.6 -03429.9 -07.5098 26243.7
 24 04 2013  01 11  -21.0572 26018.7 -03430.0 -07.5099 26243.9
 24 04 2013  01 12  -21.0578 26019.0 -03430.1 -07.5100 26244.1
 24 04 2013  01 13  -21.0585 26019.0 -03430.1 -07.5101 26244.2
 24 04 2013  01 14  -21.0592 26018.7 -03429.9 -07.5097 26243.8
 24 04 2013  01 15  -21.0595 26018.5 -03429.7 -07.5093 26243.5
 24 04 2013  01 16  -21.0599 26018.2 -03429.5 -07.5090 26243.3
 24 04 2013  01 17  -21.0600 26018.0 -03429.4 -07.5088 26243.0
 24 04 2013  01 18  -21.0601 26017.7 -03429.2 -07.5085 26242.7
 24 04 2013  01 19  -21.0600 26017.6 -03429.2 -07.5084 26242.6
 24 04 2013  01 20  -21.0599 26017.6 -03429.2 -07.5084 26242.6
 24 04 2013  01 21  -21.0600 26017.4 -03429.1 -07.5083 26242.4
 24 04 2013  01 22  -21.0603 26017.2 -03429.0 -07.5082 26242.2
 24 04 2013  01 23  -21.0605 26017.1 -03429.0 -07.5083 26242.1
 24 04 2013  01 24  -21.0607 26016.9 -03428.9 -07.5081 26241.8
 24 04 2013  01 25  -21.0611 26016.6 -03428.9 -07.5080 26241.6
 24 04 2013  01 26  -21.0615 26016.2 -03428.7 -07.5077 26241.1
 24 04 2013  01 27  -21.0618 26015.9 -03428.6 -07.5076 26240.8
 24 04 2013  01 28  -21.0620 26015.4 -03428.4 -07.5073 26240.3
 24 04 2013  01 29  -21.0624 26015.1 -03428.3 -07.5072 26240.0
 24 04 2013  01 30  -21.0628 26014.6 -03428.1 -07.5070 26239.5
 24 04 2013  01 31  -21.0629 26014.1 -03427.9 -07.5066 26238.9
 24 04 2013  01 32  -21.0628 26013.6 -03427.7 -07.5064 26238.5
 24 04 2013  01 33  -21.0628 26013.3 -03427.6 -07.5063 26238.1
 24 04 2013  01 34  -21.0629 26012.7 -03427.5 -07.5061 26237.5
 24 04 2013  01 35  -21.0633 26012.2 -03427.3 -07.5059 26237.0
 24 04 2013  01 36  -21.0636 26011.9 -03427.3 -07.5060 26236.7
 24 04 2013  01 37  -21.0638 26011.5 -03427.2 -07.5059 26236.3
 24 04 2013  01 38  -21.0642 26011.4 -03427.3 -07.5061 26236.2
 24 04 2013  01 39  -21.0648 26010.6 -03427.1 -07.5059 26235.4
 24 04 2013  01 40  -21.0651 26009.8 -03426.8 -07.5054 26234.6
 24 04 2013  01 41  -21.0655 26009.4 -03426.7 -07.5053 26234.2
 24 04 2013  01 42  -21.0659 26009.2 -03426.7 -07.5055 26233.9
 24 04 2013  01 43  -21.0662 26009.0 -03426.8 -07.5056 26233.8
 24 04 2013  01 44  -21.0664 26008.9 -03426.8 -07.5058 26233.7
 24 04 2013  01 45  -21.0668 26008.8 -03426.8 -07.5059 26233.5
 24 04 2013  01 46  -21.0673 26008.7 -03426.9 -07.5061 26233.5
 24 04 2013  01 47  -21.0675 26008.5 -03427.0 -07.5062 26233.3
 24 04 2013  01 48  -21.0674 26008.3 -03427.0 -07.5063 26233.1
 24 04 2013  01 49  -21.0673 26008.4 -03427.1 -07.5065 26233.2
 24 04 2013  01 50  -21.0668 26008.2 -03427.0 -07.5065 26233.0
 24 04 2013  01 51  -21.0663 26008.0 -03427.0 -07.5065 26232.8
 24 04 2013  01 52  -21.0657 26008.2 -03427.2 -07.5068 26233.1
 24 04 2013  01 53  -21.0650 26008.5 -03427.4 -07.5072 26233.4
 24 04 2013  01 54  -21.0644 26008.8 -03427.7 -07.5076 26233.7
 24 04 2013  01 55  -21.0638 26009.0 -03427.8 -07.5080 26233.9
 24 04 2013  01 56  -21.0634 26009.0 -03428.0 -07.5082 26234.0
 24 04 2013  01 57  -21.0631 26008.9 -03428.0 -07.5083 26233.8
 24 04 2013  01 58  -21.0626 26008.8 -03428.0 -07.5083 26233.7
 24 04 2013  01 59  -21.0621 26008.5 -03427.9 -07.5083 26233.4
 24 04 2013  02 00  -21.0617 26008.1 -03427.8 -07.5081 26233.0
 24 04 2013  02 01  -21.0617 26007.6 -03427.6 -07.5079 26232.5
 24 04 2013  02 02  -21.0617 26007.2 -03427.6 -07.5079 26232.1
 24 04 2013  02 03  -21.0617 26007.0 -03427.6 -07.5080 26231.9
 24 04 2013  02 04  -21.0619 26006.8 -03427.6 -07.5081 26231.7
 24 04 2013  02 05  -21.0623 26006.5 -03427.6 -07.5082 26231.4
 24 04 2013  02 06  -21.0625 26006.4 -03427.6 -07.5083 26231.3
 24 04 2013  02 07  -21.0624 26006.1 -03427.6 -07.5083 26231.0
 24 04 2013  02 08  -21.0626 26005.7 -03427.5 -07.5081 26230.6
 24 04 2013  02 09  -21.0628 26005.6 -03427.5 -07.5082 26230.5
 24 04 2013  02 10  -21.0628 26005.6 -03427.7 -07.5086 26230.5
 24 04 2013  02 11  -21.0628 26005.8 -03427.8 -07.5089 26230.8
 24 04 2013  02 12  -21.0628 26005.9 -03428.0 -07.5092 26230.9
 24 04 2013  02 13  -21.0627 26005.9 -03428.1 -07.5094 26230.9
 24 04 2013  02 14  -21.0624 26005.9 -03428.2 -07.5096 26230.9
 24 04 2013  02 15  -21.0620 26006.1 -03428.3 -07.5098 26231.1
 24 04 2013  02 16  -21.0618 26006.1 -03428.4 -07.5100 26231.1
 24 04 2013  02 17  -21.0616 26006.3 -03428.6 -07.5104 26231.4
 24 04 2013  02 18  -21.0614 26006.4 -03428.7 -07.5106 26231.5
 24 04 2013  02 19  -21.0612 26006.6 -03428.8 -07.5108 26231.7
 24 04 2013  02 20  -21.0609 26006.8 -03429.0 -07.5111 26231.9
 24 04 2013  02 21  -21.0607 26007.1 -03429.2 -07.5114 26232.2
 24 04 2013  02 22  -21.0605 26007.1 -03429.3 -07.5116 26232.2
 24 04 2013  02 23  -21.0603 26007.4 -03429.4 -07.5119 26232.5
 24 04 2013  02 24  -21.0602 26007.5 -03429.6 -07.5121 26232.7
 24 04 2013  02 25  -21.0600 26007.7 -03429.7 -07.5124 26232.9
 24 04 2013  02 26  -21.0602 26007.9 -03429.8 -07.5126 26233.1
 24 04 2013  02 27  -21.0605 26007.9 -03429.9 -07.5127 26233.1
 24 04 2013  02 28  -21.0607 26007.9 -03429.9 -07.5128 26233.1
 24 04 2013  02 29  -21.0609 26008.1 -03430.0 -07.5130 26233.3
 24 04 2013  02 30  -21.0614 26008.4 -03430.2 -07.5134 26233.6
 24 04 2013  02 31  -21.0619 26008.7 -03430.4 -07.5136 26233.9
 24 04 2013  02 32  -21.0622 26009.1 -03430.6 -07.5139 26234.3
 24 04 2013  02 33  -21.0624 26009.4 -03430.7 -07.5141 26234.7
 24 04 2013  02 34  -21.0627 26009.8 -03430.9 -07.5144 26235.1
 24 04 2013  02 35  -21.0629 26010.1 -03431.0 -07.5145 26235.4
 24 04 2013  02 36  -21.0632 26010.4 -03431.1 -07.5147 26235.7
 24 04 2013  02 37  -21.0637 26010.5 -03431.1 -07.5147 26235.8
 24 04 2013  02 38  -21.0641 26010.7 -03431.2 -07.5147 26236.0
 24 04 2013  02 39  -21.0645 26010.8 -03431.2 -07.5148 26236.2
 24 04 2013  02 40  -21.0651 26010.8 -03431.2 -07.5146 26236.1
 24 04 2013  02 41  -21.0657 26010.9 -03431.1 -07.5145 26236.2
 24 04 2013  02 42  -21.0661 26010.9 -03431.1 -07.5145 26236.2
 24 04 2013  02 43  -21.0665 26011.0 -03431.1 -07.5144 26236.3
 24 04 2013  02 44  -21.0667 26010.8 -03431.0 -07.5142 26236.1
 24 04 2013  02 45  -21.0668 26010.7 -03430.8 -07.5140 26236.0
 24 04 2013  02 46  -21.0667 26010.7 -03430.8 -07.5138 26235.9
 24 04 2013  02 47  -21.0663 26010.6 -03430.7 -07.5138 26235.9
 24 04 2013  02 48  -21.0661 26010.7 -03430.7 -07.5137 26236.0
 24 04 2013  02 49  -21.0659 26010.7 -03430.8 -07.5138 26236.0
 24 04 2013  02 50  -21.0659 26010.8 -03430.9 -07.5140 26236.1
 24 04 2013  02 51  -21.0659 26011.0 -03430.9 -07.5141 26236.3
 24 04 2013  02 52  -21.0661 26011.0 -03431.0 -07.5142 26236.4
 24 04 2013  02 53  -21.0665 26011.0 -03431.0 -07.5143 26236.3
 24 04 2013  02 54  -21.0670 26011.1 -03431.0 -07.5143 26236.4
 24 04 2013  02 55  -21.0673 26011.0 -03431.1 -07.5143 26236.4
 24 04 2013  02 56  -21.0677 26010.8 -03431.0 -07.5142 26236.2
 24 04 2013  02 57  -21.0682 26010.7 -03430.9 -07.5140 26236.0
 24 04 2013  02 58  -21.0689 26010.5 -03430.7 -07.5138 26235.8
 24 04 2013  02 59  -21.0691 26010.3 -03430.6 -07.5136 26235.6
 24 04 2013  03 00  -21.0694 26010.1 -03430.5 -07.5135 26235.4
 24 04 2013  03 01  -21.0699 26010.0 -03430.5 -07.5135 26235.3
 24 04 2013  03 02  -21.0704 26009.7 -03430.4 -07.5134 26235.0
 24 04 2013  03 03  -21.0707 26009.6 -03430.4 -07.5133 26234.8
 24 04 2013  03 04  -21.0712 26009.5 -03430.3 -07.5132 26234.7
 24 04 2013  03 05  -21.0717 26009.3 -03430.3 -07.5131 26234.5
 24 04 2013  03 06  -21.0720 26009.0 -03430.1 -07.5129 26234.3
 24 04 2013  03 07  -21.0724 26008.8 -03430.0 -07.5128 26234.0
 24 04 2013  03 08  -21.0728 26008.6 -03429.9 -07.5126 26233.8
 24 04 2013  03 09  -21.0730 26008.5 -03429.8 -07.5125 26233.6
 24 04 2013  03 10  -21.0732 26008.1 -03429.7 -07.5123 26233.3
 24 04 2013  03 11  -21.0733 26007.8 -03429.6 -07.5121 26233.0
 24 04 2013  03 12  -21.0735 26007.6 -03429.5 -07.5120 26232.7
 24 04 2013  03 13  -21.0737 26007.5 -03429.5 -07.5120 26232.6
 24 04 2013  03 14  -21.0739 26007.5 -03429.5 -07.5121 26232.6
 24 04 2013  03 15  -21.0742 26007.3 -03429.5 -07.5120 26232.4
 24 04 2013  03 16  -21.0745 26006.9 -03429.3 -07.5118 26232.0
 24 04 2013  03 17  -21.0747 26006.7 -03429.3 -07.5117 26231.8
 24 04 2013  03 18  -21.0753 26006.5 -03429.2 -07.5116 26231.6
 24 04 2013  03 19  -21.0754 26006.2 -03429.1 -07.5115 26231.3
 24 04 2013  03 20  -21.0757 26006.0 -03429.0 -07.5114 26231.0
 24 04 2013  03 21  -21.0759 26005.6 -03428.9 -07.5112 26230.7
 24 04 2013  03 22  -21.0762 26005.3 -03428.7 -07.5110 26230.3
 24 04 2013  03 23  -21.0765 26005.1 -03428.7 -07.5109 26230.1
 24 04 2013  03 24  -21.0769 26004.9 -03428.6 -07.5108 26229.9
 24 04 2013  03 25  -21.0769 26004.6 -03428.5 -07.5107 26229.6
 24 04 2013  03 26  -21.0767 26004.3 -03428.4 -07.5105 26229.3
 24 04 2013  03 27  -21.0765 26004.0 -03428.3 -07.5104 26229.1
 24 04 2013  03 28  -21.0763 26003.7 -03428.2 -07.5103 26228.7
 24 04 2013  03 29  -21.0760 26003.4 -03428.1 -07.5101 26228.4
 24 04 2013  03 30  -21.0760 26003.2 -03428.1 -07.5101 26228.2
 24 04 2013  03 31  -21.0760 26003.0 -03428.1 -07.5102 26228.0
 24 04 2013  03 32  -21.0761 26002.7 -03428.1 -07.5102 26227.7
 24 04 2013  03 33  -21.0762 26002.5 -03428.0 -07.5103 26227.5
 24 04 2013  03 34  -21.0763 26002.4 -03428.1 -07.5104 26227.4
 24 04 2013  03 35  -21.0764 26002.2 -03428.0 -07.5104 26227.2
 24 04 2013  03 36  -21.0763 26002.0 -03428.1 -07.5104 26227.0
 24 04 2013  03 37  -21.0762 26002.0 -03428.1 -07.5106 26227.0
 24 04 2013  03 38  -21.0760 26002.0 -03428.2 -07.5107 26227.0
 24 04 2013  03 39  -21.0760 26002.1 -03428.3 -07.5109 26227.1
 24 04 2013  03 40  -21.0762 26002.1 -03428.4 -07.5112 26227.1
 24 04 2013  03 41  -21.0763 26001.8 -03428.3 -07.5111 26226.8
 24 04 2013  03 42  -21.0761 26001.6 -03428.3 -07.5110 26226.7
 24 04 2013  03 43  -21.0760 26001.5 -03428.3 -07.5111 26226.5
 24 04 2013  03 44  -21.0757 26001.4 -03428.3 -07.5111 26226.4
 24 04 2013  03 45  -21.0754 26002.1 -03428.6 -07.5117 26227.2
 24 04 2013  03 46  -21.0750 26002.9 -03429.1 -07.5125 26228.1
 24 04 2013  03 47  -21.0746 26003.8 -03429.6 -07.5132 26229.0
 24 04 2013  03 48  -21.0745 26004.5 -03430.0 -07.5139 26229.7
 24 04 2013  03 49  -21.0748 26005.0 -03430.3 -07.5144 26230.3
 24 04 2013  03 50  -21.0750 26005.5 -03430.5 -07.5148 26230.8
 24 04 2013  03 51  -21.0751 26005.8 -03430.7 -07.5150 26231.1
 24 04 2013  03 52  -21.0752 26006.0 -03430.7 -07.5151 26231.3
 24 04 2013  03 53  -21.0753 26006.1 -03430.7 -07.5150 26231.4
 24 04 2013  03 54  -21.0753 26006.2 -03430.7 -07.5150 26231.5
 24 04 2013  03 55  -21.0756 26006.4 -03430.8 -07.5150 26231.7
 24 04 2013  03 56  -21.0760 26006.6 -03430.8 -07.5151 26231.9
 24 04 2013  03 57  -21.0762 26006.5 -03430.8 -07.5150 26231.8
 24 04 2013  03 58  -21.0758 26006.3 -03430.6 -07.5147 26231.6
 24 04 2013  03 59  -21.0751 26006.0 -03430.4 -07.5143 26231.3
 24 04 2013  04 00  -21.0743 26005.6 -03430.1 -07.5139 26230.9
 24 04 2013  04 01  -21.0735 26005.3 -03429.9 -07.5136 26230.5
 24 04 2013  04 02  -21.0725 26005.4 -03430.0 -07.5136 26230.6
 24 04 2013  04 03  -21.0719 26005.5 -03430.1 -07.5139 26230.7
 24 04 2013  04 04  -21.0714 26005.6 -03430.3 -07.5142 26230.9
 24 04 2013  04 05  -21.0712 26005.6 -03430.3 -07.5143 26230.9
 24 04 2013  04 06  -21.0710 26005.6 -03430.4 -07.5144 26230.8
 24 04 2013  04 07  -21.0706 26005.5 -03430.4 -07.5145 26230.8
 24 04 2013  04 08  -21.0703 26005.5 -03430.5 -07.5146 26230.8
 24 04 2013  04 09  -21.0701 26005.5 -03430.5 -07.5148 26230.8
 24 04 2013  04 10  -21.0699 26005.5 -03430.6 -07.5149 26230.8
 24 04 2013  04 11  -21.0696 26005.4 -03430.6 -07.5150 26230.7
 24 04 2013  04 12  -21.0695 26005.3 -03430.6 -07.5151 26230.6
 24 04 2013  04 13  -21.0698 26005.3 -03430.7 -07.5153 26230.7
 24 04 2013  04 14  -21.0702 26005.3 -03430.8 -07.5154 26230.6
 24 04 2013  04 15  -21.0706 26005.3 -03430.8 -07.5155 26230.7
 24 04 2013  04 16  -21.0709 26005.4 -03430.9 -07.5157 26230.7
 24 04 2013  04 17  -21.0711 26005.4 -03430.9 -07.5157 26230.7
 24 04 2013  04 18  -21.0714 26005.5 -03431.0 -07.5159 26230.9
 24 04 2013  04 19  -21.0717 26005.4 -03431.0 -07.5159 26230.8
 24 04 2013  04 20  -21.0716 26005.2 -03430.9 -07.5158 26230.6
 24 04 2013  04 21  -21.0714 26005.0 -03430.8 -07.5155 26230.3
 24 04 2013  04 22  -21.0712 26004.8 -03430.7 -07.5154 26230.2
 24 04 2013  04 23  -21.0709 26004.8 -03430.7 -07.5153 26230.1
 24 04 2013  04 24  -21.0704 26004.7 -03430.7 -07.5153 26230.1
 24 04 2013  04 25  -21.0697 26004.9 -03430.7 -07.5155 26230.2
 24 04 2013  04 26  -21.0693 26005.1 -03430.9 -07.5157 26230.4
 24 04 2013  04 27  -21.0690 26005.2 -03431.0 -07.5159 26230.5
 24 04 2013  04 28  -21.0687 26005.2 -03431.1 -07.5161 26230.6
 24 04 2013  04 29  -21.0684 26005.2 -03431.1 -07.5161 26230.6
 24 04 2013  04 30  -21.0683 26005.2 -03431.1 -07.5161 26230.5
 24 04 2013  04 31  -21.0683 26005.1 -03431.2 -07.5163 26230.5
 24 04 2013  04 32  -21.0682 26005.0 -03431.1 -07.5163 26230.4
 24 04 2013  04 33  -21.0681 26004.9 -03431.1 -07.5162 26230.3
 24 04 2013  04 34  -21.0681 26004.7 -03431.1 -07.5162 26230.1
 24 04 2013  04 35  -21.0682 26004.5 -03431.0 -07.5161 26229.9
 24 04 2013  04 36  -21.0685 26004.2 -03430.9 -07.5159 26229.5
 24 04 2013  04 37  -21.0685 26003.8 -03430.8 -07.5158 26229.2
 24 04 2013  04 38  -21.0687 26003.7 -03430.7 -07.5158 26229.1
 24 04 2013  04 39  -21.0685 26003.9 -03430.8 -07.5159 26229.2
 24 04 2013  04 40  -21.0680 26004.0 -03430.9 -07.5161 26229.3
 24 04 2013  04 41  -21.0678 26004.2 -03431.1 -07.5164 26229.5
 24 04 2013  04 42  -21.0682 26004.5 -03431.3 -07.5167 26229.9
 24 04 2013  04 43  -21.0684 26005.0 -03431.6 -07.5172 26230.5
 24 04 2013  04 44  -21.0680 26005.7 -03432.0 -07.5178 26231.2
 24 04 2013  04 45  -21.0678 26006.2 -03432.2 -07.5181 26231.7
 24 04 2013  04 46  -21.0679 26006.3 -03432.3 -07.5183 26231.9
 24 04 2013  04 47  -21.0683 26006.4 -03432.3 -07.5183 26231.9
 24 04 2013  04 48  -21.0690 26006.3 -03432.2 -07.5182 26231.8
 24 04 2013  04 49  -21.0694 26006.1 -03432.1 -07.5180 26231.6
 24 04 2013  04 50  -21.0698 26005.8 -03431.9 -07.5177 26231.3
 24 04 2013  04 51  -21.0703 26005.5 -03431.7 -07.5174 26231.0
 24 04 2013  04 52  -21.0708 26005.1 -03431.5 -07.5170 26230.5
 24 04 2013  04 53  -21.0713 26004.7 -03431.3 -07.5166 26230.1
 24 04 2013  04 54  -21.0715 26004.3 -03431.1 -07.5163 26229.7
 24 04 2013  04 55  -21.0715 26004.1 -03431.0 -07.5162 26229.5
 24 04 2013  04 56  -21.0716 26004.1 -03431.0 -07.5163 26229.5
 24 04 2013  04 57  -21.0717 26004.2 -03431.1 -07.5165 26229.6
 24 04 2013  04 58  -21.0716 26004.4 -03431.2 -07.5166 26229.8
 24 04 2013  04 59  -21.0716 26004.5 -03431.3 -07.5168 26229.9
 24 04 2013  05 00  -21.0712 26004.9 -03431.5 -07.5170 26230.3
 24 04 2013  05 01  -21.0709 26005.3 -03431.7 -07.5174 26230.7
 24 04 2013  05 02  -21.0706 26005.7 -03431.9 -07.5178 26231.2
 24 04 2013  05 03  -21.0706 26006.1 -03432.2 -07.5182 26231.6
 24 04 2013  05 04  -21.0706 26006.4 -03432.3 -07.5185 26232.0
 24 04 2013  05 05  -21.0706 26006.6 -03432.4 -07.5186 26232.1
 24 04 2013  05 06  -21.0702 26006.7 -03432.4 -07.5186 26232.2
 24 04 2013  05 07  -21.0700 26006.8 -03432.5 -07.5186 26232.3
 24 04 2013  05 08  -21.0699 26006.9 -03432.5 -07.5187 26232.4
 24 04 2013  05 09  -21.0696 26007.0 -03432.5 -07.5187 26232.6
 24 04 2013  05 10  -21.0690 26007.2 -03432.6 -07.5188 26232.8
 24 04 2013  05 11  -21.0686 26007.5 -03432.7 -07.5190 26233.0
 24 04 2013  05 12  -21.0681 26007.6 -03432.8 -07.5191 26233.2
 24 04 2013  05 13  -21.0675 26007.7 -03432.8 -07.5191 26233.3
 24 04 2013  05 14  -21.0669 26007.8 -03432.9 -07.5192 26233.4
 24 04 2013  05 15  -21.0664 26007.9 -03432.9 -07.5192 26233.5
 24 04 2013  05 16  -21.0659 26008.2 -03433.1 -07.5195 26233.8
 24 04 2013  05 17  -21.0653 26008.8 -03433.4 -07.5200 26234.4
 24 04 2013  05 18  -21.0648 26009.3 -03433.6 -07.5204 26235.0
 24 04 2013  05 19  -21.0643 26009.6 -03433.8 -07.5207 26235.3
 24 04 2013  05 20  -21.0638 26009.8 -03433.9 -07.5209 26235.5
 24 04 2013  05 21  -21.0634 26009.9 -03434.0 -07.5210 26235.7
 24 04 2013  05 22  -21.0634 26010.0 -03434.0 -07.5211 26235.8
 24 04 2013  05 23  -21.0634 26010.1 -03434.1 -07.5212 26235.8
 24 04 2013  05 24  -21.0634 26010.2 -03434.1 -07.5212 26236.0
 24 04 2013  05 25  -21.0634 26010.6 -03434.3 -07.5215 26236.4
 24 04 2013  05 26  -21.0630 26011.0 -03434.5 -07.5217 26236.8
 24 04 2013  05 27  -21.0627 26011.4 -03434.6 -07.5220 26237.2
 24 04 2013  05 28  -21.0626 26011.8 -03434.8 -07.5223 26237.6
 24 04 2013  05 29  -21.0621 26012.4 -03435.1 -07.5227 26238.2
 24 04 2013  05 30  -21.0615 26012.9 -03435.3 -07.5230 26238.8
 24 04 2013  05 31  -21.0611 26013.4 -03435.5 -07.5232 26239.3
 24 04 2013  05 32  -21.0607 26013.6 -03435.6 -07.5234 26239.5
 24 04 2013  05 33  -21.0602 26013.8 -03435.6 -07.5233 26239.7
 24 04 2013  05 34  -21.0594 26014.1 -03435.6 -07.5234 26240.0
 24 04 2013  05 35  -21.0588 26014.3 -03435.7 -07.5234 26240.2
 24 04 2013  05 36  -21.0584 26014.4 -03435.7 -07.5235 26240.3
 24 04 2013  05 37  -21.0580 26014.5 -03435.7 -07.5235 26240.4
 24 04 2013  05 38  -21.0574 26014.6 -03435.7 -07.5235 26240.5
 24 04 2013  05 39  -21.0568 26014.8 -03435.8 -07.5236 26240.7
 24 04 2013  05 40  -21.0563 26014.9 -03435.8 -07.5236 26240.8
 24 04 2013  05 41  -21.0558 26014.9 -03435.8 -07.5236 26240.8
 24 04 2013  05 42  -21.0554 26015.1 -03435.9 -07.5237 26241.0
 24 04 2013  05 43  -21.0550 26015.2 -03436.0 -07.5238 26241.2
 24 04 2013  05 44  -21.0547 26015.2 -03436.0 -07.5238 26241.1
 24 04 2013  05 45  -21.0543 26015.2 -03435.9 -07.5237 26241.1
 24 04 2013  05 46  -21.0540 26015.2 -03436.0 -07.5238 26241.2
 24 04 2013  05 47  -21.0538 26015.4 -03436.0 -07.5239 26241.3
 24 04 2013  05 48  -21.0534 26015.6 -03436.1 -07.5240 26241.5
 24 04 2013  05 49  -21.0530 26015.7 -03436.2 -07.5242 26241.7
 24 04 2013  05 50  -21.0527 26015.8 -03436.3 -07.5242 26241.7
 24 04 2013  05 51  -21.0527 26015.8 -03436.3 -07.5243 26241.7
 24 04 2013  05 52  -21.0531 26015.9 -03436.3 -07.5243 26241.9
 24 04 2013  05 53  -21.0537 26016.1 -03436.4 -07.5246 26242.0
 24 04 2013  05 54  -21.0543 26016.1 -03436.5 -07.5247 26242.1
 24 04 2013  05 55  -21.0546 26016.1 -03436.5 -07.5246 26242.1
 24 04 2013  05 56  -21.0547 26015.7 -03436.2 -07.5242 26241.7
 24 04 2013  05 57  -21.0545 26015.4 -03436.0 -07.5238 26241.4
 24 04 2013  05 58  -21.0542 26015.2 -03435.8 -07.5234 26241.1
 24 04 2013  05 59  -21.0542 26014.9 -03435.6 -07.5232 26240.8
 24 04 2013  06 00  -21.0541 26014.7 -03435.5 -07.5230 26240.5
 24 04 2013  06 01  -21.0540 26014.5 -03435.5 -07.5229 26240.4
 24 04 2013  06 02  -21.0532 26014.9 -03435.6 -07.5231 26240.7
 24 04 2013  06 03  -21.0525 26015.2 -03435.8 -07.5234 26241.1
 24 04 2013  06 04  -21.0517 26015.7 -03436.0 -07.5238 26241.6
 24 04 2013  06 05  -21.0508 26016.2 -03436.3 -07.5242 26242.1
 24 04 2013  06 06  -21.0499 26016.7 -03436.5 -07.5246 26242.7
 24 04 2013  06 07  -21.0490 26017.2 -03436.8 -07.5250 26243.2
 24 04 2013  06 08  -21.0485 26017.7 -03437.0 -07.5253 26243.7
 24 04 2013  06 09  -21.0483 26018.3 -03437.3 -07.5258 26244.3
 24 04 2013  06 10  -21.0483 26018.6 -03437.5 -07.5261 26244.7
 24 04 2013  06 11  -21.0489 26018.9 -03437.7 -07.5264 26245.0
 24 04 2013  06 12  -21.0497 26019.1 -03437.7 -07.5265 26245.2
 24 04 2013  06 13  -21.0504 26019.3 -03437.8 -07.5267 26245.5
 24 04 2013  06 14  -21.0511 26019.8 -03438.0 -07.5268 26246.0
 24 04 2013  06 15  -21.0515 26020.2 -03438.1 -07.5270 26246.3
 24 04 2013  06 16  -21.0518 26020.4 -03438.1 -07.5269 26246.5
 24 04 2013  06 17  -21.0518 26020.5 -03438.0 -07.5267 26246.6
 24 04 2013  06 18  -21.0516 26020.6 -03437.9 -07.5265 26246.7
 24 04 2013  06 19  -21.0515 26020.5 -03437.8 -07.5262 26246.6
 24 04 2013  06 20  -21.0512 26020.4 -03437.6 -07.5259 26246.5
 24 04 2013  06 21  -21.0511 26020.4 -03437.5 -07.5257 26246.5
 24 04 2013  06 22  -21.0510 26020.5 -03437.5 -07.5257 26246.5
 24 04 2013  06 23  -21.0508 26020.6 -03437.5 -07.5256 26246.7
 24 04 2013  06 24  -21.0506 26020.8 -03437.6 -07.5257 26246.9
 24 04 2013  06 25  -21.0503 26020.9 -03437.5 -07.5256 26247.0
 24 04 2013  06 26  -21.0497 26020.8 -03437.4 -07.5253 26246.9
 24 04 2013  06 27  -21.0492 26020.5 -03437.2 -07.5250 26246.6
 24 04 2013  06 28  -21.0487 26020.1 -03437.0 -07.5246 26246.1
 24 04 2013  06 29  -21.0481 26019.9 -03436.8 -07.5243 26245.9
 24 04 2013  06 30  -21.0475 26019.9 -03436.8 -07.5243 26245.9
 24 04 2013  06 31  -21.0470 26020.1 -03436.9 -07.5244 26246.1
 24 04 2013  06 32  -21.0465 26020.2 -03437.0 -07.5246 26246.3
 24 04 2013  06 33  -21.0459 26020.4 -03437.1 -07.5248 26246.5
 24 04 2013  06 34  -21.0453 26020.5 -03437.2 -07.5249 26246.6
 24 04 2013  06 35  -21.0448 26020.5 -03437.2 -07.5249 26246.5
 24 04 2013  06 36  -21.0444 26020.4 -03437.1 -07.5248 26246.5
 24 04 2013  06 37  -21.0441 26020.6 -03437.2 -07.5250 26246.6
 24 04 2013  06 38  -21.0437 26020.9 -03437.4 -07.5253 26247.0
 24 04 2013  06 39  -21.0432 26021.3 -03437.6 -07.5257 26247.3
 24 04 2013  06 40  -21.0427 26021.4 -03437.7 -07.5258 26247.5
 24 04 2013  06 41  -21.0420 26021.3 -03437.6 -07.5257 26247.4
 24 04 2013  06 42  -21.0413 26021.2 -03437.6 -07.5255 26247.3
 24 04 2013  06 43  -21.0407 26021.3 -03437.6 -07.5256 26247.4
 24 04 2013  06 44  -21.0399 26021.5 -03437.7 -07.5258 26247.6
 24 04 2013  06 45  -21.0392 26021.7 -03437.8 -07.5259 26247.8
 24 04 2013  06 46  -21.0383 26021.9 -03438.0 -07.5262 26248.1
 24 04 2013  06 47  -21.0375 26022.1 -03438.0 -07.5263 26248.2
 24 04 2013  06 48  -21.0368 26022.0 -03438.1 -07.5264 26248.1
 24 04 2013  06 49  -21.0360 26022.0 -03438.1 -07.5264 26248.1
 24 04 2013  06 50  -21.0354 26022.0 -03438.1 -07.5265 26248.1
 24 04 2013  06 51  -21.0351 26021.8 -03438.1 -07.5264 26247.9
 24 04 2013  06 52  -21.0351 26021.6 -03438.0 -07.5264 26247.8
 24 04 2013  06 53  -21.0351 26021.7 -03438.1 -07.5265 26247.8
 24 04 2013  06 54  -21.0353 26021.7 -03438.2 -07.5267 26247.9
 24 04 2013  06 55  -21.0355 26021.8 -03438.2 -07.5268 26247.9
 24 04 2013  06 56  -21.0360 26021.6 -03438.1 -07.5267 26247.7
 24 04 2013  06 57  -21.0364 26021.2 -03438.0 -07.5264 26247.3
 24 04 2013  06 58  -21.0366 26020.8 -03437.7 -07.5260 26246.9
 24 04 2013  06 59  -21.0369 26020.5 -03437.5 -07.5256 26246.6
 24 04 2013  07 00  -21.0375 26020.4 -03437.5 -07.5256 26246.5
 24 04 2013  07 01  -21.0382 26020.5 -03437.6 -07.5258 26246.6
 24 04 2013  07 02  -21.0389 26020.7 -03437.7 -07.5260 26246.8
 24 04 2013  07 03  -21.0395 26020.9 -03437.8 -07.5261 26247.0
 24 04 2013  07 04  -21.0401 26021.1 -03437.9 -07.5262 26247.2
 24 04 2013  07 05  -21.0403 26021.7 -03438.1 -07.5265 26247.8
 24 04 2013  07 06  -21.0402 26022.6 -03438.5 -07.5271 26248.8
 24 04 2013  07 07  -21.0404 26023.4 -03438.9 -07.5278 26249.7
 24 04 2013  07 08  -21.0405 26023.9 -03439.1 -07.5281 26250.2
 24 04 2013  07 09  -21.0407 26024.0 -03439.1 -07.5280 26250.2
 24 04 2013  07 10  -21.0407 26023.7 -03438.8 -07.5275 26250.0
 24 04 2013  07 11  -21.0405 26023.3 -03438.4 -07.5268 26249.5
 24 04 2013  07 12  -21.0405 26022.8 -03438.0 -07.5261 26248.9
 24 04 2013  07 13  -21.0407 26022.1 -03437.6 -07.5253 26248.2
 24 04 2013  07 14  -21.0408 26022.1 -03437.4 -07.5249 26248.1
 24 04 2013  07 15  -21.0405 26023.0 -03437.7 -07.5254 26249.1
 24 04 2013  07 16  -21.0397 26024.1 -03438.3 -07.5263 26250.2
 24 04 2013  07 17  -21.0392 26025.0 -03438.8 -07.5271 26251.2
 24 04 2013  07 18  -21.0384 26025.5 -03439.1 -07.5276 26251.8
 24 04 2013  07 19  -21.0374 26025.8 -03439.1 -07.5275 26252.0
 24 04 2013  07 20  -21.0363 26025.7 -03438.9 -07.5272 26251.9
 24 04 2013  07 21  -21.0353 26025.1 -03438.5 -07.5265 26251.3
 24 04 2013  07 22  -21.0346 26024.6 -03438.2 -07.5259 26250.7
 24 04 2013  07 23  -21.0342 26023.6 -03437.7 -07.5251 26249.7
 24 04 2013  07 24  -21.0344 26022.7 -03437.2 -07.5243 26248.8
 24 04 2013  07 25  -21.0346 26022.1 -03436.8 -07.5237 26248.1
 24 04 2013  07 26  -21.0349 26021.5 -03436.6 -07.5234 26247.4
 24 04 2013  07 27  -21.0356 26020.6 -03436.3 -07.5229 26246.5
 24 04 2013  07 28  -21.0364 26020.0 -03436.0 -07.5226 26245.9
 24 04 2013  07 29  -21.0371 26019.7 -03435.9 -07.5224 26245.6
 24 04 2013  07 30  -21.0376 26020.2 -03436.2 -07.5229 26246.1
 24 04 2013  07 31  -21.0376 26020.9 -03436.7 -07.5237 26246.9
 24 04 2013  07 32  -21.0376 26021.5 -03437.1 -07.5244 26247.5
 24 04 2013  07 33  -21.0376 26021.7 -03437.3 -07.5247 26247.7
 24 04 2013  07 34  -21.0375 26022.0 -03437.4 -07.5249 26248.1
 24 04 2013  07 35  -21.0369 26022.3 -03437.4 -07.5250 26248.3
 24 04 2013  07 36  -21.0364 26022.5 -03437.5 -07.5251 26248.5
 24 04 2013  07 37  -21.0361 26022.8 -03437.7 -07.5253 26248.9
 24 04 2013  07 38  -21.0358 26023.1 -03437.8 -07.5256 26249.2
 24 04 2013  07 39  -21.0351 26023.3 -03437.9 -07.5256 26249.4
 24 04 2013  07 40  -21.0345 26023.3 -03437.8 -07.5255 26249.4
 24 04 2013  07 41  -21.0335 26023.2 -03437.7 -07.5253 26249.3
 24 04 2013  07 42  -21.0324 26023.3 -03437.7 -07.5252 26249.4
 24 04 2013  07 43  -21.0313 26023.4 -03437.7 -07.5253 26249.5
 24 04 2013  07 44  -21.0305 26023.6 -03437.8 -07.5255 26249.7
 24 04 2013  07 45  -21.0299 26023.4 -03437.8 -07.5255 26249.5
 24 04 2013  07 46  -21.0295 26022.8 -03437.5 -07.5250 26248.9
 24 04 2013  07 47  -21.0292 26022.4 -03437.3 -07.5246 26248.4
 24 04 2013  07 48  -21.0289 26022.0 -03437.0 -07.5242 26248.0
 24 04 2013  07 49  -21.0288 26021.9 -03437.0 -07.5241 26247.9
 24 04 2013  07 50  -21.0288 26022.2 -03437.2 -07.5244 26248.2
 24 04 2013  07 51  -21.0289 26022.2 -03437.3 -07.5246 26248.2
 24 04 2013  07 52  -21.0290 26022.0 -03437.3 -07.5247 26248.1
 24 04 2013  07 53  -21.0289 26022.2 -03437.3 -07.5247 26248.3
 24 04 2013  07 54  -21.0285 26022.4 -03437.5 -07.5250 26248.5
 24 04 2013  07 55  -21.0284 26022.8 -03437.7 -07.5253 26248.9
 24 04 2013  07 56  -21.0284 26023.4 -03438.0 -07.5258 26249.5
 24 04 2013  07 57  -21.0287 26023.8 -03438.2 -07.5262 26250.0
 24 04 2013  07 58  -21.0285 26024.1 -03438.4 -07.5264 26250.3
 24 04 2013  07 59  -21.0279 26024.3 -03438.4 -07.5265 26250.4
 24 04 2013  08 00  -21.0275 26024.4 -03438.4 -07.5264 26250.6
 24 04 2013  08 01  -21.0269 26024.6 -03438.4 -07.5264 26250.8
 24 04 2013  08 02  -21.0264 26024.8 -03438.5 -07.5265 26251.0
 24 04 2013  08 03  -21.0254 26025.0 -03438.6 -07.5266 26251.2
 24 04 2013  08 04  -21.0243 26025.3 -03438.6 -07.5267 26251.5
 24 04 2013  08 05  -21.0230 26025.6 -03438.8 -07.5269 26251.8
 24 04 2013  08 06  -21.0222 26025.9 -03438.8 -07.5269 26252.1
 24 04 2013  08 07  -21.0219 26025.9 -03438.9 -07.5270 26252.1
 24 04 2013  08 08  -21.0221 26025.7 -03438.8 -07.5270 26251.9
 24 04 2013  08 09  -21.0225 26025.7 -03438.8 -07.5269 26251.9
 24 04 2013  08 10  -21.0224 26025.7 -03438.8 -07.5269 26251.9
 24 04 2013  08 11  -21.0225 26025.9 -03438.8 -07.5269 26252.2
 24 04 2013  08 12  -21.0221 26026.6 -03439.1 -07.5273 26252.8
 24 04 2013  08 13  -21.0211 26027.1 -03439.3 -07.5276 26253.4
 24 04 2013  08 14  -21.0201 26027.6 -03439.6 -07.5280 26253.9
 24 04 2013  08 15  -21.0197 26028.2 -03439.9 -07.5285 26254.5
 24 04 2013  08 16  -21.0193 26028.3 -03439.9 -07.5286 26254.6
 24 04 2013  08 17  -21.0190 26028.4 -03439.9 -07.5284 26254.7
 24 04 2013  08 18  -21.0186 26028.5 -03439.9 -07.5284 26254.8
 24 04 2013  08 19  -21.0184 26028.7 -03439.9 -07.5284 26255.0
 24 04 2013  08 20  -21.0182 26028.9 -03439.9 -07.5284 26255.2
 24 04 2013  08 21  -21.0180 26029.0 -03439.9 -07.5285 26255.4
 24 04 2013  08 22  -21.0174 26029.2 -03439.9 -07.5284 26255.5
 24 04 2013  08 23  -21.0170 26029.6 -03440.1 -07.5286 26256.0
 24 04 2013  08 24  -21.0169 26029.9 -03440.2 -07.5288 26256.2
 24 04 2013  08 25  -21.0167 26029.9 -03440.2 -07.5288 26256.3
 24 04 2013  08 26  -21.0163 26029.8 -03440.1 -07.5285 26256.2
 24 04 2013  08 27  -21.0162 26029.8 -03440.0 -07.5283 26256.1
 24 04 2013  08 28  -21.0164 26029.6 -03439.8 -07.5279 26255.9
 24 04 2013  08 29  -21.0164 26029.4 -03439.6 -07.5277 26255.7
 24 04 2013  08 30  -21.0166 26029.6 -03439.7 -07.5277 26255.8
 24 04 2013  08 31  -21.0167 26029.6 -03439.6 -07.5276 26255.9
 24 04 2013  08 32  -21.0167 26029.7 -03439.6 -07.5275 26255.9
 24 04 2013  08 33  -21.0166 26029.8 -03439.7 -07.5276 26256.1
 24 04 2013  08 34  -21.0163 26030.1 -03439.8 -07.5278 26256.4
 24 04 2013  08 35  -21.0162 26030.3 -03439.9 -07.5280 26256.6
 24 04 2013  08 36  -21.0158 26030.4 -03439.9 -07.5280 26256.7
 24 04 2013  08 37  -21.0153 26030.5 -03439.9 -07.5279 26256.8
 24 04 2013  08 38  -21.0144 26030.6 -03439.9 -07.5279 26256.9
 24 04 2013  08 39  -21.0132 26031.0 -03440.0 -07.5281 26257.3
 24 04 2013  08 40  -21.0115 26031.5 -03440.3 -07.5286 26257.9
 24 04 2013  08 41  -21.0090 26031.8 -03440.6 -07.5292 26258.2
 24 04 2013  08 42  -21.0063 26032.4 -03441.0 -07.5299 26258.8
 24 04 2013  08 43  -21.0044 26032.8 -03441.4 -07.5305 26259.3
 24 04 2013  08 44  -21.0034 26033.0 -03441.6 -07.5309 26259.5
 24 04 2013  08 45  -21.0030 26032.8 -03441.6 -07.5309 26259.3
 24 04 2013  08 46  -21.0033 26032.7 -03441.4 -07.5306 26259.2
 24 04 2013  08 47  -21.0032 26032.4 -03441.2 -07.5302 26258.9
 24 04 2013  08 48  -21.0038 26032.3 -03441.2 -07.5302 26258.7
 24 04 2013  08 49  -21.0047 26032.3 -03441.4 -07.5306 26258.8
 24 04 2013  08 50  -21.0048 26032.5 -03441.4 -07.5307 26259.0
 24 04 2013  08 51  -21.0048 26032.8 -03441.6 -07.5310 26259.3
 24 04 2013  08 52  -21.0043 26033.0 -03441.7 -07.5312 26259.5
 24 04 2013  08 53  -21.0034 26033.6 -03442.0 -07.5315 26260.1
 24 04 2013  08 54  -21.0032 26034.7 -03442.6 -07.5326 26261.3
 24 04 2013  08 55  -21.0028 26035.2 -03442.9 -07.5332 26261.9
 24 04 2013  08 56  -21.0023 26035.5 -03443.1 -07.5333 26262.2
 24 04 2013  08 57  -21.0021 26035.6 -03443.1 -07.5334 26262.3
 24 04 2013  08 58  -21.0020 26035.5 -03443.0 -07.5332 26262.2
 24 04 2013  08 59  -21.0028 26035.0 -03442.7 -07.5327 26261.7
 24 04 2013  09 00  -21.0043 26034.8 -03442.4 -07.5320 26261.4
 24 04 2013  09 01  -21.0055 26034.7 -03442.0 -07.5313 26261.3
 24 04 2013  09 02  -21.0066 26034.5 -03441.7 -07.5307 26261.0
 24 04 2013  09 03  -21.0073 26034.5 -03441.5 -07.5303 26260.9
 24 04 2013  09 04  -21.0074 26034.4 -03441.5 -07.5302 26260.9
 24 04 2013  09 05  -21.0069 26034.5 -03441.5 -07.5302 26261.0
 24 04 2013  09 06  -21.0061 26034.7 -03441.6 -07.5303 26261.2
 24 04 2013  09 07  -21.0048 26035.0 -03441.6 -07.5304 26261.5
 24 04 2013  09 08  -21.0039 26035.2 -03441.7 -07.5306 26261.7
 24 04 2013  09 09  -21.0036 26035.2 -03441.8 -07.5306 26261.7
 24 04 2013  09 10  -21.0030 26035.2 -03441.8 -07.5307 26261.8
 24 04 2013  09 11  -21.0017 26035.4 -03441.8 -07.5307 26261.9
 24 04 2013  09 12  -21.0009 26035.6 -03442.0 -07.5311 26262.2
 24 04 2013  09 13  -21.0008 26036.1 -03442.4 -07.5318 26262.7
 24 04 2013  09 14  -21.0002 26036.5 -03442.7 -07.5324 26263.1
 24 04 2013  09 15  -20.9995 26036.8 -03442.9 -07.5327 26263.4
 24 04 2013  09 16  -20.9988 26037.1 -03443.0 -07.5328 26263.8
 24 04 2013  09 17  -20.9990 26037.4 -03443.2 -07.5331 26264.1
 24 04 2013  09 18  -20.9984 26037.6 -03443.2 -07.5331 26264.3
 24 04 2013  09 19  -20.9976 26037.8 -03443.2 -07.5330 26264.4
 24 04 2013  09 20  -20.9974 26038.1 -03443.3 -07.5331 26264.8
 24 04 2013  09 21  -20.9972 26038.7 -03443.5 -07.5334 26265.4
 24 04 2013  09 22  -20.9977 26038.9 -03443.6 -07.5336 26265.6
 24 04 2013  09 23  -20.9987 26039.0 -03443.7 -07.5338 26265.8
 24 04 2013  09 24  -20.9999 26039.2 -03443.7 -07.5337 26265.9
 24 04 2013  09 25  -21.0000 26039.2 -03443.5 -07.5333 26265.9
 24 04 2013  09 26  -21.0001 26039.2 -03443.4 -07.5330 26265.9
 24 04 2013  09 27  -21.0017 26039.3 -03443.4 -07.5330 26266.0
 24 04 2013  09 28  -21.0040 26039.6 -03443.5 -07.5332 26266.3
 24 04 2013  09 29  -21.0052 26039.5 -03443.4 -07.5330 26266.2
 24 04 2013  09 30  -21.0061 26039.5 -03443.2 -07.5326 26266.1
 24 04 2013  09 31  -21.0070 26039.5 -03443.0 -07.5321 26266.1
 24 04 2013  09 32  -21.0073 26039.6 -03442.8 -07.5316 26266.2
 24 04 2013  09 33  -21.0067 26039.6 -03442.6 -07.5311 26266.2
 24 04 2013  09 34  -21.0076 26039.5 -03442.3 -07.5306 26266.0
 24 04 2013  09 35  -21.0083 26039.3 -03442.2 -07.5305 26265.9
 24 04 2013  09 36  -21.0078 26039.4 -03442.2 -07.5305 26265.9
 24 04 2013  09 37  -21.0080 26039.3 -03442.1 -07.5303 26265.8
 24 04 2013  09 38  -21.0077 26039.5 -03442.1 -07.5302 26266.0
 24 04 2013  09 39  -21.0078 26039.7 -03442.1 -07.5301 26266.2
 24 04 2013  09 40  -21.0070 26039.6 -03441.8 -07.5294 26266.1
 24 04 2013  09 41  -21.0075 26039.7 -03441.7 -07.5291 26266.2
 24 04 2013  09 42  -21.0078 26040.1 -03441.7 -07.5290 26266.5
 24 04 2013  09 43  -21.0085 26040.4 -03441.7 -07.5290 26266.8
 24 04 2013  09 44  -21.0086 26040.7 -03441.8 -07.5291 26267.2
 24 04 2013  09 45  -21.0098 26041.2 -03442.0 -07.5294 26267.7
 24 04 2013  09 46  -21.0096 26041.6 -03442.1 -07.5296 26268.1
 24 04 2013  09 47  -21.0080 26041.7 -03441.9 -07.5291 26268.2
 24 04 2013  09 48  -21.0073 26041.5 -03441.8 -07.5289 26268.0
 24 04 2013  09 49  -21.0077 26041.8 -03441.9 -07.5289 26268.3
 24 04 2013  09 50  -21.0082 26042.5 -03442.1 -07.5292 26269.0
 24 04 2013  09 51  -21.0085 26043.0 -03442.1 -07.5292 26269.4
 24 04 2013  09 52  -21.0087 26043.2 -03442.1 -07.5290 26269.7
 24 04 2013  09 53  -21.0100 26043.6 -03442.1 -07.5290 26270.1
 24 04 2013  09 54  -21.0098 26043.6 -03442.0 -07.5287 26270.0
 24 04 2013  09 55  -21.0100 26043.8 -03442.1 -07.5289 26270.3
 24 04 2013  09 56  -21.0098 26044.3 -03442.3 -07.5292 26270.8
 24 04 2013  09 57  -21.0077 26044.7 -03442.3 -07.5291 26271.2
 24 04 2013  09 58  -21.0054 26044.7 -03442.0 -07.5284 26271.1
 24 04 2013  09 59  -21.0047 26044.7 -03441.8 -07.5281 26271.2
 24 04 2013  10 00  -21.0047 26044.8 -03441.8 -07.5279 26271.2
 24 04 2013  10 01  -21.0057 26045.3 -03442.0 -07.5282 26271.8
 24 04 2013  10 02  -21.0057 26046.1 -03442.2 -07.5285 26272.6
 24 04 2013  10 03  -21.0055 26046.5 -03442.3 -07.5285 26273.0
 24 04 2013  10 04  -21.0059 26047.5 -03442.5 -07.5287 26274.0
 24 04 2013  10 05  -21.0055 26048.5 -03442.8 -07.5290 26275.0
 24 04 2013  10 06  -21.0046 26049.3 -03442.9 -07.5290 26275.8
 24 04 2013  10 07  -21.0044 26050.1 -03443.0 -07.5291 26276.6
 24 04 2013  10 08  -21.0050 26050.6 -03443.2 -07.5292 26277.2
 24 04 2013  10 09  -21.0061 26051.3 -03443.3 -07.5293 26277.9
 24 04 2013  10 10  -21.0066 26052.0 -03443.3 -07.5292 26278.5
 24 04 2013  10 11  -21.0061 26052.1 -03443.0 -07.5284 26278.6
 24 04 2013  10 12  -21.0062 26052.2 -03442.7 -07.5277 26278.7
 24 04 2013  10 13  -21.0061 26052.5 -03442.5 -07.5274 26279.0
 24 04 2013  10 14  -21.0063 26053.1 -03442.5 -07.5271 26279.5
 24 04 2013  10 15  -21.0068 26053.4 -03442.4 -07.5269 26279.9
 24 04 2013  10 16  -21.0073 26053.9 -03442.4 -07.5267 26280.3
 24 04 2013  10 17  -21.0065 26054.3 -03442.3 -07.5263 26280.7
 24 04 2013  10 18  -21.0053 26054.7 -03442.2 -07.5259 26281.1
 24 04 2013  10 19  -21.0051 26055.1 -03442.0 -07.5256 26281.4
 24 04 2013  10 20  -21.0054 26055.4 -03441.9 -07.5252 26281.8
 24 04 2013  10 21  -21.0057 26055.8 -03441.8 -07.5249 26282.2
 24 04 2013  10 22  -21.0075 26056.2 -03441.8 -07.5247 26282.6
 24 04 2013  10 23  -21.0095 26056.7 -03441.8 -07.5245 26283.0
 24 04 2013  10 24  -21.0103 26057.1 -03441.6 -07.5241 26283.4
 24 04 2013  10 25  -21.0109 26057.6 -03441.5 -07.5236 26283.9
 24 04 2013  10 26  -21.0103 26058.2 -03441.4 -07.5233 26284.5
 24 04 2013  10 27  -21.0074 26059.1 -03441.5 -07.5231 26285.4
 24 04 2013  10 28  -21.0044 26059.4 -03441.5 -07.5232 26285.7
 24 04 2013  10 29  -21.0036 26060.2 -03442.0 -07.5239 26286.5
 24 04 2013  10 30  -21.0033 26062.1 -03442.8 -07.5252 26288.5
 24 04 2013  10 31  -21.0036 26064.0 -03443.6 -07.5264 26290.5
 24 04 2013  10 32  -21.0068 26065.1 -03444.0 -07.5269 26291.7
 24 04 2013  10 33  -21.0109 26066.0 -03443.9 -07.5265 26292.5
 24 04 2013  10 34  -21.0131 26066.7 -03443.4 -07.5252 26293.2
 24 04 2013  10 35  -21.0154 26066.9 -03442.7 -07.5236 26293.2
 24 04 2013  10 36  -21.0171 26066.7 -03441.8 -07.5218 26292.9
 24 04 2013  10 37  -21.0182 26066.3 -03441.0 -07.5200 26292.5
 24 04 2013  10 38  -21.0201 26065.5 -03440.0 -07.5182 26291.5
 24 04 2013  10 39  -21.0206 26064.8 -03439.1 -07.5164 26290.7
 24 04 2013  10 40  -21.0235 26064.4 -03438.4 -07.5151 26290.2
 24 04 2013  10 41  -21.0263 26064.5 -03438.0 -07.5142 26290.3
 24 04 2013  10 42  -21.0273 26063.7 -03437.3 -07.5128 26289.4
 24 04 2013  10 43  -21.0289 26062.7 -03436.5 -07.5115 26288.3
 24 04 2013  10 44  -21.0301 26062.3 -03436.0 -07.5105 26287.8
 24 04 2013  10 45  -21.0283 26061.8 -03435.7 -07.5099 26287.3
 24 04 2013  10 46  -21.0276 26062.8 -03436.2 -07.5106 26288.3
 24 04 2013  10 47  -21.0285 26064.2 -03436.8 -07.5116 26289.8
 24 04 2013  10 48  -21.0295 26064.9 -03436.9 -07.5117 26290.6
 24 04 2013  10 49  -21.0329 26065.1 -03436.5 -07.5107 26290.6
 24 04 2013  10 50  -21.0378 26065.0 -03435.9 -07.5095 26290.4
 24 04 2013  10 51  -21.0414 26062.9 -03434.3 -07.5067 26288.2
 24 04 2013  10 52  -21.0444 26059.5 -03432.3 -07.5032 26284.5
 24 04 2013  10 53  -21.0472 26055.3 -03430.2 -07.5000 26280.1
 24 04 2013  10 54  -21.0480 26051.9 -03428.7 -07.4976 26276.5
 24 04 2013  10 55  -21.0484 26048.8 -03427.7 -07.4962 26273.4
 24 04 2013  10 56  -21.0488 26048.2 -03427.8 -07.4966 26272.8
 24 04 2013  10 57  -21.0489 26047.2 -03427.7 -07.4967 26271.7
 24 04 2013  10 58  -21.0485 26046.8 -03427.7 -07.4970 26271.4
 24 04 2013  10 59  -21.0483 26047.0 -03427.9 -07.4974 26271.6
 24 04 2013  11 00  -21.0482 26047.2 -03428.2 -07.4978 26271.8
 24 04 2013  11 01  -21.0488 26047.5 -03428.4 -07.4981 26272.2
 24 04 2013  11 02  -21.0489 26048.5 -03428.8 -07.4988 26273.2
 24 04 2013  11 03  -21.0491 26048.8 -03428.9 -07.4989 26273.5
 24 04 2013  11 04  -21.0489 26049.6 -03429.0 -07.4989 26274.3
 24 04 2013  11 05  -21.0486 26049.7 -03428.7 -07.4983 26274.3
 24 04 2013  11 06  -21.0492 26049.5 -03428.4 -07.4976 26274.1
 24 04 2013  11 07  -21.0510 26049.1 -03428.0 -07.4970 26273.7
 24 04 2013  11 08  -21.0515 26048.7 -03427.7 -07.4963 26273.2
 24 04 2013  11 09  -21.0517 26049.0 -03427.6 -07.4961 26273.5
 24 04 2013  11 10  -21.0514 26049.0 -03427.5 -07.4958 26273.5
 24 04 2013  11 11  -21.0507 26049.1 -03427.3 -07.4955 26273.6
 24 04 2013  11 12  -21.0496 26049.1 -03427.2 -07.4951 26273.5
 24 04 2013  11 13  -21.0486 26048.9 -03426.9 -07.4946 26273.3
 24 04 2013  11 14  -21.0485 26049.2 -03427.0 -07.4947 26273.7
 24 04 2013  11 15  -21.0484 26049.5 -03427.0 -07.4947 26273.9
 24 04 2013  11 16  -21.0486 26050.0 -03427.2 -07.4948 26274.5
 24 04 2013  11 17  -21.0494 26050.4 -03427.3 -07.4950 26274.9
 24 04 2013  11 18  -21.0498 26050.5 -03427.1 -07.4946 26275.0
 24 04 2013  11 19  -21.0497 26050.9 -03427.0 -07.4943 26275.3
 24 04 2013  11 20  -21.0488 26051.7 -03427.0 -07.4941 26276.1
 24 04 2013  11 21  -21.0475 26053.0 -03427.2 -07.4942 26277.4
 24 04 2013  11 22  -21.0459 26053.9 -03427.4 -07.4942 26278.4
 24 04 2013  11 23  -21.0440 26054.7 -03427.3 -07.4939 26279.2
 24 04 2013  11 24  -21.0428 26055.4 -03427.3 -07.4937 26279.9
 24 04 2013  11 25  -21.0413 26056.5 -03427.4 -07.4936 26280.9
 24 04 2013  11 26  -21.0412 26058.0 -03427.7 -07.4938 26282.5
 24 04 2013  11 27  -21.0412 26059.0 -03427.8 -07.4937 26283.5
 24 04 2013  11 28  -21.0398 26059.4 -03427.6 -07.4930 26283.8
 24 04 2013  11 29  -21.0382 26060.3 -03427.6 -07.4928 26284.7
 24 04 2013  11 30  -21.0369 26061.0 -03427.6 -07.4926 26285.5
 24 04 2013  11 31  -21.0342 26061.9 -03427.6 -07.4925 26286.3
 24 04 2013  11 32  -21.0324 26063.1 -03428.0 -07.4928 26287.6
 24 04 2013  11 33  -21.0325 26065.1 -03428.7 -07.4939 26289.7
 24 04 2013  11 34  -21.0338 26066.4 -03429.1 -07.4944 26291.0
 24 04 2013  11 35  -21.0348 26066.8 -03428.9 -07.4938 26291.3
 24 04 2013  11 36  -21.0362 26067.7 -03428.7 -07.4932 26292.2
 24 04 2013  11 37  -21.0393 26069.6 -03429.1 -07.4935 26294.2
 24 04 2013  11 38  -21.0418 26070.1 -03428.9 -07.4928 26294.7
 24 04 2013  11 39  -21.0430 26070.3 -03428.4 -07.4918 26294.8
 24 04 2013  11 40  -21.0450 26070.2 -03428.0 -07.4908 26294.6
 24 04 2013  11 41  -21.0469 26071.7 -03428.2 -07.4910 26296.2
 24 04 2013  11 42  -21.0485 26072.9 -03428.4 -07.4910 26297.4
 24 04 2013  11 43  -21.0481 26073.9 -03428.4 -07.4907 26298.3
 24 04 2013  11 44  -21.0474 26074.3 -03428.1 -07.4900 26298.7
 24 04 2013  11 45  -21.0486 26073.6 -03427.4 -07.4887 26297.9
 24 04 2013  11 46  -21.0510 26073.1 -03426.7 -07.4873 26297.4
 24 04 2013  11 47  -21.0531 26072.9 -03426.1 -07.4861 26297.0
 24 04 2013  11 48  -21.0545 26072.0 -03425.4 -07.4847 26296.0
 24 04 2013  11 49  -21.0556 26070.4 -03424.6 -07.4834 26294.4
 24 04 2013  11 50  -21.0546 26069.8 -03424.2 -07.4828 26293.7
 24 04 2013  11 51  -21.0533 26069.2 -03424.0 -07.4825 26293.1
 24 04 2013  11 52  -21.0528 26068.9 -03423.9 -07.4825 26292.8
 24 04 2013  11 53  -21.0531 26068.9 -03423.9 -07.4824 26292.7
 24 04 2013  11 54  -21.0523 26069.1 -03424.0 -07.4825 26293.0
 24 04 2013  11 55  -21.0496 26068.7 -03423.7 -07.4821 26292.6
 24 04 2013  11 56  -21.0473 26068.1 -03423.6 -07.4821 26291.9
 24 04 2013  11 57  -21.0462 26069.4 -03424.2 -07.4830 26293.3
 24 04 2013  11 58  -21.0452 26071.1 -03424.8 -07.4838 26295.1
 24 04 2013  11 59  -21.0439 26072.7 -03425.2 -07.4841 26296.8
 24 04 2013  12 00  -21.0416 26075.2 -03425.8 -07.4846 26299.2
 24 04 2013  12 01  -21.0414 26078.1 -03426.5 -07.4854 26302.2
 24 04 2013  12 02  -21.0424 26081.2 -03427.1 -07.4859 26305.4
 24 04 2013  12 03  -21.0449 26084.4 -03427.5 -07.4858 26308.7
 24 04 2013  12 04  -21.0473 26087.2 -03427.5 -07.4849 26311.4
 24 04 2013  12 05  -21.0487 26088.9 -03427.0 -07.4834 26313.0
 24 04 2013  12 06  -21.0486 26089.7 -03426.2 -07.4814 26313.7
 24 04 2013  12 07  -21.0494 26090.2 -03425.5 -07.4798 26314.1
 24 04 2013  12 08  -21.0498 26091.6 -03425.2 -07.4789 26315.5
 24 04 2013  12 09  -21.0503 26091.9 -03424.5 -07.4773 26315.7
 24 04 2013  12 10  -21.0513 26092.7 -03424.3 -07.4766 26316.4
 24 04 2013  12 11  -21.0523 26093.5 -03424.1 -07.4759 26317.2
 24 04 2013  12 12  -21.0524 26093.6 -03423.5 -07.4745 26317.2
 24 04 2013  12 13  -21.0519 26092.8 -03422.5 -07.4726 26316.3
 24 04 2013  12 14  -21.0526 26092.4 -03422.0 -07.4716 26315.9
 24 04 2013  12 15  -21.0547 26090.8 -03421.1 -07.4701 26314.1
 24 04 2013  12 16  -21.0559 26087.3 -03419.4 -07.4675 26310.5
 24 04 2013  12 17  -21.0550 26084.5 -03418.4 -07.4660 26307.5
 24 04 2013  12 18  -21.0543 26083.1 -03418.4 -07.4665 26306.1
 24 04 2013  12 19  -21.0528 26083.0 -03418.9 -07.4675 26306.1
 24 04 2013  12 20  -21.0512 26082.9 -03419.2 -07.4682 26306.0
 24 04 2013  12 21  -21.0485 26082.7 -03419.5 -07.4689 26305.9
 24 04 2013  12 22  -21.0467 26084.3 -03420.6 -07.4709 26307.6
 24 04 2013  12 23  -21.0446 26085.2 -03421.3 -07.4721 26308.7
 24 04 2013  12 24  -21.0423 26084.4 -03421.1 -07.4720 26307.8
 24 04 2013  12 25  -21.0417 26084.8 -03421.7 -07.4731 26308.3
 24 04 2013  12 26  -21.0429 26084.0 -03421.7 -07.4734 26307.5
 24 04 2013  12 27  -21.0443 26081.9 -03421.2 -07.4730 26305.3
 24 04 2013  12 28  -21.0449 26079.7 -03420.8 -07.4726 26303.1
 24 04 2013  12 29  -21.0460 26076.6 -03420.2 -07.4722 26300.0
 24 04 2013  12 30  -21.0457 26073.9 -03420.0 -07.4726 26297.2
 24 04 2013  12 31  -21.0448 26071.9 -03420.4 -07.4740 26295.3
 24 04 2013  12 32  -21.0446 26070.0 -03421.0 -07.4758 26293.5
 24 04 2013  12 33  -21.0444 26068.5 -03421.7 -07.4778 26292.1
 24 04 2013  12 34  -21.0431 26068.1 -03423.0 -07.4806 26291.9
 24 04 2013  12 35  -21.0422 26068.0 -03424.3 -07.4834 26292.0
 24 04 2013  12 36  -21.0421 26067.4 -03425.1 -07.4855 26291.5
 24 04 2013  12 37  -21.0419 26066.2 -03425.6 -07.4868 26290.3
 24 04 2013  12 38  -21.0424 26066.0 -03426.3 -07.4885 26290.2
 24 04 2013  12 39  -21.0418 26065.9 -03427.1 -07.4902 26290.3
 24 04 2013  12 40  -21.0401 26065.7 -03427.7 -07.4916 26290.1
 24 04 2013  12 41  -21.0393 26065.0 -03428.2 -07.4928 26289.4
 24 04 2013  12 42  -21.0392 26064.2 -03428.7 -07.4941 26288.7
 24 04 2013  12 43  -21.0394 26063.8 -03429.2 -07.4952 26288.4
 24 04 2013  12 44  -21.0400 26063.9 -03429.7 -07.4964 26288.6
 24 04 2013  12 45  -21.0404 26063.4 -03429.9 -07.4969 26288.2
 24 04 2013  12 46  -21.0408 26062.7 -03429.9 -07.4972 26287.4
 24 04 2013  12 47  -21.0410 26062.3 -03430.1 -07.4976 26287.0
 24 04 2013  12 48  -21.0416 26062.3 -03430.5 -07.4985 26287.1
 24 04 2013  12 49  -21.0414 26062.1 -03430.7 -07.4991 26286.9
 24 04 2013  12 50  -21.0421 26062.1 -03431.2 -07.5002 26287.0
 24 04 2013  12 51  -21.0431 26062.4 -03431.6 -07.5010 26287.3
 24 04 2013  12 52  -21.0439 26062.9 -03432.0 -07.5016 26287.9
 24 04 2013  12 53  -21.0447 26063.2 -03432.2 -07.5019 26288.2
 24 04 2013  12 54  -21.0451 26062.9 -03432.1 -07.5018 26287.9
 24 04 2013  12 55  -21.0457 26063.1 -03432.1 -07.5019 26288.1
 24 04 2013  12 56  -21.0466 26062.7 -03431.9 -07.5014 26287.7
 24 04 2013  12 57  -21.0465 26062.6 -03431.6 -07.5008 26287.5
 24 04 2013  12 58  -21.0460 26063.4 -03431.7 -07.5009 26288.4
 24 04 2013  12 59  -21.0459 26064.5 -03432.2 -07.5015 26289.5
 24 04 2013  13 00  -21.0469 26064.6 -03432.0 -07.5012 26289.6
 24 04 2013  13 01  -21.0460 26063.5 -03431.4 -07.5001 26288.5
 24 04 2013  13 02  -21.0459 26062.6 -03431.0 -07.4995 26287.5
 24 04 2013  13 03  -21.0446 26060.0 -03430.0 -07.4980 26284.8
 24 04 2013  13 04  -21.0438 26058.4 -03429.8 -07.4981 26283.1
 24 04 2013  13 05  -21.0433 26056.5 -03429.7 -07.4984 26281.2
 24 04 2013  13 06  -21.0436 26054.5 -03429.7 -07.4990 26279.3
 24 04 2013  13 07  -21.0433 26051.3 -03429.2 -07.4990 26276.0
 24 04 2013  13 08  -21.0432 26048.8 -03429.3 -07.4998 26273.5
 24 04 2013  13 09  -21.0427 26047.3 -03429.9 -07.5014 26272.1
 24 04 2013  13 10  -21.0411 26047.5 -03431.1 -07.5039 26272.5
 24 04 2013  13 11  -21.0407 26047.8 -03432.3 -07.5065 26272.9
 24 04 2013  13 12  -21.0407 26046.9 -03432.8 -07.5079 26272.1
 24 04 2013  13 13  -21.0406 26045.7 -03433.1 -07.5090 26271.0
 24 04 2013  13 14  -21.0408 26044.5 -03433.4 -07.5099 26269.8
 24 04 2013  13 15  -21.0410 26042.2 -03433.3 -07.5104 26267.6
 24 04 2013  13 16  -21.0416 26040.2 -03433.4 -07.5112 26265.5
 24 04 2013  13 17  -21.0421 26038.1 -03433.6 -07.5121 26263.6
 24 04 2013  13 18  -21.0427 26036.7 -03434.0 -07.5135 26262.2
 24 04 2013  13 19  -21.0429 26036.4 -03434.9 -07.5154 26262.0
 24 04 2013  13 20  -21.0434 26036.7 -03435.8 -07.5174 26262.4
 24 04 2013  13 21  -21.0435 26036.9 -03436.7 -07.5191 26262.7
 24 04 2013  13 22  -21.0430 26036.9 -03437.3 -07.5205 26262.8
 24 04 2013  13 23  -21.0429 26038.2 -03438.3 -07.5224 26264.2
 24 04 2013  13 24  -21.0426 26039.6 -03439.2 -07.5237 26265.7
 24 04 2013  13 25  -21.0419 26040.7 -03439.5 -07.5242 26266.9
 24 04 2013  13 26  -21.0415 26042.6 -03440.0 -07.5247 26268.8
 24 04 2013  13 27  -21.0416 26044.4 -03440.3 -07.5247 26270.6
 24 04 2013  13 28  -21.0409 26045.4 -03440.0 -07.5239 26271.6
 24 04 2013  13 29  -21.0407 26046.8 -03440.0 -07.5234 26273.0
 24 04 2013  13 30  -21.0406 26048.2 -03439.9 -07.5228 26274.4
 24 04 2013  13 31  -21.0404 26049.2 -03439.5 -07.5216 26275.3
 24 04 2013  13 32  -21.0395 26050.1 -03439.0 -07.5204 26276.1
 24 04 2013  13 33  -21.0391 26051.1 -03438.7 -07.5194 26277.1
 24 04 2013  13 34  -21.0379 26052.0 -03438.3 -07.5184 26277.9
 24 04 2013  13 35  -21.0366 26052.4 -03437.9 -07.5173 26278.2
 24 04 2013  13 36  -21.0353 26052.1 -03437.3 -07.5160 26277.9
 24 04 2013  13 37  -21.0340 26052.1 -03436.8 -07.5151 26277.8
 24 04 2013  13 38  -21.0338 26052.0 -03436.5 -07.5145 26277.7
 24 04 2013  13 39  -21.0339 26052.1 -03436.4 -07.5142 26277.7
 24 04 2013  13 40  -21.0342 26052.4 -03436.4 -07.5141 26278.1
 24 04 2013  13 41  -21.0343 26052.6 -03436.2 -07.5136 26278.2
 24 04 2013  13 42  -21.0343 26052.6 -03436.0 -07.5132 26278.2
 24 04 2013  13 43  -21.0342 26052.5 -03435.9 -07.5131 26278.1
 24 04 2013  13 44  -21.0341 26052.0 -03435.7 -07.5127 26277.6
 24 04 2013  13 45  -21.0350 26052.3 -03435.8 -07.5129 26277.9
 24 04 2013  13 46  -21.0350 26051.8 -03435.5 -07.5124 26277.4
 24 04 2013  13 47  -21.0350 26051.0 -03435.2 -07.5120 26276.5
 24 04 2013  13 48  -21.0360 26050.0 -03435.2 -07.5122 26275.5
 24 04 2013  13 49  -21.0371 26049.3 -03435.4 -07.5129 26274.9
 24 04 2013  13 50  -21.0368 26048.9 -03435.5 -07.5132 26274.5
 24 04 2013  13 51  -21.0369 26048.5 -03435.6 -07.5135 26274.1
 24 04 2013  13 52  -21.0372 26048.4 -03435.8 -07.5140 26274.0
 24 04 2013  13 53  -21.0411 26048.3 -03435.8 -07.5140 26274.0
 24 04 2013  13 54  -21.0417 26048.7 -03436.0 -07.5144 26274.3
 24 04 2013  13 55  -21.0382 26049.2 -03436.2 -07.5146 26274.8
 24 04 2013  13 56  -21.0369 26049.8 -03436.4 -07.5150 26275.5
 24 04 2013  13 57  -21.0368 26050.0 -03436.4 -07.5149 26275.7
 24 04 2013  13 58  -21.0363 26049.5 -03436.2 -07.5145 26275.2
 24 04 2013  13 59  -21.0374 26047.4 -03435.3 -07.5132 26273.0
 24 04 2013  14 00  -21.0388 26045.9 -03434.9 -07.5128 26271.4
 24 04 2013  14 01  -21.0387 26044.9 -03435.0 -07.5132 26270.4
 24 04 2013  14 02  -21.0391 26043.7 -03435.0 -07.5136 26269.3
 24 04 2013  14 03  -21.0388 26042.1 -03434.9 -07.5138 26267.6
 24 04 2013  14 04  -21.0397 26040.5 -03434.9 -07.5142 26266.1
 24 04 2013  14 05  -21.0407 26039.2 -03434.8 -07.5144 26264.7
 24 04 2013  14 06  -21.0420 26037.3 -03434.7 -07.5147 26262.8
 24 04 2013  14 07  -21.0427 26035.3 -03434.6 -07.5152 26260.9
 24 04 2013  14 08  -21.0437 26033.7 -03435.0 -07.5163 26259.3
 24 04 2013  14 09  -21.0446 26032.6 -03435.6 -07.5180 26258.4
 24 04 2013  14 10  -21.0447 26032.1 -03436.3 -07.5197 26257.9
 24 04 2013  14 11  -21.0453 26031.6 -03437.1 -07.5215 26257.5
 24 04 2013  14 12  -21.0464 26031.2 -03437.8 -07.5233 26257.3
 24 04 2013  14 13  -21.0472 26031.3 -03438.6 -07.5250 26257.4
 24 04 2013  14 14  -21.0479 26032.0 -03439.5 -07.5266 26258.3
 24 04 2013  14 15  -21.0485 26033.4 -03440.2 -07.5278 26259.7
 24 04 2013  14 16  -21.0483 26034.1 -03440.4 -07.5279 26260.4
 24 04 2013  14 17  -21.0479 26033.5 -03440.0 -07.5273 26259.8
 24 04 2013  14 18  -21.0481 26032.8 -03439.8 -07.5271 26259.1
 24 04 2013  14 19  -21.0486 26032.5 -03439.8 -07.5272 26258.8
 24 04 2013  14 20  -21.0485 26032.4 -03439.9 -07.5274 26258.6
 24 04 2013  14 21  -21.0481 26032.0 -03439.9 -07.5275 26258.3
 24 04 2013  14 22  -21.0478 26031.4 -03440.0 -07.5279 26257.7
 24 04 2013  14 23  -21.0484 26031.2 -03440.3 -07.5287 26257.5
 24 04 2013  14 24  -21.0495 26031.0 -03440.7 -07.5295 26257.5
 24 04 2013  14 25  -21.0508 26030.8 -03440.9 -07.5301 26257.2
 24 04 2013  14 26  -21.0520 26030.6 -03441.2 -07.5306 26257.0
 24 04 2013  14 27  -21.0529 26030.5 -03441.5 -07.5313 26257.0
 24 04 2013  14 28  -21.0529 26030.4 -03441.6 -07.5317 26257.0
 24 04 2013  14 29  -21.0527 26031.1 -03442.0 -07.5323 26257.7
 24 04 2013  14 30  -21.0530 26031.9 -03442.3 -07.5327 26258.5
 24 04 2013  14 31  -21.0530 26032.0 -03442.3 -07.5326 26258.6
 24 04 2013  14 32  -21.0537 26033.3 -03442.7 -07.5332 26259.9
 24 04 2013  14 33  -21.0544 26034.8 -03443.1 -07.5336 26261.4
 24 04 2013  14 34  -21.0547 26035.5 -03443.1 -07.5334 26262.2
 24 04 2013  14 35  -21.0541 26034.9 -03442.6 -07.5326 26261.5
 24 04 2013  14 36  -21.0540 26034.3 -03442.3 -07.5321 26260.9
 24 04 2013  14 37  -21.0547 26034.2 -03442.4 -07.5324 26260.8
 24 04 2013  14 38  -21.0555 26034.6 -03442.6 -07.5325 26261.3
 24 04 2013  14 39  -21.0567 26034.8 -03442.5 -07.5324 26261.4
 24 04 2013  14 40  -21.0575 26034.6 -03442.4 -07.5321 26261.2
 24 04 2013  14 41  -21.0595 26034.9 -03442.5 -07.5323 26261.5
 24 04 2013  14 42  -21.0601 26034.9 -03442.4 -07.5320 26261.5
 24 04 2013  14 43  -21.0606 26033.8 -03441.8 -07.5311 26260.3
 24 04 2013  14 44  -21.0615 26032.7 -03441.5 -07.5308 26259.2
 24 04 2013  14 45  -21.0635 26032.4 -03441.7 -07.5313 26258.9
 24 04 2013  14 46  -21.0650 26032.1 -03441.9 -07.5317 26258.7
 24 04 2013  14 47  -21.0664 26032.1 -03442.1 -07.5322 26258.6
 24 04 2013  14 48  -21.0676 26031.5 -03442.1 -07.5324 26258.1
 24 04 2013  14 49  -21.0686 26030.9 -03442.1 -07.5327 26257.5
 24 04 2013  14 50  -21.0696 26030.5 -03442.3 -07.5332 26257.1
 24 04 2013  14 51  -21.0713 26030.2 -03442.7 -07.5340 26256.9
 24 04 2013  14 52  -21.0730 26030.0 -03442.9 -07.5345 26256.8
 24 04 2013  14 53  -21.0741 26029.8 -03443.0 -07.5349 26256.5
 24 04 2013  14 54  -21.0753 26030.4 -03443.5 -07.5357 26257.1
 24 04 2013  14 55  -21.0760 26030.0 -03443.4 -07.5356 26256.8
 24 04 2013  14 56  -21.0765 26029.6 -03443.3 -07.5355 26256.4
 24 04 2013  14 57  -21.0769 26029.0 -03443.1 -07.5353 26255.8
 24 04 2013  14 58  -21.0777 26029.2 -03443.3 -07.5356 26255.9
 24 04 2013  14 59  -21.0792 26029.5 -03443.5 -07.5361 26256.3
 24 04 2013  15 00  -21.0804 26029.7 -03443.6 -07.5362 26256.5
 24 04 2013  15 01  -21.0806 26029.6 -03443.4 -07.5358 26256.3
 24 04 2013  15 02  -21.0803 26029.1 -03443.0 -07.5351 26255.9
 24 04 2013  15 03  -21.0809 26028.9 -03442.8 -07.5347 26255.6
 24 04 2013  15 04  -21.0822 26028.7 -03442.7 -07.5345 26255.4
 24 04 2013  15 05  -21.0823 26027.8 -03442.3 -07.5340 26254.5
 24 04 2013  15 06  -21.0802 26027.1 -03442.3 -07.5341 26253.7
 24 04 2013  15 07  -21.0816 26026.7 -03442.4 -07.5344 26253.4
 24 04 2013  15 08  -21.0836 26026.8 -03442.6 -07.5348 26253.5
 24 04 2013  15 09  -21.0862 26027.9 -03443.2 -07.5357 26254.6
 24 04 2013  15 10  -21.0880 26028.1 -03443.1 -07.5356 26254.9
 24 04 2013  15 11  -21.0887 26028.4 -03443.0 -07.5352 26255.2
 24 04 2013  15 12  -21.0887 26028.8 -03442.8 -07.5346 26255.5
 24 04 2013  15 13  -21.0897 26029.0 -03442.6 -07.5342 26255.6
 24 04 2013  15 14  -21.0916 26029.8 -03442.7 -07.5342 26256.5
 24 04 2013  15 15  -21.0929 26029.7 -03442.4 -07.5336 26256.3
 24 04 2013  15 16  -21.0939 26029.6 -03442.1 -07.5329 26256.2
 24 04 2013  15 17  -21.0947 26029.5 -03441.8 -07.5324 26256.0
 24 04 2013  15 18  -21.0947 26029.3 -03441.5 -07.5317 26255.8
 24 04 2013  15 19  -21.0952 26029.2 -03441.3 -07.5314 26255.7
 24 04 2013  15 20  -21.0956 26029.1 -03441.2 -07.5311 26255.6
 24 04 2013  15 21  -21.0965 26029.5 -03441.3 -07.5312 26256.0
 24 04 2013  15 22  -21.0973 26030.1 -03441.3 -07.5311 26256.6
 24 04 2013  15 23  -21.0983 26029.9 -03441.0 -07.5305 26256.3
 24 04 2013  15 24  -21.0986 26029.7 -03440.7 -07.5299 26256.1
 24 04 2013  15 25  -21.0995 26029.8 -03440.6 -07.5296 26256.2
 24 04 2013  15 26  -21.1005 26029.5 -03440.3 -07.5291 26255.8
 24 04 2013  15 27  -21.1011 26029.0 -03439.9 -07.5285 26255.3
 24 04 2013  15 28  -21.1018 26028.6 -03439.7 -07.5281 26254.9
 24 04 2013  15 29  -21.1030 26028.4 -03439.6 -07.5279 26254.7
 24 04 2013  15 30  -21.1044 26029.0 -03439.7 -07.5280 26255.3
 24 04 2013  15 31  -21.1060 26029.8 -03439.9 -07.5282 26256.1
 24 04 2013  15 32  -21.1072 26030.4 -03439.8 -07.5277 26256.7
 24 04 2013  15 33  -21.1073 26030.5 -03439.4 -07.5269 26256.7
 24 04 2013  15 34  -21.1073 26030.4 -03439.0 -07.5261 26256.6
 24 04 2013  15 35  -21.1078 26030.6 -03438.8 -07.5256 26256.8
 24 04 2013  15 36  -21.1088 26030.9 -03438.8 -07.5254 26257.1
 24 04 2013  15 37  -21.1094 26031.1 -03438.6 -07.5249 26257.2
 24 04 2013  15 38  -21.1101 26031.2 -03438.4 -07.5245 26257.3
 24 04 2013  15 39  -21.1106 26030.7 -03438.1 -07.5239 26256.8
 24 04 2013  15 40  -21.1106 26030.3 -03437.7 -07.5233 26256.3
 24 04 2013  15 41  -21.1110 26030.4 -03437.6 -07.5231 26256.4
 24 04 2013  15 42  -21.1114 26030.6 -03437.5 -07.5227 26256.6
 24 04 2013  15 43  -21.1118 26030.4 -03437.2 -07.5222 26256.3
 24 04 2013  15 44  -21.1116 26030.0 -03436.9 -07.5216 26255.9
 24 04 2013  15 45  -21.1125 26030.3 -03436.9 -07.5215 26256.3
 24 04 2013  15 46  -21.1139 26030.6 -03436.8 -07.5211 26256.5
 24 04 2013  15 47  -21.1150 26030.7 -03436.6 -07.5206 26256.6
 24 04 2013  15 48  -21.1154 26031.0 -03436.3 -07.5200 26256.8
 24 04 2013  15 49  -21.1156 26031.2 -03436.0 -07.5193 26257.0
 24 04 2013  15 50  -21.1160 26031.5 -03435.7 -07.5186 26257.3
 24 04 2013  15 51  -21.1173 26031.9 -03435.6 -07.5182 26257.6
 24 04 2013  15 52  -21.1182 26032.2 -03435.3 -07.5175 26257.9
 24 04 2013  15 53  -21.1183 26032.5 -03435.0 -07.5167 26258.2
 24 04 2013  15 54  -21.1184 26032.6 -03434.5 -07.5157 26258.2
 24 04 2013  15 55  -21.1188 26032.8 -03434.2 -07.5149 26258.4
 24 04 2013  15 56  -21.1187 26032.6 -03433.6 -07.5137 26258.0
 24 04 2013  15 57  -21.1193 26032.8 -03433.4 -07.5131 26258.2
 24 04 2013  15 58  -21.1204 26033.5 -03433.3 -07.5128 26258.9
 24 04 2013  15 59  -21.1202 26034.0 -03432.9 -07.5119 26259.4
 24 04 2013  16 00  -21.1198 26034.2 -03432.5 -07.5109 26259.5
 24 04 2013  16 01  -21.1193 26034.3 -03432.1 -07.5099 26259.6
 24 04 2013  16 02  -21.1200 26034.7 -03431.8 -07.5092 26259.9
 24 04 2013  16 03  -21.1203 26034.7 -03431.4 -07.5083 26259.8
 24 04 2013  16 04  -21.1206 26034.9 -03431.1 -07.5077 26260.1
 24 04 2013  16 05  -21.1203 26035.2 -03430.9 -07.5071 26260.3
 24 04 2013  16 06  -21.1206 26035.5 -03430.7 -07.5066 26260.6
 24 04 2013  16 07  -21.1201 26035.2 -03430.2 -07.5057 26260.2
 24 04 2013  16 08  -21.1195 26034.7 -03429.8 -07.5049 26259.6
 24 04 2013  16 09  -21.1188 26033.9 -03429.3 -07.5041 26258.8
 24 04 2013  16 10  -21.1185 26033.4 -03429.1 -07.5038 26258.3
 24 04 2013  16 11  -21.1178 26033.0 -03428.9 -07.5035 26257.9
 24 04 2013  16 12  -21.1174 26032.7 -03428.8 -07.5033 26257.5
 24 04 2013  16 13  -21.1180 26032.5 -03428.8 -07.5034 26257.4
 24 04 2013  16 14  -21.1176 26031.9 -03428.5 -07.5030 26256.7
 24 04 2013  16 15  -21.1182 26032.0 -03428.6 -07.5031 26256.8
 24 04 2013  16 16  -21.1184 26031.8 -03428.5 -07.5029 26256.6
 24 04 2013  16 17  -21.1180 26031.3 -03428.2 -07.5025 26256.1
 24 04 2013  16 18  -21.1182 26031.4 -03428.2 -07.5023 26256.1
 24 04 2013  16 19  -21.1179 26031.4 -03428.1 -07.5021 26256.2
 24 04 2013  16 20  -21.1176 26031.1 -03427.8 -07.5016 26255.8
 24 04 2013  16 21  -21.1177 26030.9 -03427.7 -07.5014 26255.6
 24 04 2013  16 22  -21.1177 26030.5 -03427.5 -07.5011 26255.2
 24 04 2013  16 23  -21.1177 26030.0 -03427.3 -07.5008 26254.6
 24 04 2013  16 24  -21.1182 26029.8 -03427.3 -07.5008 26254.5
 24 04 2013  16 25  -21.1181 26029.2 -03427.1 -07.5006 26253.9
 24 04 2013  16 26  -21.1182 26028.7 -03426.9 -07.5004 26253.4
 24 04 2013  16 27  -21.1185 26028.4 -03426.9 -07.5005 26253.1
 24 04 2013  16 28  -21.1189 26028.3 -03427.0 -07.5007 26253.0
 24 04 2013  16 29  -21.1193 26028.2 -03427.1 -07.5009 26252.9
 24 04 2013  16 30  -21.1197 26027.9 -03427.0 -07.5009 26252.5
 24 04 2013  16 31  -21.1199 26027.8 -03427.1 -07.5010 26252.5
 24 04 2013  16 32  -21.1201 26027.6 -03427.1 -07.5010 26252.2
 24 04 2013  16 33  -21.1201 26027.4 -03427.0 -07.5010 26252.1
 24 04 2013  16 34  -21.1203 26027.4 -03427.1 -07.5012 26252.1
 24 04 2013  16 35  -21.1206 26027.3 -03427.1 -07.5012 26251.9
 24 04 2013  16 36  -21.1212 26027.2 -03427.2 -07.5013 26251.8
 24 04 2013  16 37  -21.1217 26027.1 -03427.2 -07.5014 26251.8
 24 04 2013  16 38  -21.1219 26027.3 -03427.3 -07.5015 26252.0
 24 04 2013  16 39  -21.1217 26027.3 -03427.2 -07.5014 26252.0
 24 04 2013  16 40  -21.1222 26027.4 -03427.2 -07.5014 26252.1
 24 04 2013  16 41  -21.1224 26027.3 -03427.1 -07.5012 26251.9
 24 04 2013  16 42  -21.1221 26027.2 -03427.0 -07.5009 26251.9
 24 04 2013  16 43  -21.1222 26027.2 -03426.9 -07.5007 26251.9
 24 04 2013  16 44  -21.1221 26027.0 -03426.7 -07.5004 26251.6
 24 04 2013  16 45  -21.1219 26026.7 -03426.6 -07.5002 26251.3
 24 04 2013  16 46  -21.1221 26026.8 -03426.6 -07.5001 26251.4
 24 04 2013  16 47  -21.1220 26026.6 -03426.4 -07.4998 26251.1
 24 04 2013  16 48  -21.1217 26026.2 -03426.2 -07.4995 26250.7
 24 04 2013  16 49  -21.1214 26025.9 -03426.0 -07.4992 26250.5
 24 04 2013  16 50  -21.1215 26025.8 -03426.0 -07.4992 26250.3
 24 04 2013  16 51  -21.1213 26025.2 -03425.8 -07.4988 26249.7
 24 04 2013  16 52  -21.1212 26024.9 -03425.7 -07.4987 26249.4
 24 04 2013  16 53  -21.1211 26024.9 -03425.6 -07.4987 26249.4
 24 04 2013  16 54  -21.1211 26024.6 -03425.4 -07.4983 26249.0
 24 04 2013  16 55  -21.1218 26024.5 -03425.5 -07.4984 26249.0
 24 04 2013  16 56  -21.1223 26024.7 -03425.5 -07.4985 26249.2
 24 04 2013  16 57  -21.1227 26025.3 -03425.6 -07.4985 26249.8
 24 04 2013  16 58  -21.1226 26025.5 -03425.4 -07.4981 26249.9
 24 04 2013  16 59  -21.1230 26025.4 -03425.2 -07.4976 26249.8
 24 04 2013  17 00  -21.1232 26025.7 -03425.1 -07.4972 26250.1
 24 04 2013  17 01  -21.1242 26026.2 -03425.0 -07.4970 26250.6
 24 04 2013  17 02  -21.1239 26026.2 -03424.7 -07.4963 26250.5
 24 04 2013  17 03  -21.1236 26026.1 -03424.4 -07.4957 26250.4
 24 04 2013  17 04  -21.1231 26026.4 -03424.3 -07.4953 26250.7
 24 04 2013  17 05  -21.1231 26026.9 -03424.3 -07.4951 26251.2
 24 04 2013  17 06  -21.1223 26026.7 -03423.9 -07.4944 26251.0
 24 04 2013  17 07  -21.1226 26026.9 -03423.8 -07.4942 26251.1
 24 04 2013  17 08  -21.1217 26026.2 -03423.3 -07.4933 26250.4
 24 04 2013  17 09  -21.1215 26026.1 -03423.2 -07.4930 26250.2
 24 04 2013  17 10  -21.1219 26026.3 -03423.2 -07.4929 26250.4
 24 04 2013  17 11  -21.1224 26026.7 -03423.2 -07.4929 26250.8
 24 04 2013  17 12  -21.1222 26026.8 -03423.0 -07.4923 26250.9
 24 04 2013  17 13  -21.1220 26026.8 -03422.7 -07.4918 26250.9
 24 04 2013  17 14  -21.1213 26026.5 -03422.4 -07.4913 26250.5
 24 04 2013  17 15  -21.1213 26026.4 -03422.3 -07.4910 26250.4
 24 04 2013  17 16  -21.1203 26026.2 -03422.1 -07.4906 26250.2
 24 04 2013  17 17  -21.1197 26026.1 -03421.8 -07.4900 26250.1
 24 04 2013  17 18  -21.1197 26025.9 -03421.6 -07.4897 26249.9
 24 04 2013  17 19  -21.1191 26025.7 -03421.4 -07.4892 26249.6
 24 04 2013  17 20  -21.1187 26025.4 -03421.1 -07.4888 26249.3
 24 04 2013  17 21  -21.1185 26024.8 -03420.8 -07.4883 26248.7
 24 04 2013  17 22  -21.1180 26024.4 -03420.6 -07.4880 26248.3
 24 04 2013  17 23  -21.1175 26024.0 -03420.5 -07.4878 26247.9
 24 04 2013  17 24  -21.1170 26023.3 -03420.3 -07.4875 26247.1
 24 04 2013  17 25  -21.1176 26023.3 -03420.4 -07.4877 26247.1
 24 04 2013  17 26  -21.1182 26023.1 -03420.3 -07.4877 26246.9
 24 04 2013  17 27  -21.1183 26022.6 -03420.1 -07.4873 26246.4
 24 04 2013  17 28  -21.1190 26022.5 -03420.0 -07.4872 26246.3
 24 04 2013  17 29  -21.1201 26022.5 -03420.0 -07.4872 26246.3
 24 04 2013  17 30  -21.1204 26022.6 -03420.0 -07.4871 26246.4
 24 04 2013  17 31  -21.1209 26023.0 -03420.1 -07.4871 26246.8
 24 04 2013  17 32  -21.1218 26023.3 -03420.1 -07.4872 26247.1
 24 04 2013  17 33  -21.1235 26023.8 -03420.2 -07.4872 26247.6
 24 04 2013  17 34  -21.1246 26024.8 -03420.4 -07.4874 26248.6
 24 04 2013  17 35  -21.1259 26025.5 -03420.5 -07.4875 26249.3
 24 04 2013  17 36  -21.1269 26025.9 -03420.5 -07.4872 26249.7
 24 04 2013  17 37  -21.1278 26026.5 -03420.3 -07.4867 26250.3
 24 04 2013  17 38  -21.1290 26027.0 -03420.1 -07.4861 26250.7
 24 04 2013  17 39  -21.1289 26026.6 -03419.5 -07.4849 26250.3
 24 04 2013  17 40  -21.1274 26025.5 -03418.7 -07.4835 26249.0
 24 04 2013  17 41  -21.1258 26024.2 -03417.9 -07.4822 26247.7
 24 04 2013  17 42  -21.1255 26023.1 -03417.5 -07.4817 26246.5
 24 04 2013  17 43  -21.1263 26023.8 -03418.0 -07.4824 26247.3
 24 04 2013  17 44  -21.1261 26024.4 -03418.2 -07.4828 26247.9
 24 04 2013  17 45  -21.1247 26023.5 -03417.6 -07.4816 26247.0
 24 04 2013  17 46  -21.1244 26023.2 -03417.4 -07.4813 26246.6
 24 04 2013  17 47  -21.1239 26022.7 -03417.2 -07.4809 26246.2
 24 04 2013  17 48  -21.1226 26021.5 -03416.6 -07.4801 26244.8
 24 04 2013  17 49  -21.1217 26020.6 -03416.3 -07.4798 26243.9
 24 04 2013  17 50  -21.1205 26019.5 -03416.0 -07.4794 26242.8
 24 04 2013  17 51  -21.1188 26018.2 -03415.7 -07.4790 26241.4
 24 04 2013  17 52  -21.1174 26017.1 -03415.5 -07.4790 26240.3
 24 04 2013  17 53  -21.1172 26016.8 -03415.7 -07.4795 26240.1
 24 04 2013  17 54  -21.1170 26016.1 -03415.8 -07.4799 26239.4
 24 04 2013  17 55  -21.1164 26015.0 -03415.7 -07.4800 26238.2
 24 04 2013  17 56  -21.1162 26014.0 -03415.7 -07.4802 26237.3
 24 04 2013  17 57  -21.1154 26013.4 -03415.8 -07.4807 26236.8
 24 04 2013  17 58  -21.1138 26012.1 -03415.7 -07.4808 26235.4
 24 04 2013  17 59  -21.1125 26011.4 -03415.7 -07.4811 26234.7
 24 04 2013  18 00  -21.1119 26010.9 -03415.9 -07.4816 26234.3
 24 04 2013  18 01  -21.1125 26011.1 -03416.4 -07.4825 26234.5
 24 04 2013  18 02  -21.1123 26011.5 -03416.8 -07.4834 26235.0
 24 04 2013  18 03  -21.1116 26011.4 -03417.1 -07.4840 26234.9
 24 04 2013  18 04  -21.1116 26012.0 -03417.5 -07.4848 26235.5
 24 04 2013  18 05  -21.1107 26011.4 -03417.5 -07.4848 26234.9
 24 04 2013  18 06  -21.1075 26008.7 -03416.4 -07.4833 26232.1
 24 04 2013  18 07  -21.1055 26005.2 -03415.5 -07.4823 26228.5
 24 04 2013  18 08  -21.1024 26001.1 -03414.4 -07.4811 26224.3
 24 04 2013  18 09  -21.1013 25998.3 -03414.2 -07.4815 26221.5
 24 04 2013  18 10  -21.1000 25996.1 -03414.3 -07.4824 26219.4
 24 04 2013  18 11  -21.0996 25994.8 -03414.8 -07.4837 26218.1
 24 04 2013  18 12  -21.0999 25994.4 -03415.6 -07.4855 26217.8
 24 04 2013  18 13  -21.1010 25995.1 -03416.7 -07.4877 26218.6
 24 04 2013  18 14  -21.1018 25995.8 -03417.5 -07.4894 26219.4
 24 04 2013  18 15  -21.1023 25996.4 -03418.2 -07.4906 26220.2
 24 04 2013  18 16  -21.1032 25997.2 -03418.7 -07.4916 26221.0
 24 04 2013  18 17  -21.1050 25998.4 -03419.4 -07.4928 26222.3
 24 04 2013  18 18  -21.1072 26000.5 -03420.3 -07.4941 26224.5
 24 04 2013  18 19  -21.1087 26001.9 -03420.7 -07.4946 26225.9
 24 04 2013  18 20  -21.1104 26002.9 -03420.8 -07.4945 26226.9
 24 04 2013  18 21  -21.1117 26003.6 -03420.7 -07.4941 26227.7
 24 04 2013  18 22  -21.1131 26004.3 -03420.6 -07.4936 26228.3
 24 04 2013  18 23  -21.1142 26004.6 -03420.3 -07.4928 26228.6
 24 04 2013  18 24  -21.1155 26005.0 -03420.0 -07.4922 26228.9
 24 04 2013  18 25  -21.1165 26005.4 -03419.8 -07.4915 26229.3
 24 04 2013  18 26  -21.1179 26006.3 -03419.7 -07.4911 26230.2
 24 04 2013  18 27  -21.1194 26007.3 -03419.7 -07.4908 26231.2
 24 04 2013  18 28  -21.1201 26007.6 -03419.4 -07.4900 26231.4
 24 04 2013  18 29  -21.1204 26007.5 -03418.9 -07.4891 26231.3
 24 04 2013  18 30  -21.1210 26007.8 -03418.7 -07.4885 26231.5
 24 04 2013  18 31  -21.1212 26007.8 -03418.3 -07.4877 26231.5
 24 04 2013  18 32  -21.1205 26007.3 -03417.9 -07.4868 26231.0
 24 04 2013  18 33  -21.1200 26006.8 -03417.4 -07.4860 26230.3
 24 04 2013  18 34  -21.1204 26007.4 -03417.6 -07.4862 26231.0
 24 04 2013  18 35  -21.1209 26008.0 -03417.7 -07.4862 26231.6
 24 04 2013  18 36  -21.1214 26008.4 -03417.6 -07.4859 26231.9
 24 04 2013  18 37  -21.1215 26008.7 -03417.5 -07.4857 26232.3
 24 04 2013  18 38  -21.1221 26009.2 -03417.5 -07.4855 26232.7
 24 04 2013  18 39  -21.1232 26009.5 -03417.4 -07.4852 26233.0
 24 04 2013  18 40  -21.1234 26009.3 -03417.0 -07.4845 26232.8
 24 04 2013  18 41  -21.1231 26008.7 -03416.6 -07.4836 26232.2
 24 04 2013  18 42  -21.1218 26008.4 -03416.2 -07.4830 26231.8
 24 04 2013  18 43  -21.1205 26007.9 -03415.9 -07.4823 26231.2
 24 04 2013  18 44  -21.1196 26007.7 -03415.7 -07.4821 26231.0
 24 04 2013  18 45  -21.1185 26007.3 -03415.5 -07.4816 26230.6
 24 04 2013  18 46  -21.1173 26006.7 -03415.2 -07.4812 26229.9
 24 04 2013  18 47  -21.1165 26005.8 -03414.9 -07.4808 26229.0
 24 04 2013  18 48  -21.1157 26005.2 -03414.7 -07.4806 26228.4
 24 04 2013  18 49  -21.1158 26005.0 -03414.8 -07.4808 26228.2
 24 04 2013  18 50  -21.1155 26004.2 -03414.6 -07.4806 26227.4
 24 04 2013  18 51  -21.1151 26003.6 -03414.5 -07.4806 26226.8
 24 04 2013  18 52  -21.1144 26003.3 -03414.6 -07.4808 26226.5
 24 04 2013  18 53  -21.1138 26002.9 -03414.6 -07.4811 26226.2
 24 04 2013  18 54  -21.1137 26002.4 -03414.6 -07.4811 26225.6
 24 04 2013  18 55  -21.1140 26002.1 -03414.6 -07.4814 26225.4
 24 04 2013  18 56  -21.1141 26001.9 -03414.7 -07.4817 26225.1
 24 04 2013  18 57  -21.1142 26001.8 -03414.9 -07.4820 26225.1
 24 04 2013  18 58  -21.1141 26002.0 -03415.2 -07.4825 26225.3
 24 04 2013  18 59  -21.1143 26002.2 -03415.5 -07.4831 26225.5
 24 04 2013  19 00  -21.1139 26001.7 -03415.5 -07.4833 26225.1
 24 04 2013  19 01  -21.1142 26001.5 -03415.6 -07.4835 26224.9
 24 04 2013  19 02  -21.1174 26001.2 -03415.4 -07.4833 26224.6
 24 04 2013  19 03  -21.1177 26000.8 -03415.4 -07.4833 26224.1
 24 04 2013  19 04  -21.1172 26000.3 -03415.3 -07.4834 26223.6
 24 04 2013  19 05  -21.1178 26000.5 -03415.6 -07.4838 26223.9
 24 04 2013  19 06  -21.1191 26001.1 -03416.0 -07.4847 26224.5
 24 04 2013  19 07  -21.1196 26001.3 -03416.2 -07.4850 26224.8
 24 04 2013  19 08  -21.1194 26001.2 -03416.2 -07.4850 26224.6
 24 04 2013  19 09  -21.1194 26000.4 -03415.9 -07.4847 26223.8
 24 04 2013  19 10  -21.1197 25999.9 -03415.9 -07.4846 26223.3
 24 04 2013  19 11  -21.1198 26000.0 -03416.0 -07.4850 26223.4
 24 04 2013  19 12  -21.1200 25999.8 -03416.1 -07.4851 26223.3
 24 04 2013  19 13  -21.1202 25999.9 -03416.2 -07.4854 26223.3
 24 04 2013  19 14  -21.1219 26000.0 -03416.4 -07.4858 26223.5
 24 04 2013  19 15  -21.1198 25999.5 -03416.2 -07.4855 26223.0
 24 04 2013  19 16  -21.1190 25999.0 -03416.0 -07.4852 26222.5
 24 04 2013  19 17  -21.1179 25998.3 -03415.8 -07.4849 26221.7
 24 04 2013  19 18  -21.1171 25997.9 -03415.7 -07.4849 26221.3
 24 04 2013  19 19  -21.1156 25997.5 -03415.7 -07.4851 26220.9
 24 04 2013  19 20  -21.1141 25997.0 -03415.7 -07.4851 26220.5
 24 04 2013  19 21  -21.1120 25995.9 -03415.4 -07.4848 26219.3
 24 04 2013  19 22  -21.1098 25994.8 -03415.2 -07.4846 26218.2
 24 04 2013  19 23  -21.1060 25994.2 -03415.2 -07.4849 26217.6
 24 04 2013  19 24  -21.1019 25993.3 -03415.4 -07.4855 26216.7
 24 04 2013  19 25  -21.1004 25991.5 -03415.1 -07.4853 26214.9
 24 04 2013  19 26  -21.0995 25990.4 -03415.1 -07.4857 26213.8
 24 04 2013  19 27  -21.0990 25989.7 -03415.3 -07.4863 26213.2
 24 04 2013  19 28  -21.0992 25989.8 -03415.9 -07.4876 26213.3
 24 04 2013  19 29  -21.0996 25989.8 -03416.3 -07.4885 26213.3
 24 04 2013  19 30  -21.1004 25990.5 -03417.0 -07.4898 26214.1
 24 04 2013  19 31  -21.1015 25990.7 -03417.5 -07.4909 26214.4
 24 04 2013  19 32  -21.1025 25990.9 -03418.0 -07.4918 26214.7
 24 04 2013  19 33  -21.1044 25992.0 -03418.8 -07.4932 26215.9
 24 04 2013  19 34  -21.1057 25991.2 -03418.7 -07.4932 26215.1
 24 04 2013  19 35  -21.1066 25990.8 -03418.6 -07.4931 26214.7
 24 04 2013  19 36  -21.1070 25991.3 -03418.8 -07.4935 26215.2
 24 04 2013  19 37  -21.1065 25991.4 -03419.0 -07.4939 26215.3
 24 04 2013  19 38  -21.1064 25991.6 -03419.2 -07.4941 26215.6
 24 04 2013  19 39  -21.1062 25992.5 -03419.5 -07.4946 26216.4
 24 04 2013  19 40  -21.1065 25994.0 -03420.2 -07.4957 26218.1
 24 04 2013  19 41  -21.1062 25994.8 -03420.5 -07.4962 26218.9
 24 04 2013  19 42  -21.1062 25995.3 -03420.7 -07.4964 26219.4
 24 04 2013  19 43  -21.1066 25996.3 -03421.1 -07.4969 26220.4
 24 04 2013  19 44  -21.1066 25997.4 -03421.5 -07.4976 26221.6
 24 04 2013  19 45  -21.1065 25998.4 -03421.9 -07.4982 26222.6
 24 04 2013  19 46  -21.1065 25998.5 -03421.9 -07.4981 26222.8
 24 04 2013  19 47  -21.1065 25999.0 -03422.0 -07.4983 26223.2
 24 04 2013  19 48  -21.1063 25999.2 -03422.1 -07.4983 26223.5
 24 04 2013  19 49  -21.1052 25999.3 -03422.1 -07.4983 26223.5
 24 04 2013  19 50  -21.1044 25999.4 -03422.1 -07.4983 26223.6
 24 04 2013  19 51  -21.1033 25998.9 -03421.9 -07.4980 26223.1
 24 04 2013  19 52  -21.1023 25998.7 -03421.9 -07.4980 26222.9
 24 04 2013  19 53  -21.1015 25998.1 -03421.8 -07.4980 26222.3
 24 04 2013  19 54  -21.1009 25998.4 -03422.1 -07.4985 26222.6
 24 04 2013  19 55  -21.1010 25998.9 -03422.5 -07.4993 26223.2
 24 04 2013  19 56  -21.1012 25998.7 -03422.6 -07.4996 26223.1
 24 04 2013  19 57  -21.1017 25998.7 -03422.7 -07.4998 26223.0
 24 04 2013  19 58  -21.1020 25998.1 -03422.6 -07.4998 26222.5
 24 04 2013  19 59  -21.1022 25998.1 -03422.7 -07.4999 26222.4
 24 04 2013  20 00  -21.1024 25998.6 -03423.1 -07.5006 26223.0
 24 04 2013  20 01  -21.1021 25998.3 -03423.0 -07.5006 26222.6
 24 04 2013  20 02  -21.1015 25997.3 -03422.6 -07.4999 26221.6
 24 04 2013  20 03  -21.1008 25996.7 -03422.3 -07.4996 26221.0
 24 04 2013  20 04  -21.1002 25996.0 -03422.2 -07.4994 26220.3
 24 04 2013  20 05  -21.0991 25994.9 -03421.8 -07.4989 26219.2
 24 04 2013  20 06  -21.0981 25994.5 -03421.7 -07.4989 26218.7
 24 04 2013  20 07  -21.0973 25994.0 -03421.7 -07.4990 26218.3
 24 04 2013  20 08  -21.0968 25993.3 -03421.7 -07.4991 26217.6
 24 04 2013  20 09  -21.0963 25992.4 -03421.4 -07.4989 26216.6
 24 04 2013  20 10  -21.0954 25991.7 -03421.4 -07.4989 26215.9
 24 04 2013  20 11  -21.0947 25991.2 -03421.3 -07.4990 26215.4
 24 04 2013  20 12  -21.0938 25990.4 -03421.2 -07.4988 26214.6
 24 04 2013  20 13  -21.0933 25989.8 -03421.1 -07.4989 26214.0
 24 04 2013  20 14  -21.0922 25989.0 -03421.0 -07.4989 26213.2
 24 04 2013  20 15  -21.0912 25988.0 -03420.8 -07.4987 26212.2
 24 04 2013  20 16  -21.0906 25987.4 -03420.8 -07.4988 26211.6
 24 04 2013  20 17  -21.0897 25987.0 -03420.8 -07.4990 26211.2
 24 04 2013  20 18  -21.0887 25986.5 -03420.8 -07.4992 26210.7
 24 04 2013  20 19  -21.0874 25986.1 -03420.9 -07.4994 26210.3
 24 04 2013  20 20  -21.0861 25985.7 -03420.9 -07.4997 26209.9
 24 04 2013  20 21  -21.0852 25985.6 -03421.1 -07.5001 26209.8
 24 04 2013  20 22  -21.0845 25985.3 -03421.3 -07.5006 26209.6
 24 04 2013  20 23  -21.0838 25984.9 -03421.4 -07.5009 26209.2
 24 04 2013  20 24  -21.0833 25984.8 -03421.6 -07.5015 26209.1
 24 04 2013  20 25  -21.0825 25984.4 -03421.8 -07.5019 26208.8
 24 04 2013  20 26  -21.0813 25984.0 -03421.8 -07.5020 26208.3
 24 04 2013  20 27  -21.0802 25983.8 -03421.9 -07.5024 26208.1
 24 04 2013  20 28  -21.0792 25983.6 -03422.1 -07.5029 26208.0
 24 04 2013  20 29  -21.0783 25983.5 -03422.3 -07.5033 26207.9
 24 04 2013  20 30  -21.0777 25983.7 -03422.7 -07.5041 26208.1
 24 04 2013  20 31  -21.0773 25983.9 -03423.1 -07.5049 26208.4
 24 04 2013  20 32  -21.0772 25984.2 -03423.5 -07.5057 26208.8
 24 04 2013  20 33  -21.0769 25984.5 -03423.9 -07.5064 26209.1
 24 04 2013  20 34  -21.0768 25984.7 -03424.2 -07.5069 26209.3
 24 04 2013  20 35  -21.0766 25985.0 -03424.5 -07.5076 26209.7
 24 04 2013  20 36  -21.0766 25985.4 -03424.8 -07.5082 26210.1
 24 04 2013  20 37  -21.0765 25985.9 -03425.2 -07.5089 26210.6
 24 04 2013  20 38  -21.0762 25986.2 -03425.5 -07.5095 26211.0
 24 04 2013  20 39  -21.0756 25986.7 -03425.8 -07.5100 26211.5
 24 04 2013  20 40  -21.0753 25987.1 -03426.1 -07.5105 26211.9
 24 04 2013  20 41  -21.0751 25987.4 -03426.3 -07.5109 26212.3
 24 04 2013  20 42  -21.0748 25987.7 -03426.6 -07.5113 26212.6
 24 04 2013  20 43  -21.0743 25988.1 -03426.8 -07.5117 26213.1
 24 04 2013  20 44  -21.0740 25988.5 -03427.1 -07.5122 26213.5
 24 04 2013  20 45  -21.0736 25988.9 -03427.3 -07.5126 26214.0
 24 04 2013  20 46  -21.0736 25989.4 -03427.6 -07.5131 26214.4
 24 04 2013  20 47  -21.0737 25989.7 -03427.9 -07.5136 26214.8
 24 04 2013  20 48  -21.0736 25990.1 -03428.1 -07.5139 26215.2
 24 04 2013  20 49  -21.0736 25990.3 -03428.2 -07.5142 26215.5
 24 04 2013  20 50  -21.0736 25990.6 -03428.3 -07.5143 26215.7
 24 04 2013  20 51  -21.0732 25990.8 -03428.5 -07.5145 26215.9
 24 04 2013  20 52  -21.0729 25990.8 -03428.5 -07.5146 26216.0
 24 04 2013  20 53  -21.0726 25991.1 -03428.6 -07.5147 26216.3
 24 04 2013  20 54  -21.0723 25991.3 -03428.7 -07.5149 26216.4
 24 04 2013  20 55  -21.0718 25991.4 -03428.7 -07.5149 26216.6
 24 04 2013  20 56  -21.0714 25991.6 -03428.9 -07.5152 26216.8
 24 04 2013  20 57  -21.0710 25992.0 -03429.2 -07.5157 26217.3
 24 04 2013  20 58  -21.0708 25992.4 -03429.3 -07.5160 26217.6
 24 04 2013  20 59  -21.0705 25992.8 -03429.6 -07.5164 26218.1
 24 04 2013  21 00  -21.0701 25993.1 -03429.7 -07.5166 26218.4
 24 04 2013  21 01  -21.0698 25993.4 -03429.9 -07.5169 26218.7
 24 04 2013  21 02  -21.0694 25993.6 -03430.0 -07.5171 26219.0
 24 04 2013  21 03  -21.0688 25993.9 -03430.2 -07.5174 26219.3
 24 04 2013  21 04  -21.0687 25994.2 -03430.3 -07.5176 26219.6
 24 04 2013  21 05  -21.0686 25994.5 -03430.5 -07.5178 26219.9
 24 04 2013  21 06  -21.0685 25994.7 -03430.6 -07.5179 26220.1
 24 04 2013  21 07  -21.0686 25995.1 -03430.7 -07.5181 26220.5
 24 04 2013  21 08  -21.0688 25995.4 -03430.8 -07.5183 26220.8
 24 04 2013  21 09  -21.0691 25995.6 -03431.0 -07.5185 26221.1
 24 04 2013  21 10  -21.0692 25996.0 -03431.1 -07.5187 26221.4
 24 04 2013  21 11  -21.0693 25996.3 -03431.2 -07.5188 26221.7
 24 04 2013  21 12  -21.0691 25996.5 -03431.2 -07.5189 26222.0
 24 04 2013  21 13  -21.0689 25996.6 -03431.2 -07.5188 26222.1
 24 04 2013  21 14  -21.0688 25996.8 -03431.2 -07.5188 26222.2
 24 04 2013  21 15  -21.0686 25996.8 -03431.2 -07.5187 26222.3
 24 04 2013  21 16  -21.0687 25996.9 -03431.2 -07.5187 26222.4
 24 04 2013  21 17  -21.0688 25997.1 -03431.2 -07.5187 26222.5
 24 04 2013  21 18  -21.0690 25997.1 -03431.2 -07.5187 26222.6
 24 04 2013  21 19  -21.0692 25997.1 -03431.2 -07.5187 26222.6
 24 04 2013  21 20  -21.0696 25997.3 -03431.2 -07.5187 26222.7
 24 04 2013  21 21  -21.0701 25997.4 -03431.3 -07.5187 26222.9
 24 04 2013  21 22  -21.0705 25997.5 -03431.3 -07.5187 26223.0
 24 04 2013  21 23  -21.0707 25997.5 -03431.2 -07.5185 26223.0
 24 04 2013  21 24  -21.0709 25997.6 -03431.2 -07.5184 26223.0
 24 04 2013  21 25  -21.0712 25997.5 -03431.0 -07.5181 26222.9
 24 04 2013  21 26  -21.0715 25997.4 -03431.0 -07.5181 26222.8
 24 04 2013  21 27  -21.0720 25997.4 -03431.0 -07.5181 26222.8
 24 04 2013  21 28  -21.0725 25997.4 -03430.9 -07.5179 26222.8
 24 04 2013  21 29  -21.0732 25997.5 -03431.0 -07.5180 26222.9
 24 04 2013  21 30  -21.0735 25997.6 -03430.9 -07.5179 26223.0
 24 04 2013  21 31  -21.0740 25997.6 -03430.9 -07.5179 26223.0
 24 04 2013  21 32  -21.0744 25997.7 -03430.9 -07.5178 26223.1
 24 04 2013  21 33  -21.0750 25997.7 -03430.8 -07.5177 26223.1
 24 04 2013  21 34  -21.0756 25997.8 -03430.8 -07.5177 26223.2
 24 04 2013  21 35  -21.0763 25997.7 -03430.8 -07.5175 26223.1
 24 04 2013  21 36  -21.0770 25997.6 -03430.7 -07.5174 26223.0
 24 04 2013  21 37  -21.0774 25997.4 -03430.4 -07.5169 26222.7
 24 04 2013  21 38  -21.0774 25997.1 -03430.3 -07.5166 26222.4
 24 04 2013  21 39  -21.0773 25996.8 -03430.1 -07.5163 26222.1
 24 04 2013  21 40  -21.0773 25996.4 -03429.8 -07.5159 26221.7
 24 04 2013  21 41  -21.0775 25996.1 -03429.7 -07.5156 26221.4
 24 04 2013  21 42  -21.0777 25995.9 -03429.6 -07.5155 26221.2
 24 04 2013  21 43  -21.0777 25995.7 -03429.5 -07.5154 26220.9
 24 04 2013  21 44  -21.0774 25995.2 -03429.3 -07.5150 26220.4
 24 04 2013  21 45  -21.0773 25995.0 -03429.2 -07.5149 26220.2
 24 04 2013  21 46  -21.0776 25994.9 -03429.2 -07.5149 26220.1
 24 04 2013  21 47  -21.0782 25994.7 -03429.1 -07.5149 26219.9
 24 04 2013  21 48  -21.0790 25994.6 -03429.1 -07.5148 26219.8
 24 04 2013  21 49  -21.0798 25994.3 -03429.0 -07.5148 26219.5
 24 04 2013  21 50  -21.0805 25994.3 -03429.1 -07.5148 26219.5
 24 04 2013  21 51  -21.0812 25994.0 -03429.0 -07.5147 26219.2
 24 04 2013  21 52  -21.0820 25993.8 -03428.9 -07.5146 26219.0
 24 04 2013  21 53  -21.0824 25993.6 -03428.8 -07.5144 26218.8
 24 04 2013  21 54  -21.0827 25993.5 -03428.7 -07.5142 26218.6
 24 04 2013  21 55  -21.0833 25993.4 -03428.6 -07.5142 26218.5
 24 04 2013  21 56  -21.0840 25993.3 -03428.6 -07.5141 26218.5
 24 04 2013  21 57  -21.0846 25993.2 -03428.6 -07.5141 26218.3
 24 04 2013  21 58  -21.0853 25993.0 -03428.5 -07.5140 26218.1
 24 04 2013  21 59  -21.0859 25993.1 -03428.6 -07.5141 26218.2
 24 04 2013  22 00  -21.0865 25993.1 -03428.6 -07.5141 26218.2
 24 04 2013  22 01  -21.0868 25993.0 -03428.5 -07.5140 26218.2
 24 04 2013  22 02  -21.0869 25993.2 -03428.6 -07.5142 26218.3
 24 04 2013  22 03  -21.0870 25993.2 -03428.6 -07.5141 26218.3
 24 04 2013  22 04  -21.0872 25993.1 -03428.5 -07.5140 26218.3
 24 04 2013  22 05  -21.0877 25992.9 -03428.5 -07.5139 26218.1
 24 04 2013  22 06  -21.0882 25992.9 -03428.4 -07.5139 26218.0
 24 04 2013  22 07  -21.0886 25992.7 -03428.3 -07.5137 26217.8
 24 04 2013  22 08  -21.0890 25992.5 -03428.3 -07.5136 26217.7
 24 04 2013  22 09  -21.0893 25992.4 -03428.2 -07.5135 26217.5
 24 04 2013  22 10  -21.0893 25992.4 -03428.2 -07.5134 26217.5
 24 04 2013  22 11  -21.0892 25992.3 -03428.1 -07.5134 26217.4
 24 04 2013  22 12  -21.0890 25992.3 -03428.2 -07.5134 26217.4
 24 04 2013  22 13  -21.0887 25992.1 -03428.1 -07.5133 26217.2
 24 04 2013  22 14  -21.0882 25992.2 -03428.1 -07.5133 26217.3
 24 04 2013  22 15  -21.0878 25992.2 -03428.1 -07.5134 26217.3
 24 04 2013  22 16  -21.0875 25992.2 -03428.2 -07.5135 26217.3
 24 04 2013  22 17  -21.0872 25992.2 -03428.2 -07.5136 26217.3
 24 04 2013  22 18  -21.0872 25992.2 -03428.2 -07.5137 26217.3
 24 04 2013  22 19  -21.0871 25992.2 -03428.3 -07.5137 26217.3
 24 04 2013  22 20  -21.0868 25992.2 -03428.3 -07.5139 26217.3
 24 04 2013  22 21  -21.0866 25992.3 -03428.4 -07.5139 26217.4
 24 04 2013  22 22  -21.0865 25992.4 -03428.5 -07.5142 26217.5
 24 04 2013  22 23  -21.0862 25992.5 -03428.7 -07.5145 26217.7
 24 04 2013  22 24  -21.0862 25992.7 -03428.8 -07.5148 26217.9
 24 04 2013  22 25  -21.0861 25992.8 -03428.9 -07.5149 26218.0
 24 04 2013  22 26  -21.0859 25993.0 -03429.0 -07.5150 26218.2
 24 04 2013  22 27  -21.0858 25993.2 -03429.1 -07.5153 26218.5
 24 04 2013  22 28  -21.0862 25993.6 -03429.3 -07.5156 26218.8
 24 04 2013  22 29  -21.0864 25994.1 -03429.6 -07.5160 26219.4
 24 04 2013  22 30  -21.0867 25994.3 -03429.8 -07.5164 26219.6
 24 04 2013  22 31  -21.0865 25994.7 -03429.9 -07.5165 26220.0
 24 04 2013  22 32  -21.0864 25995.2 -03430.1 -07.5167 26220.5
 24 04 2013  22 33  -21.0865 25995.5 -03430.3 -07.5170 26220.9
 24 04 2013  22 34  -21.0868 25995.8 -03430.3 -07.5172 26221.1
 24 04 2013  22 35  -21.0873 25996.0 -03430.4 -07.5173 26221.4
 24 04 2013  22 36  -21.0877 25996.2 -03430.4 -07.5173 26221.5
 24 04 2013  22 37  -21.0880 25996.3 -03430.4 -07.5172 26221.7
 24 04 2013  22 38  -21.0882 25996.3 -03430.3 -07.5170 26221.7
 24 04 2013  22 39  -21.0883 25996.4 -03430.3 -07.5168 26221.7
 24 04 2013  22 40  -21.0883 25996.2 -03430.1 -07.5166 26221.5
 24 04 2013  22 41  -21.0881 25995.9 -03429.9 -07.5162 26221.2
 24 04 2013  22 42  -21.0878 25995.7 -03429.7 -07.5158 26221.0
 24 04 2013  22 43  -21.0874 25995.4 -03429.6 -07.5156 26220.7
 24 04 2013  22 44  -21.0871 25995.1 -03429.4 -07.5153 26220.4
 24 04 2013  22 45  -21.0869 25994.7 -03429.2 -07.5150 26219.9
 24 04 2013  22 46  -21.0869 25994.5 -03429.1 -07.5148 26219.7
 24 04 2013  22 47  -21.0866 25994.1 -03428.9 -07.5145 26219.2
 24 04 2013  22 48  -21.0865 25993.6 -03428.7 -07.5142 26218.8
 24 04 2013  22 49  -21.0862 25993.1 -03428.5 -07.5139 26218.3
 24 04 2013  22 50  -21.0861 25992.6 -03428.3 -07.5137 26217.8
 24 04 2013  22 51  -21.0861 25992.3 -03428.2 -07.5136 26217.4
 24 04 2013  22 52  -21.0861 25991.9 -03428.1 -07.5135 26216.9
 24 04 2013  22 53  -21.0861 25991.7 -03428.1 -07.5135 26216.8
 24 04 2013  22 54  -21.0860 25991.3 -03428.0 -07.5134 26216.4
 24 04 2013  22 55  -21.0859 25990.8 -03427.9 -07.5133 26215.9
 24 04 2013  22 56  -21.0857 25990.5 -03427.8 -07.5132 26215.5
 24 04 2013  22 57  -21.0857 25990.1 -03427.8 -07.5132 26215.2
 24 04 2013  22 58  -21.0858 25989.7 -03427.6 -07.5131 26214.7
 24 04 2013  22 59  -21.0859 25989.1 -03427.5 -07.5129 26214.1
 24 04 2013  23 00  -21.0857 25988.6 -03427.3 -07.5127 26213.6
 24 04 2013  23 01  -21.0856 25988.1 -03427.2 -07.5125 26213.1
 24 04 2013  23 02  -21.0855 25987.7 -03427.1 -07.5125 26212.7
 24 04 2013  23 03  -21.0852 25987.2 -03427.0 -07.5124 26212.1
 24 04 2013  23 04  -21.0848 25986.8 -03426.9 -07.5123 26211.8
 24 04 2013  23 05  -21.0843 25986.6 -03427.0 -07.5126 26211.6
 24 04 2013  23 06  -21.0839 25986.5 -03427.1 -07.5129 26211.5
 24 04 2013  23 07  -21.0838 25986.3 -03427.2 -07.5131 26211.3
 24 04 2013  23 08  -21.0837 25986.0 -03427.2 -07.5132 26211.0
 24 04 2013  23 09  -21.0835 25985.8 -03427.3 -07.5133 26210.8
 24 04 2013  23 10  -21.0835 25985.6 -03427.3 -07.5135 26210.6
 24 04 2013  23 11  -21.0836 25985.5 -03427.4 -07.5137 26210.6
 24 04 2013  23 12  -21.0838 25985.6 -03427.6 -07.5141 26210.7
 24 04 2013  23 13  -21.0840 25985.7 -03427.8 -07.5145 26210.8
 24 04 2013  23 14  -21.0843 25985.7 -03427.9 -07.5148 26210.8
 24 04 2013  23 15  -21.0844 25985.6 -03428.0 -07.5150 26210.7
 24 04 2013  23 16  -21.0842 25985.7 -03428.1 -07.5151 26210.8
 24 04 2013  23 17  -21.0839 25985.8 -03428.2 -07.5154 26211.0
 24 04 2013  23 18  -21.0834 25986.0 -03428.4 -07.5157 26211.2
 24 04 2013  23 19  -21.0832 25986.2 -03428.6 -07.5160 26211.4
 24 04 2013  23 20  -21.0831 25986.4 -03428.8 -07.5164 26211.7
 24 04 2013  23 21  -21.0832 25986.6 -03429.0 -07.5168 26211.9
 24 04 2013  23 22  -21.0833 25986.8 -03429.1 -07.5171 26212.1
 24 04 2013  23 23  -21.0834 25987.1 -03429.3 -07.5174 26212.4
 24 04 2013  23 24  -21.0834 25987.5 -03429.6 -07.5178 26212.9
 24 04 2013  23 25  -21.0833 25987.8 -03429.8 -07.5182 26213.2
 24 04 2013  23 26  -21.0828 25988.1 -03429.9 -07.5184 26213.4
 24 04 2013  23 27  -21.0822 25988.2 -03430.0 -07.5185 26213.6
 24 04 2013  23 28  -21.0816 25988.4 -03430.1 -07.5187 26213.8
 24 04 2013  23 29  -21.0811 25988.5 -03430.2 -07.5189 26213.9
 24 04 2013  23 30  -21.0808 25988.4 -03430.1 -07.5188 26213.8
 24 04 2013  23 31  -21.0805 25988.4 -03430.1 -07.5188 26213.7
 24 04 2013  23 32  -21.0803 25988.6 -03430.2 -07.5189 26214.0
 24 04 2013  23 33  -21.0803 25989.0 -03430.4 -07.5193 26214.4
 24 04 2013  23 34  -21.0802 25989.5 -03430.7 -07.5197 26214.9
 24 04 2013  23 35  -21.0803 25990.1 -03431.0 -07.5202 26215.6
 24 04 2013  23 36  -21.0805 25990.6 -03431.2 -07.5206 26216.1
 24 04 2013  23 37  -21.0803 25991.0 -03431.4 -07.5209 26216.5
 24 04 2013  23 38  -21.0802 25991.4 -03431.6 -07.5211 26216.9
 24 04 2013  23 39  -21.0800 25991.9 -03431.7 -07.5213 26217.4
 24 04 2013  23 40  -21.0799 25992.4 -03431.9 -07.5216 26218.0
 24 04 2013  23 41  -21.0799 25992.8 -03432.1 -07.5218 26218.4
 24 04 2013  23 42  -21.0796 25993.2 -03432.2 -07.5219 26218.9
 24 04 2013  23 43  -21.0793 25993.6 -03432.3 -07.5220 26219.3
 24 04 2013  23 44  -21.0789 25993.9 -03432.3 -07.5220 26219.5
 24 04 2013  23 45  -21.0785 25994.1 -03432.3 -07.5220 26219.7
 24 04 2013  23 46  -21.0782 25994.3 -03432.4 -07.5220 26220.0
 24 04 2013  23 47  -21.0780 25994.5 -03432.4 -07.5221 26220.2
 24 04 2013  23 48  -21.0777 25994.8 -03432.5 -07.5221 26220.4
 24 04 2013  23 49  -21.0773 25994.9 -03432.5 -07.5221 26220.6
 24 04 2013  23 50  -21.0775 25995.1 -03432.5 -07.5221 26220.8
 24 04 2013  23 51  -21.0772 25995.6 -03432.7 -07.5223 26221.2
 24 04 2013  23 52  -21.0767 25995.8 -03432.8 -07.5224 26221.5
 24 04 2013  23 53  -21.0761 25995.9 -03432.7 -07.5223 26221.6
 24 04 2013  23 54  -21.0758 25996.3 -03432.9 -07.5225 26221.9
 24 04 2013  23 55  -21.0756 25996.7 -03433.0 -07.5227 26222.4
 24 04 2013  23 56  -21.0756 25996.8 -03433.1 -07.5228 26222.5
 24 04 2013  23 57  -21.0755 25997.1 -03433.1 -07.5228 26222.8
 24 04 2013  23 58  -21.0754 25997.5 -03433.3 -07.5230 26223.2
