SAO LUIS EMBRACE-03 <327> 1 Min. Reported data

 DD MM YYYY  HH MM   D(Deg)  H(nT)   Z(nT)   I(Deg)   F(nT)

 23 11 2013  00 00  -21.0025 26028.4 -03510.4 -07.6811 26264.1
 23 11 2013  00 01  -21.0027 26028.5 -03510.5 -07.6811 26264.2
 23 11 2013  00 02  -21.0029 26028.6 -03510.5 -07.6811 26264.2
 23 11 2013  00 03  -21.0030 26028.6 -03510.5 -07.6812 26264.3
 23 11 2013  00 04  -21.0030 26028.6 -03510.5 -07.6811 26264.3
 23 11 2013  00 05  -21.0030 26028.6 -03510.5 -07.6811 26264.3
 23 11 2013  00 06  -21.0029 26028.6 -03510.4 -07.6810 26264.3
 23 11 2013  00 07  -21.0030 26028.6 -03510.4 -07.6810 26264.3
 23 11 2013  00 08  -21.0033 26028.6 -03510.4 -07.6809 26264.2
 23 11 2013  00 09  -21.0037 26028.4 -03510.3 -07.6808 26264.1
 23 11 2013  00 10  -21.0038 26028.4 -03510.3 -07.6808 26264.1
 23 11 2013  00 11  -21.0041 26028.3 -03510.3 -07.6807 26264.0
 23 11 2013  00 12  -21.0044 26028.3 -03510.2 -07.6807 26263.9
 23 11 2013  00 13  -21.0044 26028.2 -03510.2 -07.6806 26263.9
 23 11 2013  00 14  -21.0044 26028.3 -03510.2 -07.6806 26263.9
 23 11 2013  00 15  -21.0046 26028.2 -03510.1 -07.6805 26263.8
 23 11 2013  00 16  -21.0049 26028.1 -03510.1 -07.6804 26263.7
 23 11 2013  00 17  -21.0049 26028.1 -03510.0 -07.6803 26263.7
 23 11 2013  00 18  -21.0050 26028.1 -03510.0 -07.6803 26263.7
 23 11 2013  00 19  -21.0050 26028.1 -03510.1 -07.6804 26263.8
 23 11 2013  00 20  -21.0051 26028.1 -03510.0 -07.6803 26263.7
 23 11 2013  00 21  -21.0051 26028.1 -03510.0 -07.6802 26263.7
 23 11 2013  00 22  -21.0052 26028.2 -03510.0 -07.6803 26263.8
 23 11 2013  00 23  -21.0051 26028.2 -03510.0 -07.6803 26263.8
 23 11 2013  00 24  -21.0051 26028.2 -03510.0 -07.6802 26263.8
 23 11 2013  00 25  -21.0052 26028.2 -03510.0 -07.6803 26263.8
 23 11 2013  00 26  -21.0054 26028.1 -03509.9 -07.6801 26263.7
 23 11 2013  00 27  -21.0054 26028.0 -03509.9 -07.6801 26263.6
 23 11 2013  00 28  -21.0054 26027.9 -03509.9 -07.6800 26263.5
 23 11 2013  00 29  -21.0056 26027.9 -03509.8 -07.6799 26263.5
 23 11 2013  00 30  -21.0053 26027.9 -03509.8 -07.6799 26263.5
 23 11 2013  00 31  -21.0052 26027.8 -03509.8 -07.6798 26263.4
 23 11 2013  00 32  -21.0053 26027.8 -03509.8 -07.6798 26263.4
 23 11 2013  00 33  -21.0054 26027.8 -03509.8 -07.6798 26263.3
 23 11 2013  00 34  -21.0057 26027.8 -03509.8 -07.6799 26263.4
 23 11 2013  00 35  -21.0057 26027.8 -03509.7 -07.6798 26263.3
 23 11 2013  00 36  -21.0059 26027.8 -03509.7 -07.6798 26263.3
 23 11 2013  00 37  -21.0060 26027.7 -03509.7 -07.6797 26263.2
 23 11 2013  00 38  -21.0060 26027.6 -03509.7 -07.6797 26263.2
 23 11 2013  00 39  -21.0061 26027.6 -03509.7 -07.6796 26263.2
 23 11 2013  00 40  -21.0062 26027.5 -03509.6 -07.6796 26263.1
 23 11 2013  00 41  -21.0062 26027.4 -03509.6 -07.6795 26263.0
 23 11 2013  00 42  -21.0062 26027.4 -03509.6 -07.6795 26263.0
 23 11 2013  00 43  -21.0063 26027.4 -03509.6 -07.6795 26263.0
 23 11 2013  00 44  -21.0061 26027.4 -03509.6 -07.6795 26262.9
 23 11 2013  00 45  -21.0059 26027.4 -03509.6 -07.6795 26262.9
 23 11 2013  00 46  -21.0060 26027.4 -03509.6 -07.6796 26263.0
 23 11 2013  00 47  -21.0060 26027.5 -03509.6 -07.6796 26263.0
 23 11 2013  00 48  -21.0059 26027.5 -03509.7 -07.6797 26263.0
 23 11 2013  00 49  -21.0060 26027.4 -03509.6 -07.6797 26263.0
 23 11 2013  00 50  -21.0059 26027.4 -03509.6 -07.6797 26263.0
 23 11 2013  00 51  -21.0058 26027.4 -03509.7 -07.6797 26262.9
 23 11 2013  00 52  -21.0058 26027.4 -03509.7 -07.6797 26262.9
 23 11 2013  00 53  -21.0059 26027.3 -03509.7 -07.6798 26262.9
 23 11 2013  00 54  -21.0059 26027.3 -03509.7 -07.6798 26262.9
 23 11 2013  00 55  -21.0059 26027.3 -03509.7 -07.6799 26262.9
 23 11 2013  00 56  -21.0061 26027.3 -03509.7 -07.6799 26262.9
 23 11 2013  00 57  -21.0062 26027.3 -03509.8 -07.6800 26262.9
 23 11 2013  00 58  -21.0062 26027.3 -03509.8 -07.6799 26262.8
 23 11 2013  00 59  -21.0063 26027.3 -03509.8 -07.6800 26262.9
 23 11 2013  01 00  -21.0065 26027.3 -03509.8 -07.6800 26262.9
 23 11 2013  01 01  -21.0066 26027.3 -03509.8 -07.6800 26262.9
 23 11 2013  01 02  -21.0067 26027.3 -03509.8 -07.6800 26262.9
 23 11 2013  01 03  -21.0068 26027.3 -03509.8 -07.6801 26262.9
 23 11 2013  01 04  -21.0069 26027.3 -03509.8 -07.6801 26262.9
 23 11 2013  01 05  -21.0070 26027.2 -03509.9 -07.6802 26262.8
 23 11 2013  01 06  -21.0071 26027.2 -03509.8 -07.6801 26262.8
 23 11 2013  01 07  -21.0072 26027.1 -03509.8 -07.6801 26262.7
 23 11 2013  01 08  -21.0072 26027.1 -03509.8 -07.6801 26262.7
 23 11 2013  01 09  -21.0072 26027.1 -03509.8 -07.6801 26262.7
 23 11 2013  01 10  -21.0072 26027.1 -03509.8 -07.6801 26262.7
 23 11 2013  01 11  -21.0072 26027.1 -03509.9 -07.6802 26262.7
 23 11 2013  01 12  -21.0070 26027.1 -03509.8 -07.6802 26262.7
 23 11 2013  01 13  -21.0071 26027.1 -03509.9 -07.6803 26262.7
 23 11 2013  01 14  -21.0072 26027.2 -03509.9 -07.6803 26262.8
 23 11 2013  01 15  -21.0071 26027.1 -03510.0 -07.6804 26262.8
 23 11 2013  01 16  -21.0070 26027.2 -03510.0 -07.6804 26262.8
 23 11 2013  01 17  -21.0071 26027.2 -03510.0 -07.6804 26262.8
 23 11 2013  01 18  -21.0072 26027.2 -03510.0 -07.6805 26262.8
 23 11 2013  01 19  -21.0071 26027.3 -03510.1 -07.6806 26262.9
 23 11 2013  01 20  -21.0071 26027.4 -03510.1 -07.6807 26263.1
 23 11 2013  01 21  -21.0068 26027.6 -03510.2 -07.6809 26263.3
 23 11 2013  01 22  -21.0065 26027.8 -03510.3 -07.6810 26263.5
 23 11 2013  01 23  -21.0062 26028.0 -03510.4 -07.6811 26263.7
 23 11 2013  01 24  -21.0059 26028.3 -03510.5 -07.6813 26264.0
 23 11 2013  01 25  -21.0057 26028.5 -03510.7 -07.6815 26264.2
 23 11 2013  01 26  -21.0055 26028.8 -03510.7 -07.6816 26264.5
 23 11 2013  01 27  -21.0054 26028.9 -03510.8 -07.6818 26264.6
 23 11 2013  01 28  -21.0053 26029.1 -03510.9 -07.6819 26264.8
 23 11 2013  01 29  -21.0052 26029.2 -03510.9 -07.6819 26265.0
 23 11 2013  01 30  -21.0053 26029.3 -03511.0 -07.6820 26265.1
 23 11 2013  01 31  -21.0053 26029.4 -03511.0 -07.6820 26265.2
 23 11 2013  01 32  -21.0054 26029.5 -03511.0 -07.6819 26265.2
 23 11 2013  01 33  -21.0055 26029.5 -03511.0 -07.6820 26265.2
 23 11 2013  01 34  -21.0056 26029.5 -03511.0 -07.6819 26265.2
 23 11 2013  01 35  -21.0058 26029.5 -03510.9 -07.6819 26265.2
 23 11 2013  01 36  -21.0059 26029.4 -03510.9 -07.6818 26265.1
 23 11 2013  01 37  -21.0060 26029.4 -03510.9 -07.6817 26265.1
 23 11 2013  01 38  -21.0061 26029.4 -03510.8 -07.6817 26265.1
 23 11 2013  01 39  -21.0062 26029.3 -03510.8 -07.6815 26265.0
 23 11 2013  01 40  -21.0065 26029.3 -03510.8 -07.6816 26264.9
 23 11 2013  01 41  -21.0065 26029.2 -03510.7 -07.6815 26264.9
 23 11 2013  01 42  -21.0068 26029.1 -03510.7 -07.6814 26264.8
 23 11 2013  01 43  -21.0069 26029.0 -03510.6 -07.6813 26264.7
 23 11 2013  01 44  -21.0069 26029.0 -03510.6 -07.6814 26264.7
 23 11 2013  01 45  -21.0069 26029.0 -03510.6 -07.6813 26264.7
 23 11 2013  01 46  -21.0070 26029.0 -03510.6 -07.6813 26264.7
 23 11 2013  01 47  -21.0071 26029.0 -03510.6 -07.6813 26264.7
 23 11 2013  01 48  -21.0072 26028.9 -03510.6 -07.6812 26264.6
 23 11 2013  01 49  -21.0075 26029.0 -03510.7 -07.6814 26264.7
 23 11 2013  01 50  -21.0077 26029.1 -03510.7 -07.6814 26264.8
 23 11 2013  01 51  -21.0079 26029.1 -03510.7 -07.6814 26264.8
 23 11 2013  01 52  -21.0081 26029.0 -03510.7 -07.6814 26264.7
 23 11 2013  01 53  -21.0082 26029.0 -03510.6 -07.6813 26264.7
 23 11 2013  01 54  -21.0085 26028.9 -03510.6 -07.6812 26264.5
 23 11 2013  01 55  -21.0087 26028.8 -03510.5 -07.6812 26264.4
 23 11 2013  01 56  -21.0088 26028.7 -03510.5 -07.6811 26264.3
 23 11 2013  01 57  -21.0088 26028.6 -03510.4 -07.6810 26264.3
 23 11 2013  01 58  -21.0090 26028.6 -03510.5 -07.6811 26264.3
 23 11 2013  01 59  -21.0091 26028.6 -03510.4 -07.6810 26264.2
 23 11 2013  02 00  -21.0092 26028.6 -03510.5 -07.6811 26264.2
 23 11 2013  02 01  -21.0093 26028.6 -03510.4 -07.6811 26264.2
 23 11 2013  02 02  -21.0095 26028.6 -03510.4 -07.6810 26264.2
 23 11 2013  02 03  -21.0097 26028.6 -03510.5 -07.6811 26264.2
 23 11 2013  02 04  -21.0098 26028.6 -03510.5 -07.6811 26264.2
 23 11 2013  02 05  -21.0100 26028.6 -03510.4 -07.6810 26264.2
 23 11 2013  02 06  -21.0102 26028.5 -03510.4 -07.6810 26264.2
 23 11 2013  02 07  -21.0104 26028.5 -03510.4 -07.6809 26264.1
 23 11 2013  02 08  -21.0104 26028.4 -03510.4 -07.6809 26264.1
 23 11 2013  02 09  -21.0104 26028.4 -03510.3 -07.6808 26264.0
 23 11 2013  02 10  -21.0105 26028.4 -03510.3 -07.6808 26264.0
 23 11 2013  02 11  -21.0104 26028.4 -03510.3 -07.6807 26264.0
 23 11 2013  02 12  -21.0101 26028.5 -03510.3 -07.6807 26264.1
 23 11 2013  02 13  -21.0099 26028.5 -03510.3 -07.6808 26264.2
 23 11 2013  02 14  -21.0098 26028.6 -03510.3 -07.6808 26264.3
 23 11 2013  02 15  -21.0097 26028.8 -03510.4 -07.6809 26264.5
 23 11 2013  02 16  -21.0096 26029.0 -03510.5 -07.6811 26264.7
 23 11 2013  02 17  -21.0095 26029.3 -03510.7 -07.6813 26265.0
 23 11 2013  02 18  -21.0093 26029.6 -03510.8 -07.6815 26265.3
 23 11 2013  02 19  -21.0091 26029.8 -03510.9 -07.6817 26265.5
 23 11 2013  02 20  -21.0089 26029.9 -03510.9 -07.6817 26265.6
 23 11 2013  02 21  -21.0087 26030.0 -03510.9 -07.6817 26265.7
 23 11 2013  02 22  -21.0085 26030.0 -03511.0 -07.6817 26265.8
 23 11 2013  02 23  -21.0085 26030.1 -03511.0 -07.6817 26265.8
 23 11 2013  02 24  -21.0085 26030.1 -03511.0 -07.6817 26265.8
 23 11 2013  02 25  -21.0085 26030.2 -03510.9 -07.6817 26265.9
 23 11 2013  02 26  -21.0087 26030.2 -03510.9 -07.6815 26265.9
 23 11 2013  02 27  -21.0091 26030.1 -03510.9 -07.6815 26265.8
 23 11 2013  02 28  -21.0093 26030.1 -03510.8 -07.6815 26265.8
 23 11 2013  02 29  -21.0094 26030.0 -03510.8 -07.6814 26265.7
 23 11 2013  02 30  -21.0094 26029.9 -03510.7 -07.6812 26265.5
 23 11 2013  02 31  -21.0094 26029.8 -03510.6 -07.6811 26265.5
 23 11 2013  02 32  -21.0095 26029.7 -03510.6 -07.6810 26265.4
 23 11 2013  02 33  -21.0094 26029.7 -03510.5 -07.6808 26265.3
 23 11 2013  02 34  -21.0096 26029.5 -03510.5 -07.6808 26265.2
 23 11 2013  02 35  -21.0096 26029.5 -03510.4 -07.6807 26265.2
 23 11 2013  02 36  -21.0096 26029.5 -03510.4 -07.6807 26265.1
 23 11 2013  02 37  -21.0098 26029.3 -03510.3 -07.6805 26265.0
 23 11 2013  02 38  -21.0100 26029.3 -03510.3 -07.6805 26265.0
 23 11 2013  02 39  -21.0103 26029.2 -03510.3 -07.6805 26264.9
 23 11 2013  02 40  -21.0105 26029.2 -03510.2 -07.6804 26264.8
 23 11 2013  02 41  -21.0107 26029.1 -03510.2 -07.6803 26264.7
 23 11 2013  02 42  -21.0110 26029.0 -03510.1 -07.6801 26264.6
 23 11 2013  02 43  -21.0111 26028.8 -03509.9 -07.6799 26264.4
 23 11 2013  02 44  -21.0110 26028.6 -03509.8 -07.6797 26264.2
 23 11 2013  02 45  -21.0110 26028.4 -03509.7 -07.6795 26263.9
 23 11 2013  02 46  -21.0109 26028.1 -03509.6 -07.6793 26263.7
 23 11 2013  02 47  -21.0110 26028.0 -03509.5 -07.6792 26263.5
 23 11 2013  02 48  -21.0112 26027.8 -03509.5 -07.6791 26263.3
 23 11 2013  02 49  -21.0113 26027.6 -03509.4 -07.6790 26263.1
 23 11 2013  02 50  -21.0115 26027.4 -03509.3 -07.6789 26262.9
 23 11 2013  02 51  -21.0117 26027.2 -03509.2 -07.6788 26262.7
 23 11 2013  02 52  -21.0118 26027.0 -03509.2 -07.6788 26262.5
 23 11 2013  02 53  -21.0117 26026.7 -03509.1 -07.6786 26262.2
 23 11 2013  02 54  -21.0115 26026.4 -03508.9 -07.6784 26261.9
 23 11 2013  02 55  -21.0113 26026.2 -03508.9 -07.6784 26261.7
 23 11 2013  02 56  -21.0112 26026.0 -03508.8 -07.6783 26261.4
 23 11 2013  02 57  -21.0113 26025.8 -03508.8 -07.6783 26261.3
 23 11 2013  02 58  -21.0115 26025.7 -03508.8 -07.6782 26261.2
 23 11 2013  02 59  -21.0118 26025.6 -03508.8 -07.6784 26261.1
 23 11 2013  03 00  -21.0122 26025.6 -03508.8 -07.6785 26261.0
 23 11 2013  03 01  -21.0124 26025.4 -03508.8 -07.6784 26260.8
 23 11 2013  03 02  -21.0127 26025.2 -03508.7 -07.6783 26260.6
 23 11 2013  03 03  -21.0128 26025.0 -03508.7 -07.6783 26260.5
 23 11 2013  03 04  -21.0128 26024.9 -03508.7 -07.6782 26260.4
 23 11 2013  03 05  -21.0126 26024.9 -03508.6 -07.6782 26260.3
 23 11 2013  03 06  -21.0124 26024.8 -03508.7 -07.6783 26260.2
 23 11 2013  03 07  -21.0120 26024.7 -03508.6 -07.6782 26260.2
 23 11 2013  03 08  -21.0113 26024.7 -03508.6 -07.6783 26260.2
 23 11 2013  03 09  -21.0109 26024.9 -03508.8 -07.6785 26260.4
 23 11 2013  03 10  -21.0104 26025.1 -03508.9 -07.6788 26260.6
 23 11 2013  03 11  -21.0099 26025.2 -03509.1 -07.6790 26260.7
 23 11 2013  03 12  -21.0092 26025.4 -03509.2 -07.6792 26260.9
 23 11 2013  03 13  -21.0085 26025.6 -03509.3 -07.6795 26261.1
 23 11 2013  03 14  -21.0079 26025.7 -03509.4 -07.6796 26261.2
 23 11 2013  03 15  -21.0076 26025.9 -03509.6 -07.6799 26261.5
 23 11 2013  03 16  -21.0072 26026.0 -03509.6 -07.6800 26261.6
 23 11 2013  03 17  -21.0071 26026.1 -03509.7 -07.6802 26261.7
 23 11 2013  03 18  -21.0075 26026.2 -03509.8 -07.6804 26261.8
 23 11 2013  03 19  -21.0081 26026.3 -03509.9 -07.6806 26261.9
 23 11 2013  03 20  -21.0086 26026.3 -03510.0 -07.6807 26262.0
 23 11 2013  03 21  -21.0089 26026.3 -03510.0 -07.6807 26261.9
 23 11 2013  03 22  -21.0095 26026.3 -03509.9 -07.6806 26261.9
 23 11 2013  03 23  -21.0099 26026.3 -03510.0 -07.6807 26261.9
 23 11 2013  03 24  -21.0101 26026.3 -03510.0 -07.6807 26261.9
 23 11 2013  03 25  -21.0103 26026.2 -03509.9 -07.6806 26261.8
 23 11 2013  03 26  -21.0103 26025.9 -03509.8 -07.6804 26261.5
 23 11 2013  03 27  -21.0103 26025.5 -03509.5 -07.6800 26261.0
 23 11 2013  03 28  -21.0100 26025.2 -03509.4 -07.6798 26260.7
 23 11 2013  03 29  -21.0100 26024.8 -03509.3 -07.6796 26260.3
 23 11 2013  03 30  -21.0096 26024.6 -03509.2 -07.6795 26260.2
 23 11 2013  03 31  -21.0100 26024.5 -03509.2 -07.6795 26260.0
 23 11 2013  03 32  -21.0103 26024.4 -03509.3 -07.6797 26259.9
 23 11 2013  03 33  -21.0107 26024.3 -03509.3 -07.6798 26259.9
 23 11 2013  03 34  -21.0104 26024.2 -03509.3 -07.6798 26259.7
 23 11 2013  03 35  -21.0103 26024.0 -03509.2 -07.6797 26259.6
 23 11 2013  03 36  -21.0105 26023.8 -03509.2 -07.6797 26259.4
 23 11 2013  03 37  -21.0104 26023.8 -03509.2 -07.6797 26259.3
 23 11 2013  03 38  -21.0102 26023.7 -03509.2 -07.6798 26259.3
 23 11 2013  03 39  -21.0101 26023.6 -03509.2 -07.6798 26259.2
 23 11 2013  03 40  -21.0098 26023.6 -03509.2 -07.6799 26259.1
 23 11 2013  03 41  -21.0097 26023.4 -03509.2 -07.6799 26258.9
 23 11 2013  03 42  -21.0093 26023.5 -03509.3 -07.6800 26259.1
 23 11 2013  03 43  -21.0094 26023.1 -03509.2 -07.6799 26258.6
 23 11 2013  03 44  -21.0089 26023.2 -03509.3 -07.6801 26258.8
 23 11 2013  03 45  -21.0086 26022.8 -03509.2 -07.6800 26258.4
 23 11 2013  03 46  -21.0088 26022.7 -03509.2 -07.6800 26258.2
 23 11 2013  03 47  -21.0085 26022.7 -03509.2 -07.6801 26258.3
 23 11 2013  03 48  -21.0081 26022.5 -03509.2 -07.6801 26258.1
 23 11 2013  03 49  -21.0079 26022.4 -03509.2 -07.6802 26258.0
 23 11 2013  03 50  -21.0076 26022.3 -03509.2 -07.6803 26257.8
 23 11 2013  03 51  -21.0074 26022.3 -03509.3 -07.6804 26257.9
 23 11 2013  03 52  -21.0070 26022.3 -03509.4 -07.6806 26257.9
 23 11 2013  03 53  -21.0070 26022.2 -03509.4 -07.6806 26257.7
 23 11 2013  03 54  -21.0067 26022.3 -03509.5 -07.6809 26257.9
 23 11 2013  03 55  -21.0067 26022.2 -03509.5 -07.6810 26257.8
 23 11 2013  03 56  -21.0063 26022.3 -03509.6 -07.6812 26257.9
 23 11 2013  03 57  -21.0059 26022.5 -03509.8 -07.6815 26258.1
 23 11 2013  03 58  -21.0057 26022.3 -03509.8 -07.6815 26257.9
 23 11 2013  03 59  -21.0053 26022.2 -03509.8 -07.6815 26257.8
 23 11 2013  04 00  -21.0053 26022.1 -03509.8 -07.6816 26257.8
 23 11 2013  04 01  -21.0052 26022.0 -03509.9 -07.6817 26257.6
 23 11 2013  04 02  -21.0052 26021.8 -03509.8 -07.6817 26257.4
 23 11 2013  04 03  -21.0054 26021.5 -03509.7 -07.6815 26257.1
 23 11 2013  04 04  -21.0056 26021.2 -03509.6 -07.6814 26256.8
 23 11 2013  04 05  -21.0057 26020.9 -03509.5 -07.6812 26256.5
 23 11 2013  04 06  -21.0062 26020.6 -03509.4 -07.6812 26256.2
 23 11 2013  04 07  -21.0068 26020.3 -03509.3 -07.6811 26255.9
 23 11 2013  04 08  -21.0074 26020.1 -03509.3 -07.6811 26255.7
 23 11 2013  04 09  -21.0078 26020.0 -03509.3 -07.6812 26255.5
 23 11 2013  04 10  -21.0081 26020.0 -03509.4 -07.6812 26255.6
 23 11 2013  04 11  -21.0085 26020.0 -03509.4 -07.6814 26255.6
 23 11 2013  04 12  -21.0090 26020.2 -03509.6 -07.6816 26255.8
 23 11 2013  04 13  -21.0093 26020.5 -03509.8 -07.6819 26256.2
 23 11 2013  04 14  -21.0095 26020.8 -03509.9 -07.6822 26256.4
 23 11 2013  04 15  -21.0095 26021.2 -03510.1 -07.6826 26256.9
 23 11 2013  04 16  -21.0098 26021.4 -03510.3 -07.6828 26257.1
 23 11 2013  04 17  -21.0101 26021.5 -03510.4 -07.6830 26257.2
 23 11 2013  04 18  -21.0102 26021.7 -03510.5 -07.6831 26257.4
 23 11 2013  04 19  -21.0102 26021.7 -03510.4 -07.6831 26257.4
 23 11 2013  04 20  -21.0102 26021.6 -03510.4 -07.6830 26257.3
 23 11 2013  04 21  -21.0105 26021.7 -03510.4 -07.6830 26257.5
 23 11 2013  04 22  -21.0109 26021.8 -03510.5 -07.6831 26257.5
 23 11 2013  04 23  -21.0113 26021.9 -03510.5 -07.6832 26257.6
 23 11 2013  04 24  -21.0117 26022.0 -03510.6 -07.6833 26257.7
 23 11 2013  04 25  -21.0120 26022.2 -03510.7 -07.6834 26257.9
 23 11 2013  04 26  -21.0119 26022.4 -03510.8 -07.6836 26258.1
 23 11 2013  04 27  -21.0121 26022.2 -03510.7 -07.6835 26257.9
 23 11 2013  04 28  -21.0117 26022.4 -03510.7 -07.6835 26258.2
 23 11 2013  04 29  -21.0118 26022.2 -03510.7 -07.6834 26258.0
 23 11 2013  04 30  -21.0114 26022.2 -03510.6 -07.6833 26257.9
 23 11 2013  04 31  -21.0112 26022.2 -03510.6 -07.6833 26257.9
 23 11 2013  04 32  -21.0112 26022.2 -03510.6 -07.6833 26257.9
 23 11 2013  04 33  -21.0115 26022.2 -03510.7 -07.6834 26258.0
 23 11 2013  04 34  -21.0118 26022.4 -03510.8 -07.6836 26258.1
 23 11 2013  04 35  -21.0117 26022.2 -03510.7 -07.6834 26258.0
 23 11 2013  04 36  -21.0115 26022.2 -03510.6 -07.6833 26257.9
 23 11 2013  04 37  -21.0111 26022.2 -03510.6 -07.6833 26257.9
 23 11 2013  04 38  -21.0111 26022.3 -03510.7 -07.6833 26258.0
 23 11 2013  04 39  -21.0113 26022.5 -03510.8 -07.6836 26258.3
 23 11 2013  04 40  -21.0118 26022.8 -03511.0 -07.6839 26258.6
 23 11 2013  04 41  -21.0124 26023.1 -03511.2 -07.6842 26258.9
 23 11 2013  04 42  -21.0130 26023.3 -03511.2 -07.6843 26259.1
 23 11 2013  04 43  -21.0132 26023.5 -03511.3 -07.6844 26259.3
 23 11 2013  04 44  -21.0135 26023.7 -03511.4 -07.6845 26259.5
 23 11 2013  04 45  -21.0133 26024.2 -03511.6 -07.6847 26260.1
 23 11 2013  04 46  -21.0133 26024.5 -03511.6 -07.6848 26260.3
 23 11 2013  04 47  -21.0129 26024.8 -03511.8 -07.6850 26260.7
 23 11 2013  04 48  -21.0127 26025.0 -03511.8 -07.6850 26260.9
 23 11 2013  04 49  -21.0125 26025.4 -03511.9 -07.6851 26261.2
 23 11 2013  04 50  -21.0125 26025.4 -03511.9 -07.6851 26261.3
 23 11 2013  04 51  -21.0124 26025.8 -03512.1 -07.6853 26261.7
 23 11 2013  04 52  -21.0129 26025.6 -03511.9 -07.6851 26261.5
 23 11 2013  04 53  -21.0131 26025.9 -03512.0 -07.6852 26261.8
 23 11 2013  04 54  -21.0133 26025.9 -03512.0 -07.6852 26261.8
 23 11 2013  04 55  -21.0134 26025.9 -03511.9 -07.6850 26261.8
 23 11 2013  04 56  -21.0134 26026.0 -03511.9 -07.6850 26261.9
 23 11 2013  04 57  -21.0135 26025.9 -03511.8 -07.6849 26261.8
 23 11 2013  04 58  -21.0130 26025.7 -03511.6 -07.6845 26261.5
 23 11 2013  04 59  -21.0125 26025.4 -03511.4 -07.6841 26261.2
 23 11 2013  05 00  -21.0122 26025.0 -03511.2 -07.6837 26260.8
 23 11 2013  05 01  -21.0120 26024.7 -03511.0 -07.6835 26260.5
 23 11 2013  05 02  -21.0114 26024.2 -03510.8 -07.6831 26260.0
 23 11 2013  05 03  -21.0110 26024.1 -03510.7 -07.6830 26259.8
 23 11 2013  05 04  -21.0108 26024.1 -03510.7 -07.6830 26259.8
 23 11 2013  05 05  -21.0103 26024.2 -03510.8 -07.6832 26259.9
 23 11 2013  05 06  -21.0102 26024.0 -03510.8 -07.6832 26259.8
 23 11 2013  05 07  -21.0101 26024.2 -03510.9 -07.6833 26259.9
 23 11 2013  05 08  -21.0103 26024.1 -03511.0 -07.6835 26259.9
 23 11 2013  05 09  -21.0105 26024.3 -03511.1 -07.6836 26260.0
 23 11 2013  05 10  -21.0105 26024.3 -03511.1 -07.6837 26260.1
 23 11 2013  05 11  -21.0104 26024.3 -03511.1 -07.6838 26260.1
 23 11 2013  05 12  -21.0104 26024.4 -03511.2 -07.6839 26260.2
 23 11 2013  05 13  -21.0102 26024.5 -03511.2 -07.6839 26260.3
 23 11 2013  05 14  -21.0098 26024.7 -03511.3 -07.6840 26260.5
 23 11 2013  05 15  -21.0093 26024.9 -03511.4 -07.6841 26260.7
 23 11 2013  05 16  -21.0089 26024.9 -03511.4 -07.6842 26260.7
 23 11 2013  05 17  -21.0088 26024.8 -03511.4 -07.6842 26260.6
 23 11 2013  05 18  -21.0089 26024.8 -03511.4 -07.6842 26260.6
 23 11 2013  05 19  -21.0085 26024.9 -03511.4 -07.6842 26260.7
 23 11 2013  05 20  -21.0081 26025.1 -03511.6 -07.6845 26261.0
 23 11 2013  05 21  -21.0078 26025.4 -03511.7 -07.6846 26261.3
 23 11 2013  05 22  -21.0076 26025.7 -03511.9 -07.6850 26261.6
 23 11 2013  05 23  -21.0072 26025.8 -03512.0 -07.6852 26261.7
 23 11 2013  05 24  -21.0066 26026.0 -03512.0 -07.6853 26261.9
 23 11 2013  05 25  -21.0062 26026.2 -03512.2 -07.6854 26262.1
 23 11 2013  05 26  -21.0056 26026.3 -03512.2 -07.6855 26262.3
 23 11 2013  05 27  -21.0051 26026.5 -03512.3 -07.6856 26262.4
 23 11 2013  05 28  -21.0048 26026.4 -03512.3 -07.6857 26262.4
 23 11 2013  05 29  -21.0046 26026.5 -03512.3 -07.6858 26262.4
 23 11 2013  05 30  -21.0043 26026.5 -03512.3 -07.6857 26262.5
 23 11 2013  05 31  -21.0042 26026.7 -03512.5 -07.6859 26262.6
 23 11 2013  05 32  -21.0042 26026.8 -03512.5 -07.6861 26262.7
 23 11 2013  05 33  -21.0041 26026.7 -03512.5 -07.6860 26262.6
 23 11 2013  05 34  -21.0041 26026.7 -03512.5 -07.6860 26262.7
 23 11 2013  05 35  -21.0042 26026.8 -03512.6 -07.6861 26262.7
 23 11 2013  05 36  -21.0041 26026.8 -03512.5 -07.6861 26262.7
 23 11 2013  05 37  -21.0041 26026.7 -03512.5 -07.6861 26262.7
 23 11 2013  05 38  -21.0042 26026.7 -03512.5 -07.6860 26262.7
 23 11 2013  05 39  -21.0042 26026.7 -03512.5 -07.6860 26262.6
 23 11 2013  05 40  -21.0044 26026.6 -03512.5 -07.6860 26262.6
 23 11 2013  05 41  -21.0046 26026.7 -03512.5 -07.6860 26262.6
 23 11 2013  05 42  -21.0047 26026.7 -03512.5 -07.6860 26262.7
 23 11 2013  05 43  -21.0048 26026.8 -03512.5 -07.6860 26262.7
 23 11 2013  05 44  -21.0051 26026.8 -03512.6 -07.6862 26262.8
 23 11 2013  05 45  -21.0052 26027.0 -03512.6 -07.6862 26263.0
 23 11 2013  05 46  -21.0054 26027.2 -03512.7 -07.6864 26263.2
 23 11 2013  05 47  -21.0058 26027.5 -03512.8 -07.6865 26263.5
 23 11 2013  05 48  -21.0061 26027.8 -03512.9 -07.6867 26263.8
 23 11 2013  05 49  -21.0065 26027.9 -03513.0 -07.6868 26263.9
 23 11 2013  05 50  -21.0068 26028.1 -03513.1 -07.6869 26264.1
 23 11 2013  05 51  -21.0073 26028.3 -03513.2 -07.6870 26264.3
 23 11 2013  05 52  -21.0075 26028.5 -03513.1 -07.6869 26264.5
 23 11 2013  05 53  -21.0079 26028.6 -03513.2 -07.6869 26264.7
 23 11 2013  05 54  -21.0082 26028.8 -03513.2 -07.6869 26264.8
 23 11 2013  05 55  -21.0086 26028.7 -03513.1 -07.6868 26264.8
 23 11 2013  05 56  -21.0093 26028.7 -03513.0 -07.6866 26264.7
 23 11 2013  05 57  -21.0098 26028.6 -03512.9 -07.6864 26264.6
 23 11 2013  05 58  -21.0101 26028.6 -03512.9 -07.6862 26264.6
 23 11 2013  05 59  -21.0105 26028.6 -03512.8 -07.6860 26264.5
 23 11 2013  06 00  -21.0114 26028.0 -03512.5 -07.6856 26264.0
 23 11 2013  06 01  -21.0125 26027.3 -03512.1 -07.6850 26263.1
 23 11 2013  06 02  -21.0133 26026.5 -03511.6 -07.6841 26262.4
 23 11 2013  06 03  -21.0141 26026.1 -03511.3 -07.6836 26261.9
 23 11 2013  06 04  -21.0149 26025.8 -03511.1 -07.6832 26261.5
 23 11 2013  06 05  -21.0155 26025.5 -03510.9 -07.6829 26261.2
 23 11 2013  06 06  -21.0163 26025.0 -03510.6 -07.6824 26260.7
 23 11 2013  06 07  -21.0172 26024.8 -03510.4 -07.6821 26260.5
 23 11 2013  06 08  -21.0178 26024.7 -03510.4 -07.6821 26260.4
 23 11 2013  06 09  -21.0182 26024.8 -03510.4 -07.6820 26260.5
 23 11 2013  06 10  -21.0182 26025.2 -03510.5 -07.6822 26260.9
 23 11 2013  06 11  -21.0181 26025.5 -03510.7 -07.6824 26261.2
 23 11 2013  06 12  -21.0178 26025.9 -03510.8 -07.6827 26261.7
 23 11 2013  06 13  -21.0175 26026.2 -03511.0 -07.6828 26262.0
 23 11 2013  06 14  -21.0172 26026.4 -03511.1 -07.6830 26262.2
 23 11 2013  06 15  -21.0170 26026.6 -03511.1 -07.6831 26262.4
 23 11 2013  06 16  -21.0168 26026.6 -03511.1 -07.6831 26262.4
 23 11 2013  06 17  -21.0167 26026.8 -03511.2 -07.6831 26262.5
 23 11 2013  06 18  -21.0161 26027.1 -03511.3 -07.6832 26262.9
 23 11 2013  06 19  -21.0157 26027.7 -03511.5 -07.6836 26263.5
 23 11 2013  06 20  -21.0153 26028.2 -03511.7 -07.6839 26264.0
 23 11 2013  06 21  -21.0147 26028.5 -03511.9 -07.6842 26264.4
 23 11 2013  06 22  -21.0140 26028.9 -03512.0 -07.6844 26264.8
 23 11 2013  06 23  -21.0129 26029.0 -03512.1 -07.6844 26264.9
 23 11 2013  06 24  -21.0122 26028.9 -03512.0 -07.6843 26264.8
 23 11 2013  06 25  -21.0116 26028.5 -03511.8 -07.6840 26264.4
 23 11 2013  06 26  -21.0112 26028.4 -03511.7 -07.6839 26264.2
 23 11 2013  06 27  -21.0108 26028.1 -03511.6 -07.6837 26263.9
 23 11 2013  06 28  -21.0108 26028.0 -03511.5 -07.6836 26263.8
 23 11 2013  06 29  -21.0107 26027.9 -03511.5 -07.6835 26263.7
 23 11 2013  06 30  -21.0109 26027.9 -03511.5 -07.6836 26263.7
 23 11 2013  06 31  -21.0110 26028.0 -03511.6 -07.6837 26263.8
 23 11 2013  06 32  -21.0110 26028.4 -03511.8 -07.6840 26264.2
 23 11 2013  06 33  -21.0109 26028.8 -03512.0 -07.6844 26264.6
 23 11 2013  06 34  -21.0109 26029.1 -03512.2 -07.6847 26265.0
 23 11 2013  06 35  -21.0109 26029.4 -03512.4 -07.6850 26265.3
 23 11 2013  06 36  -21.0108 26029.3 -03512.4 -07.6850 26265.2
 23 11 2013  06 37  -21.0103 26029.2 -03512.3 -07.6848 26265.1
 23 11 2013  06 38  -21.0094 26029.0 -03512.2 -07.6846 26264.9
 23 11 2013  06 39  -21.0082 26028.6 -03511.9 -07.6842 26264.5
 23 11 2013  06 40  -21.0069 26028.4 -03511.8 -07.6840 26264.2
 23 11 2013  06 41  -21.0059 26028.2 -03511.7 -07.6839 26264.1
 23 11 2013  06 42  -21.0049 26028.1 -03511.8 -07.6841 26264.0
 23 11 2013  06 43  -21.0042 26028.1 -03511.8 -07.6842 26263.9
 23 11 2013  06 44  -21.0035 26028.0 -03511.9 -07.6843 26263.8
 23 11 2013  06 45  -21.0029 26027.9 -03511.9 -07.6844 26263.8
 23 11 2013  06 46  -21.0025 26027.8 -03512.0 -07.6846 26263.7
 23 11 2013  06 47  -21.0022 26027.6 -03512.0 -07.6846 26263.5
 23 11 2013  06 48  -21.0019 26027.5 -03511.9 -07.6846 26263.3
 23 11 2013  06 49  -21.0017 26027.3 -03511.9 -07.6847 26263.1
 23 11 2013  06 50  -21.0012 26027.0 -03511.8 -07.6845 26262.9
 23 11 2013  06 51  -21.0008 26026.8 -03511.8 -07.6845 26262.7
 23 11 2013  06 52  -21.0004 26026.7 -03511.8 -07.6846 26262.6
 23 11 2013  06 53  -21.0002 26026.7 -03511.9 -07.6848 26262.6
 23 11 2013  06 54  -20.9998 26026.6 -03512.0 -07.6849 26262.5
 23 11 2013  06 55  -20.9998 26026.4 -03511.9 -07.6849 26262.3
 23 11 2013  06 56  -20.9997 26026.3 -03512.0 -07.6850 26262.2
 23 11 2013  06 57  -20.9996 26026.1 -03511.9 -07.6850 26262.0
 23 11 2013  06 58  -20.9996 26026.0 -03511.9 -07.6850 26261.8
 23 11 2013  06 59  -20.9992 26025.9 -03511.9 -07.6851 26261.8
 23 11 2013  07 00  -20.9990 26025.7 -03511.9 -07.6851 26261.6
 23 11 2013  07 01  -20.9987 26025.7 -03511.9 -07.6851 26261.5
 23 11 2013  07 02  -20.9985 26025.8 -03512.0 -07.6853 26261.6
 23 11 2013  07 03  -20.9980 26025.7 -03512.1 -07.6855 26261.6
 23 11 2013  07 04  -20.9977 26025.5 -03512.1 -07.6856 26261.4
 23 11 2013  07 05  -20.9976 26025.1 -03512.0 -07.6854 26261.0
 23 11 2013  07 06  -20.9976 26024.7 -03511.9 -07.6853 26260.6
 23 11 2013  07 07  -20.9978 26024.5 -03511.8 -07.6852 26260.3
 23 11 2013  07 08  -20.9980 26024.4 -03511.8 -07.6852 26260.3
 23 11 2013  07 09  -20.9981 26024.5 -03511.9 -07.6854 26260.3
 23 11 2013  07 10  -20.9982 26024.6 -03512.1 -07.6858 26260.5
 23 11 2013  07 11  -20.9982 26024.5 -03512.1 -07.6859 26260.4
 23 11 2013  07 12  -20.9984 26024.3 -03512.1 -07.6858 26260.2
 23 11 2013  07 13  -20.9982 26024.0 -03512.0 -07.6857 26259.9
 23 11 2013  07 14  -20.9983 26023.9 -03511.9 -07.6857 26259.8
 23 11 2013  07 15  -20.9983 26023.6 -03511.9 -07.6856 26259.5
 23 11 2013  07 16  -20.9985 26023.4 -03511.8 -07.6856 26259.3
 23 11 2013  07 17  -20.9989 26023.1 -03511.7 -07.6854 26258.9
 23 11 2013  07 18  -20.9994 26022.9 -03511.7 -07.6853 26258.8
 23 11 2013  07 19  -20.9998 26022.5 -03511.6 -07.6852 26258.4
 23 11 2013  07 20  -21.0004 26022.5 -03511.6 -07.6853 26258.3
 23 11 2013  07 21  -21.0009 26022.4 -03511.6 -07.6854 26258.2
 23 11 2013  07 22  -21.0010 26022.2 -03511.6 -07.6853 26258.1
 23 11 2013  07 23  -21.0011 26022.2 -03511.6 -07.6854 26258.0
 23 11 2013  07 24  -21.0017 26022.2 -03511.7 -07.6856 26258.0
 23 11 2013  07 25  -21.0020 26022.0 -03511.6 -07.6856 26257.9
 23 11 2013  07 26  -21.0020 26021.9 -03511.6 -07.6855 26257.7
 23 11 2013  07 27  -21.0016 26021.6 -03511.5 -07.6854 26257.5
 23 11 2013  07 28  -21.0019 26021.5 -03511.5 -07.6854 26257.3
 23 11 2013  07 29  -21.0020 26021.4 -03511.5 -07.6855 26257.3
 23 11 2013  07 30  -21.0018 26021.3 -03511.5 -07.6855 26257.1
 23 11 2013  07 31  -21.0016 26021.1 -03511.5 -07.6856 26257.0
 23 11 2013  07 32  -21.0012 26020.9 -03511.5 -07.6856 26256.7
 23 11 2013  07 33  -21.0003 26020.5 -03511.3 -07.6853 26256.4
 23 11 2013  07 34  -21.0001 26020.3 -03511.3 -07.6854 26256.2
 23 11 2013  07 35  -21.0000 26020.0 -03511.3 -07.6854 26255.9
 23 11 2013  07 36  -20.9995 26019.7 -03511.2 -07.6853 26255.5
 23 11 2013  07 37  -20.9989 26019.1 -03511.0 -07.6851 26254.9
 23 11 2013  07 38  -20.9991 26018.6 -03510.9 -07.6850 26254.4
 23 11 2013  07 39  -20.9992 26018.2 -03510.8 -07.6849 26254.0
 23 11 2013  07 40  -20.9991 26017.6 -03510.6 -07.6846 26253.4
 23 11 2013  07 41  -20.9996 26017.3 -03510.6 -07.6846 26253.1
 23 11 2013  07 42  -21.0000 26017.0 -03510.6 -07.6847 26252.8
 23 11 2013  07 43  -21.0004 26016.8 -03510.6 -07.6849 26252.6
 23 11 2013  07 44  -21.0007 26016.6 -03510.7 -07.6850 26252.4
 23 11 2013  07 45  -21.0007 26016.5 -03510.7 -07.6852 26252.3
 23 11 2013  07 46  -21.0012 26016.4 -03510.8 -07.6854 26252.2
 23 11 2013  07 47  -21.0013 26016.4 -03510.9 -07.6857 26252.2
 23 11 2013  07 48  -21.0016 26016.4 -03511.1 -07.6860 26252.2
 23 11 2013  07 49  -21.0016 26016.4 -03511.2 -07.6862 26252.3
 23 11 2013  07 50  -21.0011 26016.4 -03511.2 -07.6863 26252.2
 23 11 2013  07 51  -21.0006 26016.4 -03511.3 -07.6865 26252.2
 23 11 2013  07 52  -21.0005 26016.4 -03511.4 -07.6867 26252.3
 23 11 2013  07 53  -21.0003 26016.4 -03511.6 -07.6870 26252.4
 23 11 2013  07 54  -20.9997 26016.4 -03511.6 -07.6872 26252.3
 23 11 2013  07 55  -20.9996 26016.2 -03511.6 -07.6873 26252.1
 23 11 2013  07 56  -20.9997 26016.1 -03511.7 -07.6874 26252.0
 23 11 2013  07 57  -20.9998 26015.9 -03511.7 -07.6874 26251.9
 23 11 2013  07 58  -20.9999 26015.9 -03511.8 -07.6877 26251.9
 23 11 2013  07 59  -20.9997 26015.9 -03511.8 -07.6878 26251.8
 23 11 2013  08 00  -20.9997 26015.8 -03511.9 -07.6880 26251.8
 23 11 2013  08 01  -20.9994 26015.8 -03512.0 -07.6882 26251.7
 23 11 2013  08 02  -20.9996 26015.6 -03512.1 -07.6884 26251.6
 23 11 2013  08 03  -20.9995 26015.6 -03512.2 -07.6886 26251.6
 23 11 2013  08 04  -20.9993 26015.7 -03512.3 -07.6889 26251.7
 23 11 2013  08 05  -20.9997 26015.6 -03512.3 -07.6890 26251.6
 23 11 2013  08 06  -20.9995 26015.4 -03512.4 -07.6890 26251.4
 23 11 2013  08 07  -20.9998 26015.1 -03512.3 -07.6889 26251.1
 23 11 2013  08 08  -20.9995 26015.0 -03512.3 -07.6890 26251.0
 23 11 2013  08 09  -20.9997 26014.8 -03512.3 -07.6890 26250.8
 23 11 2013  08 10  -21.0000 26014.8 -03512.4 -07.6893 26250.9
 23 11 2013  08 11  -20.9997 26015.2 -03512.6 -07.6896 26251.2
 23 11 2013  08 12  -21.0003 26015.2 -03512.7 -07.6898 26251.3
 23 11 2013  08 13  -21.0008 26015.5 -03512.9 -07.6901 26251.6
 23 11 2013  08 14  -21.0011 26015.8 -03513.0 -07.6904 26251.9
 23 11 2013  08 15  -21.0016 26016.6 -03513.4 -07.6910 26252.8
 23 11 2013  08 16  -21.0014 26017.0 -03513.7 -07.6914 26253.2
 23 11 2013  08 17  -21.0015 26017.3 -03513.7 -07.6914 26253.5
 23 11 2013  08 18  -21.0018 26017.9 -03513.9 -07.6916 26254.1
 23 11 2013  08 19  -21.0021 26018.8 -03514.3 -07.6922 26255.1
 23 11 2013  08 20  -21.0022 26019.6 -03514.6 -07.6927 26255.9
 23 11 2013  08 21  -21.0029 26019.5 -03514.5 -07.6926 26255.8
 23 11 2013  08 22  -21.0033 26020.2 -03514.7 -07.6927 26256.5
 23 11 2013  08 23  -21.0034 26020.8 -03514.9 -07.6929 26257.1
 23 11 2013  08 24  -21.0036 26021.2 -03515.0 -07.6931 26257.6
 23 11 2013  08 25  -21.0041 26021.1 -03514.8 -07.6927 26257.4
 23 11 2013  08 26  -21.0041 26021.7 -03515.1 -07.6930 26258.1
 23 11 2013  08 27  -21.0018 26022.1 -03515.0 -07.6929 26258.4
 23 11 2013  08 28  -21.0015 26022.5 -03515.2 -07.6930 26258.8
 23 11 2013  08 29  -21.0003 26022.4 -03515.1 -07.6929 26258.7
 23 11 2013  08 30  -20.9992 26022.4 -03515.0 -07.6928 26258.7
 23 11 2013  08 31  -20.9985 26022.2 -03514.9 -07.6926 26258.5
 23 11 2013  08 32  -20.9981 26022.5 -03515.2 -07.6930 26258.9
 23 11 2013  08 33  -20.9970 26022.6 -03515.3 -07.6932 26259.0
 23 11 2013  08 34  -20.9958 26022.6 -03515.3 -07.6933 26259.0
 23 11 2013  08 35  -20.9949 26022.5 -03515.4 -07.6935 26258.8
 23 11 2013  08 36  -20.9945 26022.2 -03515.4 -07.6935 26258.6
 23 11 2013  08 37  -20.9938 26022.3 -03515.5 -07.6939 26258.7
 23 11 2013  08 38  -20.9933 26022.2 -03515.6 -07.6941 26258.6
 23 11 2013  08 39  -20.9924 26021.8 -03515.6 -07.6941 26258.2
 23 11 2013  08 40  -20.9920 26020.8 -03515.3 -07.6938 26257.2
 23 11 2013  08 41  -20.9925 26019.6 -03514.9 -07.6933 26256.0
 23 11 2013  08 42  -20.9915 26019.4 -03514.9 -07.6933 26255.7
 23 11 2013  08 43  -20.9913 26019.1 -03515.0 -07.6936 26255.4
 23 11 2013  08 44  -20.9909 26018.5 -03515.0 -07.6939 26254.8
 23 11 2013  08 45  -20.9908 26017.8 -03514.9 -07.6939 26254.1
 23 11 2013  08 46  -20.9905 26017.4 -03515.0 -07.6941 26253.8
 23 11 2013  08 47  -20.9898 26016.9 -03515.0 -07.6942 26253.3
 23 11 2013  08 48  -20.9897 26016.4 -03515.0 -07.6944 26252.8
 23 11 2013  08 49  -20.9899 26015.9 -03515.0 -07.6947 26252.3
 23 11 2013  08 50  -20.9895 26015.7 -03515.2 -07.6950 26252.1
 23 11 2013  08 51  -20.9888 26015.8 -03515.5 -07.6956 26252.2
 23 11 2013  08 52  -20.9884 26015.6 -03515.7 -07.6962 26252.1
 23 11 2013  08 53  -20.9881 26015.3 -03515.8 -07.6965 26251.8
 23 11 2013  08 54  -20.9877 26015.0 -03515.9 -07.6969 26251.6
 23 11 2013  08 55  -20.9866 26014.8 -03516.0 -07.6972 26251.3
 23 11 2013  08 56  -20.9864 26014.7 -03516.3 -07.6977 26251.3
 23 11 2013  08 57  -20.9858 26014.6 -03516.5 -07.6982 26251.2
 23 11 2013  08 58  -20.9850 26014.4 -03516.7 -07.6986 26251.0
 23 11 2013  08 59  -20.9851 26014.9 -03517.2 -07.6996 26251.6
 23 11 2013  09 00  -20.9854 26015.3 -03517.7 -07.7006 26252.0
 23 11 2013  09 01  -20.9848 26015.3 -03517.9 -07.7011 26252.1
 23 11 2013  09 02  -20.9848 26015.4 -03518.1 -07.7015 26252.2
 23 11 2013  09 03  -20.9848 26015.6 -03518.5 -07.7021 26252.5
 23 11 2013  09 04  -20.9850 26015.8 -03518.8 -07.7028 26252.7
 23 11 2013  09 05  -20.9848 26015.8 -03518.9 -07.7031 26252.7
 23 11 2013  09 06  -20.9845 26015.8 -03519.1 -07.7035 26252.8
 23 11 2013  09 07  -20.9845 26015.6 -03519.2 -07.7038 26252.6
 23 11 2013  09 08  -20.9846 26015.3 -03519.3 -07.7040 26252.2
 23 11 2013  09 09  -20.9848 26015.0 -03519.3 -07.7042 26252.0
 23 11 2013  09 10  -20.9852 26014.7 -03519.4 -07.7045 26251.7
 23 11 2013  09 11  -20.9851 26014.3 -03519.3 -07.7044 26251.2
 23 11 2013  09 12  -20.9852 26014.1 -03519.5 -07.7049 26251.1
 23 11 2013  09 13  -20.9854 26014.0 -03519.8 -07.7055 26251.1
 23 11 2013  09 14  -20.9856 26013.9 -03519.9 -07.7059 26251.0
 23 11 2013  09 15  -20.9859 26013.8 -03520.1 -07.7063 26250.9
 23 11 2013  09 16  -20.9861 26013.4 -03520.2 -07.7066 26250.5
 23 11 2013  09 17  -20.9861 26013.4 -03520.3 -07.7069 26250.5
 23 11 2013  09 18  -20.9855 26013.7 -03520.6 -07.7074 26250.8
 23 11 2013  09 19  -20.9863 26014.1 -03521.1 -07.7084 26251.3
 23 11 2013  09 20  -20.9870 26014.2 -03521.4 -07.7090 26251.4
 23 11 2013  09 21  -20.9871 26014.1 -03521.6 -07.7094 26251.4
 23 11 2013  09 22  -20.9874 26014.1 -03521.7 -07.7096 26251.4
 23 11 2013  09 23  -20.9876 26014.2 -03521.9 -07.7100 26251.5
 23 11 2013  09 24  -20.9876 26013.9 -03521.9 -07.7101 26251.2
 23 11 2013  09 25  -20.9874 26013.3 -03521.7 -07.7099 26250.6
 23 11 2013  09 26  -20.9881 26012.5 -03521.5 -07.7097 26249.8
 23 11 2013  09 27  -20.9883 26011.8 -03521.3 -07.7094 26249.1
 23 11 2013  09 28  -20.9880 26011.1 -03521.1 -07.7092 26248.4
 23 11 2013  09 29  -20.9880 26010.9 -03521.2 -07.7095 26248.1
 23 11 2013  09 30  -20.9887 26010.4 -03521.3 -07.7099 26247.7
 23 11 2013  09 31  -20.9891 26010.0 -03521.4 -07.7102 26247.3
 23 11 2013  09 32  -20.9897 26009.7 -03521.5 -07.7106 26247.0
 23 11 2013  09 33  -20.9905 26009.5 -03521.7 -07.7110 26246.9
 23 11 2013  09 34  -20.9911 26009.2 -03521.8 -07.7114 26246.5
 23 11 2013  09 35  -20.9917 26008.6 -03521.8 -07.7115 26246.0
 23 11 2013  09 36  -20.9928 26008.3 -03521.9 -07.7117 26245.7
 23 11 2013  09 37  -20.9939 26008.2 -03522.0 -07.7121 26245.6
 23 11 2013  09 38  -20.9950 26008.1 -03522.1 -07.7123 26245.5
 23 11 2013  09 39  -20.9959 26007.8 -03522.2 -07.7126 26245.3
 23 11 2013  09 40  -20.9971 26007.6 -03522.3 -07.7129 26245.0
 23 11 2013  09 41  -20.9985 26007.4 -03522.4 -07.7132 26244.8
 23 11 2013  09 42  -21.0000 26007.4 -03522.5 -07.7133 26244.8
 23 11 2013  09 43  -21.0010 26007.6 -03522.7 -07.7136 26245.1
 23 11 2013  09 44  -21.0020 26007.5 -03522.7 -07.7136 26244.9
 23 11 2013  09 45  -21.0028 26007.2 -03522.6 -07.7136 26244.7
 23 11 2013  09 46  -21.0033 26006.9 -03522.5 -07.7135 26244.3
 23 11 2013  09 47  -21.0044 26006.6 -03522.5 -07.7135 26244.1
 23 11 2013  09 48  -21.0057 26006.7 -03522.6 -07.7138 26244.2
 23 11 2013  09 49  -21.0066 26006.9 -03522.7 -07.7139 26244.4
 23 11 2013  09 50  -21.0075 26007.4 -03522.9 -07.7142 26244.9
 23 11 2013  09 51  -21.0081 26007.7 -03523.0 -07.7143 26245.2
 23 11 2013  09 52  -21.0086 26007.4 -03522.8 -07.7140 26244.9
 23 11 2013  09 53  -21.0102 26007.8 -03522.9 -07.7140 26245.4
 23 11 2013  09 54  -21.0111 26008.7 -03523.1 -07.7142 26246.2
 23 11 2013  09 55  -21.0111 26008.5 -03522.9 -07.7137 26246.0
 23 11 2013  09 56  -21.0115 26008.7 -03522.8 -07.7135 26246.2
 23 11 2013  09 57  -21.0118 26009.1 -03522.7 -07.7133 26246.5
 23 11 2013  09 58  -21.0123 26009.3 -03522.7 -07.7131 26246.8
 23 11 2013  09 59  -21.0127 26009.7 -03522.6 -07.7129 26247.2
 23 11 2013  10 00  -21.0132 26010.5 -03522.7 -07.7128 26247.9
 23 11 2013  10 01  -21.0133 26011.0 -03522.6 -07.7125 26248.4
 23 11 2013  10 02  -21.0130 26011.3 -03522.5 -07.7122 26248.7
 23 11 2013  10 03  -21.0134 26011.6 -03522.4 -07.7120 26249.1
 23 11 2013  10 04  -21.0140 26012.0 -03522.4 -07.7117 26249.4
 23 11 2013  10 05  -21.0144 26012.0 -03522.2 -07.7113 26249.3
 23 11 2013  10 06  -21.0147 26012.0 -03522.0 -07.7109 26249.4
 23 11 2013  10 07  -21.0148 26012.3 -03521.9 -07.7107 26249.6
 23 11 2013  10 08  -21.0153 26012.6 -03521.9 -07.7105 26249.9
 23 11 2013  10 09  -21.0160 26012.8 -03521.9 -07.7103 26250.2
 23 11 2013  10 10  -21.0159 26012.7 -03521.7 -07.7099 26250.1
 23 11 2013  10 11  -21.0163 26012.8 -03521.5 -07.7097 26250.0
 23 11 2013  10 12  -21.0167 26012.9 -03521.5 -07.7096 26250.2
 23 11 2013  10 13  -21.0175 26013.1 -03521.5 -07.7095 26250.4
 23 11 2013  10 14  -21.0179 26013.1 -03521.4 -07.7093 26250.3
 23 11 2013  10 15  -21.0180 26012.9 -03521.2 -07.7089 26250.1
 23 11 2013  10 16  -21.0179 26012.5 -03521.0 -07.7086 26249.7
 23 11 2013  10 17  -21.0183 26012.3 -03520.9 -07.7084 26249.5
 23 11 2013  10 18  -21.0188 26012.2 -03520.9 -07.7084 26249.4
 23 11 2013  10 19  -21.0184 26012.0 -03520.8 -07.7083 26249.2
 23 11 2013  10 20  -21.0185 26011.9 -03520.8 -07.7084 26249.1
 23 11 2013  10 21  -21.0190 26012.0 -03520.9 -07.7086 26249.2
 23 11 2013  10 22  -21.0199 26011.9 -03521.0 -07.7088 26249.2
 23 11 2013  10 23  -21.0209 26012.1 -03521.1 -07.7090 26249.3
 23 11 2013  10 24  -21.0214 26012.0 -03521.2 -07.7091 26249.2
 23 11 2013  10 25  -21.0215 26011.8 -03521.1 -07.7090 26249.0
 23 11 2013  10 26  -21.0213 26011.4 -03521.0 -07.7088 26248.6
 23 11 2013  10 27  -21.0216 26011.2 -03521.0 -07.7089 26248.5
 23 11 2013  10 28  -21.0215 26011.0 -03521.0 -07.7090 26248.2
 23 11 2013  10 29  -21.0213 26010.5 -03520.9 -07.7090 26247.7
 23 11 2013  10 30  -21.0214 26010.0 -03521.0 -07.7093 26247.3
 23 11 2013  10 31  -21.0209 26009.9 -03521.1 -07.7096 26247.2
 23 11 2013  10 32  -21.0208 26009.7 -03521.3 -07.7100 26247.0
 23 11 2013  10 33  -21.0216 26009.7 -03521.5 -07.7106 26247.0
 23 11 2013  10 34  -21.0220 26009.7 -03521.7 -07.7109 26247.0
 23 11 2013  10 35  -21.0231 26009.8 -03521.9 -07.7113 26247.2
 23 11 2013  10 36  -21.0235 26009.8 -03522.0 -07.7116 26247.2
 23 11 2013  10 37  -21.0233 26009.2 -03521.8 -07.7113 26246.6
 23 11 2013  10 38  -21.0241 26009.3 -03522.0 -07.7116 26246.7
 23 11 2013  10 39  -21.0247 26009.8 -03522.3 -07.7122 26247.3
 23 11 2013  10 40  -21.0248 26009.9 -03522.4 -07.7124 26247.4
 23 11 2013  10 41  -21.0250 26009.9 -03522.4 -07.7123 26247.3
 23 11 2013  10 42  -21.0248 26009.5 -03522.2 -07.7120 26246.9
 23 11 2013  10 43  -21.0250 26009.6 -03522.2 -07.7121 26247.0
 23 11 2013  10 44  -21.0252 26009.7 -03522.4 -07.7123 26247.2
 23 11 2013  10 45  -21.0260 26010.0 -03522.5 -07.7127 26247.4
 23 11 2013  10 46  -21.0257 26009.9 -03522.6 -07.7127 26247.3
 23 11 2013  10 47  -21.0252 26009.6 -03522.4 -07.7125 26247.1
 23 11 2013  10 48  -21.0252 26009.5 -03522.5 -07.7126 26246.9
 23 11 2013  10 49  -21.0254 26009.3 -03522.5 -07.7127 26246.8
 23 11 2013  10 50  -21.0256 26009.3 -03522.6 -07.7130 26246.7
 23 11 2013  10 51  -21.0252 26009.0 -03522.5 -07.7129 26246.4
 23 11 2013  10 52  -21.0250 26008.9 -03522.6 -07.7130 26246.4
 23 11 2013  10 53  -21.0250 26009.2 -03522.8 -07.7135 26246.7
 23 11 2013  10 54  -21.0250 26009.6 -03523.1 -07.7140 26247.1
 23 11 2013  10 55  -21.0251 26010.0 -03523.3 -07.7143 26247.5
 23 11 2013  10 56  -21.0248 26010.4 -03523.6 -07.7147 26248.0
 23 11 2013  10 57  -21.0253 26010.8 -03523.9 -07.7152 26248.4
 23 11 2013  10 58  -21.0252 26010.6 -03523.8 -07.7153 26248.2
 23 11 2013  10 59  -21.0247 26010.2 -03523.8 -07.7153 26247.8
 23 11 2013  11 00  -21.0245 26009.9 -03523.9 -07.7155 26247.5
 23 11 2013  11 01  -21.0244 26009.5 -03524.0 -07.7159 26247.1
 23 11 2013  11 02  -21.0241 26009.3 -03524.2 -07.7163 26246.9
 23 11 2013  11 03  -21.0242 26009.4 -03524.6 -07.7172 26247.2
 23 11 2013  11 04  -21.0240 26009.6 -03524.9 -07.7178 26247.4
 23 11 2013  11 05  -21.0239 26010.0 -03525.2 -07.7185 26247.8
 23 11 2013  11 06  -21.0240 26010.5 -03525.6 -07.7191 26248.4
 23 11 2013  11 07  -21.0245 26011.2 -03526.0 -07.7199 26249.1
 23 11 2013  11 08  -21.0253 26012.0 -03526.4 -07.7205 26249.9
 23 11 2013  11 09  -21.0265 26012.9 -03526.8 -07.7211 26250.9
 23 11 2013  11 10  -21.0271 26013.4 -03527.0 -07.7212 26251.4
 23 11 2013  11 11  -21.0277 26013.8 -03527.0 -07.7212 26251.8
 23 11 2013  11 12  -21.0285 26013.4 -03526.8 -07.7208 26251.4
 23 11 2013  11 13  -21.0292 26012.8 -03526.5 -07.7204 26250.7
 23 11 2013  11 14  -21.0289 26012.3 -03526.5 -07.7204 26250.3
 23 11 2013  11 15  -21.0282 26011.7 -03526.4 -07.7205 26249.7
 23 11 2013  11 16  -21.0279 26012.3 -03526.9 -07.7214 26250.3
 23 11 2013  11 17  -21.0276 26013.2 -03527.5 -07.7223 26251.3
 23 11 2013  11 18  -21.0270 26013.4 -03527.6 -07.7226 26251.5
 23 11 2013  11 19  -21.0262 26013.3 -03527.7 -07.7227 26251.4
 23 11 2013  11 20  -21.0256 26013.2 -03527.7 -07.7228 26251.3
 23 11 2013  11 21  -21.0258 26013.4 -03528.0 -07.7234 26251.5
 23 11 2013  11 22  -21.0264 26013.6 -03528.2 -07.7238 26251.8
 23 11 2013  11 23  -21.0267 26014.1 -03528.5 -07.7243 26252.3
 23 11 2013  11 24  -21.0270 26014.8 -03528.8 -07.7248 26253.0
 23 11 2013  11 25  -21.0276 26015.4 -03529.1 -07.7252 26253.7
 23 11 2013  11 26  -21.0280 26016.2 -03529.5 -07.7258 26254.5
 23 11 2013  11 27  -21.0281 26016.6 -03529.6 -07.7260 26254.9
 23 11 2013  11 28  -21.0281 26016.7 -03529.6 -07.7260 26255.1
 23 11 2013  11 29  -21.0281 26016.6 -03529.5 -07.7258 26254.9
 23 11 2013  11 30  -21.0279 26016.0 -03529.4 -07.7257 26254.3
 23 11 2013  11 31  -21.0276 26015.4 -03529.2 -07.7256 26253.7
 23 11 2013  11 32  -21.0274 26015.0 -03529.3 -07.7259 26253.3
 23 11 2013  11 33  -21.0272 26014.7 -03529.5 -07.7262 26253.0
 23 11 2013  11 34  -21.0270 26014.4 -03529.7 -07.7267 26252.8
 23 11 2013  11 35  -21.0270 26014.1 -03529.8 -07.7271 26252.5
 23 11 2013  11 36  -21.0269 26013.9 -03530.0 -07.7276 26252.3
 23 11 2013  11 37  -21.0269 26013.9 -03530.3 -07.7282 26252.3
 23 11 2013  11 38  -21.0269 26013.8 -03530.5 -07.7286 26252.3
 23 11 2013  11 39  -21.0269 26013.7 -03530.6 -07.7289 26252.2
 23 11 2013  11 40  -21.0276 26013.8 -03530.8 -07.7293 26252.3
 23 11 2013  11 41  -21.0287 26014.0 -03531.0 -07.7298 26252.6
 23 11 2013  11 42  -21.0299 26014.2 -03531.2 -07.7301 26252.8
 23 11 2013  11 43  -21.0310 26014.8 -03531.4 -07.7304 26253.4
 23 11 2013  11 44  -21.0319 26015.2 -03531.5 -07.7305 26253.8
 23 11 2013  11 45  -21.0332 26015.4 -03531.5 -07.7305 26254.0
 23 11 2013  11 46  -21.0341 26015.7 -03531.5 -07.7304 26254.3
 23 11 2013  11 47  -21.0345 26016.0 -03531.5 -07.7303 26254.6
 23 11 2013  11 48  -21.0354 26016.4 -03531.5 -07.7302 26255.0
 23 11 2013  11 49  -21.0360 26016.7 -03531.6 -07.7302 26255.3
 23 11 2013  11 50  -21.0361 26016.9 -03531.5 -07.7299 26255.5
 23 11 2013  11 51  -21.0363 26017.4 -03531.5 -07.7298 26256.0
 23 11 2013  11 52  -21.0370 26017.8 -03531.5 -07.7297 26256.4
 23 11 2013  11 53  -21.0378 26018.3 -03531.4 -07.7294 26256.9
 23 11 2013  11 54  -21.0389 26019.1 -03531.5 -07.7293 26257.6
 23 11 2013  11 55  -21.0399 26019.7 -03531.4 -07.7290 26258.2
 23 11 2013  11 56  -21.0405 26020.2 -03531.2 -07.7284 26258.7
 23 11 2013  11 57  -21.0406 26020.5 -03530.9 -07.7278 26258.9
 23 11 2013  11 58  -21.0406 26020.5 -03530.6 -07.7269 26258.9
 23 11 2013  11 59  -21.0412 26020.7 -03530.5 -07.7266 26259.1
 23 11 2013  12 00  -21.0419 26021.2 -03530.5 -07.7265 26259.6
 23 11 2013  12 01  -21.0430 26021.8 -03530.5 -07.7264 26260.3
 23 11 2013  12 02  -21.0438 26022.2 -03530.5 -07.7262 26260.6
 23 11 2013  12 03  -21.0441 26022.6 -03530.4 -07.7258 26261.0
 23 11 2013  12 04  -21.0442 26022.7 -03530.1 -07.7253 26261.1
 23 11 2013  12 05  -21.0442 26022.7 -03529.9 -07.7248 26261.0
 23 11 2013  12 06  -21.0439 26022.9 -03529.7 -07.7244 26261.2
 23 11 2013  12 07  -21.0439 26023.2 -03529.6 -07.7241 26261.5
 23 11 2013  12 08  -21.0444 26023.5 -03529.6 -07.7239 26261.8
 23 11 2013  12 09  -21.0452 26023.9 -03529.6 -07.7238 26262.1
 23 11 2013  12 10  -21.0461 26023.7 -03529.4 -07.7234 26262.0
 23 11 2013  12 11  -21.0467 26023.3 -03529.0 -07.7228 26261.5
 23 11 2013  12 12  -21.0469 26023.1 -03528.8 -07.7224 26261.3
 23 11 2013  12 13  -21.0468 26023.0 -03528.7 -07.7222 26261.2
 23 11 2013  12 14  -21.0473 26022.9 -03528.6 -07.7220 26261.1
 23 11 2013  12 15  -21.0475 26022.7 -03528.5 -07.7218 26260.8
 23 11 2013  12 16  -21.0478 26022.6 -03528.4 -07.7217 26260.8
 23 11 2013  12 17  -21.0482 26022.4 -03528.3 -07.7214 26260.5
 23 11 2013  12 18  -21.0485 26022.1 -03528.1 -07.7212 26260.1
 23 11 2013  12 19  -21.0488 26021.7 -03528.0 -07.7210 26259.8
 23 11 2013  12 20  -21.0490 26021.6 -03527.9 -07.7208 26259.6
 23 11 2013  12 21  -21.0492 26021.6 -03527.8 -07.7207 26259.6
 23 11 2013  12 22  -21.0494 26021.9 -03527.9 -07.7208 26260.0
 23 11 2013  12 23  -21.0498 26022.3 -03528.0 -07.7209 26260.4
 23 11 2013  12 24  -21.0503 26022.6 -03528.0 -07.7207 26260.7
 23 11 2013  12 25  -21.0507 26022.7 -03527.8 -07.7203 26260.8
 23 11 2013  12 26  -21.0509 26022.7 -03527.6 -07.7198 26260.7
 23 11 2013  12 27  -21.0510 26022.7 -03527.4 -07.7194 26260.7
 23 11 2013  12 28  -21.0511 26023.1 -03527.3 -07.7191 26261.1
 23 11 2013  12 29  -21.0510 26023.5 -03527.2 -07.7188 26261.5
 23 11 2013  12 30  -21.0509 26024.0 -03527.1 -07.7185 26261.9
 23 11 2013  12 31  -21.0509 26024.6 -03527.0 -07.7181 26262.5
 23 11 2013  12 32  -21.0508 26025.0 -03526.8 -07.7176 26262.9
 23 11 2013  12 33  -21.0512 26025.5 -03526.6 -07.7169 26263.3
 23 11 2013  12 34  -21.0514 26026.3 -03526.6 -07.7165 26264.1
 23 11 2013  12 35  -21.0514 26026.9 -03526.3 -07.7158 26264.7
 23 11 2013  12 36  -21.0512 26027.5 -03526.0 -07.7150 26265.2
 23 11 2013  12 37  -21.0504 26027.8 -03525.6 -07.7139 26265.5
 23 11 2013  12 38  -21.0500 26028.1 -03525.1 -07.7129 26265.7
 23 11 2013  12 39  -21.0498 26028.8 -03525.0 -07.7124 26266.4
 23 11 2013  12 40  -21.0496 26029.3 -03524.6 -07.7115 26266.9
 23 11 2013  12 41  -21.0495 26030.0 -03524.4 -07.7107 26267.5
 23 11 2013  12 42  -21.0491 26030.4 -03524.0 -07.7098 26267.9
 23 11 2013  12 43  -21.0490 26030.9 -03523.7 -07.7090 26268.3
 23 11 2013  12 44  -21.0489 26031.4 -03523.3 -07.7081 26268.8
 23 11 2013  12 45  -21.0485 26032.2 -03523.1 -07.7073 26269.5
 23 11 2013  12 46  -21.0484 26032.7 -03522.7 -07.7064 26270.0
 23 11 2013  12 47  -21.0482 26033.1 -03522.3 -07.7054 26270.3
 23 11 2013  12 48  -21.0480 26033.7 -03522.0 -07.7046 26270.8
 23 11 2013  12 49  -21.0480 26034.4 -03521.8 -07.7039 26271.5
 23 11 2013  12 50  -21.0480 26034.9 -03521.4 -07.7029 26272.0
 23 11 2013  12 51  -21.0480 26035.0 -03521.0 -07.7019 26272.0
 23 11 2013  12 52  -21.0479 26035.2 -03520.5 -07.7009 26272.2
 23 11 2013  12 53  -21.0476 26035.5 -03520.2 -07.7001 26272.4
 23 11 2013  12 54  -21.0474 26035.6 -03519.8 -07.6993 26272.4
 23 11 2013  12 55  -21.0473 26035.9 -03519.6 -07.6987 26272.7
 23 11 2013  12 56  -21.0474 26036.4 -03519.6 -07.6985 26273.2
 23 11 2013  12 57  -21.0472 26036.9 -03519.4 -07.6979 26273.7
 23 11 2013  12 58  -21.0474 26037.5 -03519.2 -07.6974 26274.2
 23 11 2013  12 59  -21.0475 26038.0 -03519.0 -07.6969 26274.7
 23 11 2013  13 00  -21.0475 26038.5 -03518.8 -07.6961 26275.2
 23 11 2013  13 01  -21.0475 26039.3 -03518.6 -07.6956 26276.0
 23 11 2013  13 02  -21.0473 26039.9 -03518.2 -07.6946 26276.5
 23 11 2013  13 03  -21.0471 26040.6 -03517.9 -07.6937 26277.2
 23 11 2013  13 04  -21.0469 26041.4 -03517.6 -07.6927 26277.9
 23 11 2013  13 05  -21.0466 26042.3 -03517.3 -07.6918 26278.7
 23 11 2013  13 06  -21.0461 26043.1 -03516.9 -07.6908 26279.5
 23 11 2013  13 07  -21.0455 26043.9 -03516.5 -07.6897 26280.2
 23 11 2013  13 08  -21.0453 26044.1 -03516.0 -07.6884 26280.4
 23 11 2013  13 09  -21.0452 26044.6 -03515.6 -07.6875 26280.8
 23 11 2013  13 10  -21.0450 26045.3 -03515.4 -07.6868 26281.5
 23 11 2013  13 11  -21.0444 26045.7 -03514.9 -07.6857 26281.8
 23 11 2013  13 12  -21.0434 26046.2 -03514.5 -07.6847 26282.2
 23 11 2013  13 13  -21.0422 26046.9 -03514.2 -07.6839 26282.9
 23 11 2013  13 14  -21.0413 26047.4 -03513.8 -07.6829 26283.3
 23 11 2013  13 15  -21.0405 26047.9 -03513.5 -07.6820 26283.7
 23 11 2013  13 16  -21.0400 26047.8 -03512.8 -07.6806 26283.6
 23 11 2013  13 17  -21.0398 26048.0 -03512.4 -07.6797 26283.8
 23 11 2013  13 18  -21.0395 26048.2 -03512.1 -07.6788 26283.9
 23 11 2013  13 19  -21.0385 26048.2 -03511.6 -07.6779 26283.8
 23 11 2013  13 20  -21.0374 26048.0 -03511.1 -07.6768 26283.5
 23 11 2013  13 21  -21.0365 26048.0 -03510.7 -07.6759 26283.6
 23 11 2013  13 22  -21.0360 26048.9 -03510.7 -07.6756 26284.4
 23 11 2013  13 23  -21.0357 26050.4 -03510.8 -07.6754 26285.9
 23 11 2013  13 24  -21.0351 26051.7 -03510.7 -07.6749 26287.2
 23 11 2013  13 25  -21.0347 26052.9 -03510.6 -07.6744 26288.3
 23 11 2013  13 26  -21.0340 26054.3 -03510.5 -07.6737 26289.7
 23 11 2013  13 27  -21.0330 26055.2 -03510.2 -07.6728 26290.6
 23 11 2013  13 28  -21.0319 26056.1 -03509.8 -07.6717 26291.4
 23 11 2013  13 29  -21.0311 26056.9 -03509.4 -07.6706 26292.2
 23 11 2013  13 30  -21.0311 26057.6 -03509.1 -07.6696 26292.9
 23 11 2013  13 31  -21.0316 26058.8 -03509.0 -07.6691 26294.0
 23 11 2013  13 32  -21.0316 26059.5 -03508.6 -07.6681 26294.7
 23 11 2013  13 33  -21.0314 26060.1 -03508.2 -07.6670 26295.1
 23 11 2013  13 34  -21.0309 26060.0 -03507.6 -07.6657 26295.0
 23 11 2013  13 35  -21.0306 26060.0 -03507.0 -07.6645 26294.9
 23 11 2013  13 36  -21.0306 26059.8 -03506.6 -07.6636 26294.7
 23 11 2013  13 37  -21.0303 26059.9 -03506.2 -07.6629 26294.7
 23 11 2013  13 38  -21.0299 26059.9 -03505.9 -07.6621 26294.7
 23 11 2013  13 39  -21.0294 26060.2 -03505.7 -07.6616 26294.9
 23 11 2013  13 40  -21.0290 26060.2 -03505.4 -07.6610 26294.9
 23 11 2013  13 41  -21.0289 26060.2 -03505.2 -07.6605 26294.8
 23 11 2013  13 42  -21.0292 26060.1 -03504.9 -07.6600 26294.7
 23 11 2013  13 43  -21.0295 26060.1 -03504.7 -07.6595 26294.7
 23 11 2013  13 44  -21.0292 26060.1 -03504.5 -07.6590 26294.6
 23 11 2013  13 45  -21.0284 26059.7 -03504.1 -07.6582 26294.2
 23 11 2013  13 46  -21.0280 26059.5 -03503.8 -07.6578 26294.0
 23 11 2013  13 47  -21.0280 26059.1 -03503.6 -07.6573 26293.6
 23 11 2013  13 48  -21.0284 26058.2 -03503.0 -07.6564 26292.6
 23 11 2013  13 49  -21.0286 26058.2 -03503.0 -07.6563 26292.6
 23 11 2013  13 50  -21.0280 26057.4 -03502.6 -07.6557 26291.8
 23 11 2013  13 51  -21.0265 26055.6 -03501.8 -07.6544 26289.9
 23 11 2013  13 52  -21.0249 26053.8 -03501.2 -07.6537 26288.0
 23 11 2013  13 53  -21.0234 26052.0 -03500.7 -07.6531 26286.2
 23 11 2013  13 54  -21.0225 26051.1 -03500.7 -07.6535 26285.3
 23 11 2013  13 55  -21.0219 26050.6 -03500.9 -07.6540 26284.8
 23 11 2013  13 56  -21.0213 26050.2 -03501.1 -07.6545 26284.4
 23 11 2013  13 57  -21.0211 26050.2 -03501.3 -07.6551 26284.5
 23 11 2013  13 58  -21.0211 26050.4 -03501.6 -07.6556 26284.7
 23 11 2013  13 59  -21.0217 26050.8 -03502.0 -07.6562 26285.2
 23 11 2013  14 00  -21.0222 26051.5 -03502.3 -07.6569 26285.9
 23 11 2013  14 01  -21.0219 26052.3 -03502.6 -07.6572 26286.7
 23 11 2013  14 02  -21.0218 26052.9 -03502.7 -07.6573 26287.3
 23 11 2013  14 03  -21.0224 26053.7 -03502.9 -07.6574 26288.1
 23 11 2013  14 04  -21.0232 26054.5 -03503.0 -07.6574 26289.0
 23 11 2013  14 05  -21.0236 26055.5 -03503.2 -07.6575 26289.9
 23 11 2013  14 06  -21.0236 26056.0 -03503.0 -07.6570 26290.5
 23 11 2013  14 07  -21.0238 26056.3 -03502.8 -07.6564 26290.7
 23 11 2013  14 08  -21.0238 26056.7 -03502.6 -07.6559 26291.0
 23 11 2013  14 09  -21.0239 26057.0 -03502.4 -07.6554 26291.3
 23 11 2013  14 10  -21.0239 26057.6 -03502.4 -07.6551 26291.9
 23 11 2013  14 11  -21.0237 26057.6 -03502.0 -07.6545 26291.9
 23 11 2013  14 12  -21.0236 26057.7 -03501.8 -07.6539 26291.9
 23 11 2013  14 13  -21.0233 26057.7 -03501.5 -07.6533 26291.9
 23 11 2013  14 14  -21.0229 26057.9 -03501.4 -07.6530 26292.1
 23 11 2013  14 15  -21.0225 26057.9 -03501.1 -07.6524 26292.0
 23 11 2013  14 16  -21.0219 26058.0 -03500.9 -07.6518 26292.1
 23 11 2013  14 17  -21.0221 26058.0 -03500.7 -07.6513 26292.1
 23 11 2013  14 18  -21.0220 26058.1 -03500.5 -07.6509 26292.2
 23 11 2013  14 19  -21.0214 26058.0 -03500.2 -07.6503 26292.0
 23 11 2013  14 20  -21.0210 26057.7 -03499.9 -07.6498 26291.7
 23 11 2013  14 21  -21.0202 26057.6 -03499.6 -07.6493 26291.5
 23 11 2013  14 22  -21.0194 26057.2 -03499.4 -07.6488 26291.2
 23 11 2013  14 23  -21.0187 26056.7 -03499.1 -07.6483 26290.6
 23 11 2013  14 24  -21.0175 26056.4 -03498.8 -07.6477 26290.2
 23 11 2013  14 25  -21.0167 26055.7 -03498.4 -07.6472 26289.6
 23 11 2013  14 26  -21.0160 26055.2 -03498.1 -07.6466 26289.0
 23 11 2013  14 27  -21.0158 26055.4 -03498.2 -07.6467 26289.2
 23 11 2013  14 28  -21.0159 26055.3 -03498.1 -07.6466 26289.1
 23 11 2013  14 29  -21.0154 26055.4 -03498.0 -07.6463 26289.1
 23 11 2013  14 30  -21.0154 26055.4 -03497.9 -07.6461 26289.1
 23 11 2013  14 31  -21.0152 26056.2 -03498.0 -07.6462 26290.0
 23 11 2013  14 32  -21.0150 26057.3 -03498.2 -07.6463 26291.1
 23 11 2013  14 33  -21.0146 26058.0 -03498.2 -07.6460 26291.8
 23 11 2013  14 34  -21.0145 26059.0 -03498.2 -07.6459 26292.7
 23 11 2013  14 35  -21.0145 26060.1 -03498.4 -07.6458 26293.9
 23 11 2013  14 36  -21.0135 26061.3 -03498.4 -07.6455 26295.0
 23 11 2013  14 37  -21.0129 26062.2 -03498.3 -07.6449 26295.9
 23 11 2013  14 38  -21.0122 26062.9 -03498.0 -07.6442 26296.6
 23 11 2013  14 39  -21.0112 26063.5 -03497.7 -07.6434 26297.2
 23 11 2013  14 40  -21.0104 26063.9 -03497.4 -07.6426 26297.5
 23 11 2013  14 41  -21.0097 26064.5 -03497.2 -07.6421 26298.0
 23 11 2013  14 42  -21.0090 26065.0 -03497.1 -07.6415 26298.6
 23 11 2013  14 43  -21.0078 26065.2 -03496.7 -07.6407 26298.7
 23 11 2013  14 44  -21.0064 26065.0 -03496.2 -07.6396 26298.4
 23 11 2013  14 45  -21.0056 26064.9 -03495.8 -07.6389 26298.3
 23 11 2013  14 46  -21.0048 26064.7 -03495.4 -07.6381 26298.0
 23 11 2013  14 47  -21.0041 26064.4 -03495.0 -07.6373 26297.7
 23 11 2013  14 48  -21.0034 26064.1 -03494.6 -07.6365 26297.3
 23 11 2013  14 49  -21.0028 26064.3 -03494.4 -07.6361 26297.5
 23 11 2013  14 50  -21.0029 26064.5 -03494.4 -07.6359 26297.7
 23 11 2013  14 51  -21.0027 26064.2 -03494.0 -07.6351 26297.4
 23 11 2013  14 52  -21.0022 26063.9 -03493.6 -07.6343 26297.0
 23 11 2013  14 53  -21.0018 26063.9 -03493.4 -07.6339 26297.0
 23 11 2013  14 54  -21.0015 26064.1 -03493.2 -07.6336 26297.2
 23 11 2013  14 55  -21.0012 26064.0 -03493.0 -07.6330 26297.0
 23 11 2013  14 56  -21.0012 26064.0 -03492.8 -07.6326 26297.0
 23 11 2013  14 57  -21.0015 26063.9 -03492.5 -07.6321 26296.8
 23 11 2013  14 58  -21.0018 26064.1 -03492.4 -07.6318 26297.0
 23 11 2013  14 59  -21.0021 26064.6 -03492.4 -07.6315 26297.5
 23 11 2013  15 00  -21.0019 26065.1 -03492.3 -07.6313 26298.0
 23 11 2013  15 01  -21.0017 26065.5 -03492.2 -07.6310 26298.4
 23 11 2013  15 02  -21.0011 26065.7 -03492.0 -07.6303 26298.6
 23 11 2013  15 03  -21.0007 26065.8 -03491.7 -07.6297 26298.6
 23 11 2013  15 04  -21.0005 26065.7 -03491.4 -07.6292 26298.5
 23 11 2013  15 05  -20.9999 26065.4 -03491.0 -07.6284 26298.1
 23 11 2013  15 06  -20.9990 26065.1 -03490.7 -07.6278 26297.8
 23 11 2013  15 07  -20.9984 26064.8 -03490.4 -07.6273 26297.5
 23 11 2013  15 08  -20.9982 26064.9 -03490.3 -07.6271 26297.6
 23 11 2013  15 09  -20.9980 26065.2 -03490.3 -07.6269 26297.8
 23 11 2013  15 10  -20.9975 26065.5 -03490.2 -07.6267 26298.1
 23 11 2013  15 11  -20.9968 26065.8 -03490.2 -07.6264 26298.5
 23 11 2013  15 12  -20.9961 26066.2 -03490.1 -07.6261 26298.8
 23 11 2013  15 13  -20.9953 26066.5 -03489.9 -07.6257 26299.1
 23 11 2013  15 14  -20.9946 26066.8 -03489.9 -07.6255 26299.4
 23 11 2013  15 15  -20.9938 26067.0 -03489.7 -07.6251 26299.6
 23 11 2013  15 16  -20.9929 26067.2 -03489.6 -07.6248 26299.7
 23 11 2013  15 17  -20.9922 26067.6 -03489.6 -07.6247 26300.1
 23 11 2013  15 18  -20.9915 26067.7 -03489.5 -07.6244 26300.2
 23 11 2013  15 19  -20.9906 26068.0 -03489.4 -07.6242 26300.5
 23 11 2013  15 20  -20.9895 26067.8 -03489.2 -07.6237 26300.3
 23 11 2013  15 21  -20.9886 26067.4 -03488.8 -07.6231 26299.9
 23 11 2013  15 22  -20.9883 26067.1 -03488.6 -07.6227 26299.5
 23 11 2013  15 23  -20.9881 26066.9 -03488.5 -07.6225 26299.3
 23 11 2013  15 24  -20.9871 26066.5 -03488.3 -07.6221 26298.9
 23 11 2013  15 25  -20.9863 26066.3 -03488.2 -07.6220 26298.7
 23 11 2013  15 26  -20.9856 26066.2 -03488.2 -07.6220 26298.5
 23 11 2013  15 27  -20.9848 26066.2 -03488.3 -07.6222 26298.6
 23 11 2013  15 28  -20.9842 26066.4 -03488.4 -07.6224 26298.8
 23 11 2013  15 29  -20.9838 26066.7 -03488.6 -07.6228 26299.1
 23 11 2013  15 30  -20.9835 26067.2 -03488.9 -07.6233 26299.6
 23 11 2013  15 31  -20.9834 26068.0 -03489.3 -07.6239 26300.5
 23 11 2013  15 32  -20.9835 26068.6 -03489.5 -07.6243 26301.1
 23 11 2013  15 33  -20.9830 26069.0 -03489.6 -07.6243 26301.5
 23 11 2013  15 34  -20.9826 26069.3 -03489.6 -07.6243 26301.8
 23 11 2013  15 35  -20.9822 26069.1 -03489.5 -07.6240 26301.6
 23 11 2013  15 36  -20.9818 26068.7 -03489.4 -07.6238 26301.2
 23 11 2013  15 37  -20.9813 26068.5 -03489.3 -07.6237 26301.0
 23 11 2013  15 38  -20.9808 26068.3 -03489.3 -07.6237 26300.8
 23 11 2013  15 39  -20.9803 26067.9 -03489.2 -07.6238 26300.4
 23 11 2013  15 40  -20.9801 26067.6 -03489.2 -07.6238 26300.1
 23 11 2013  15 41  -20.9800 26067.7 -03489.4 -07.6242 26300.2
 23 11 2013  15 42  -20.9801 26067.8 -03489.6 -07.6246 26300.4
 23 11 2013  15 43  -20.9802 26068.1 -03489.7 -07.6248 26300.6
 23 11 2013  15 44  -20.9803 26068.2 -03489.9 -07.6251 26300.8
 23 11 2013  15 45  -20.9801 26068.4 -03489.9 -07.6251 26301.0
 23 11 2013  15 46  -20.9801 26068.7 -03490.0 -07.6253 26301.3
 23 11 2013  15 47  -20.9800 26068.9 -03490.1 -07.6254 26301.5
 23 11 2013  15 48  -20.9797 26069.0 -03490.1 -07.6253 26301.6
 23 11 2013  15 49  -20.9792 26069.3 -03490.2 -07.6255 26301.9
 23 11 2013  15 50  -20.9789 26070.2 -03490.6 -07.6261 26302.8
 23 11 2013  15 51  -20.9786 26070.7 -03490.7 -07.6263 26303.3
 23 11 2013  15 52  -20.9780 26070.8 -03490.7 -07.6261 26303.4
 23 11 2013  15 53  -20.9772 26070.5 -03490.3 -07.6254 26303.1
 23 11 2013  15 54  -20.9765 26070.4 -03490.2 -07.6251 26303.0
 23 11 2013  15 55  -20.9761 26070.4 -03490.1 -07.6249 26302.9
 23 11 2013  15 56  -20.9757 26070.2 -03489.9 -07.6247 26302.7
 23 11 2013  15 57  -20.9754 26070.0 -03489.8 -07.6244 26302.5
 23 11 2013  15 58  -20.9755 26069.8 -03489.7 -07.6241 26302.4
 23 11 2013  15 59  -20.9758 26069.5 -03489.4 -07.6238 26302.0
 23 11 2013  16 00  -20.9756 26069.0 -03489.2 -07.6234 26301.5
 23 11 2013  16 01  -20.9755 26068.5 -03489.0 -07.6230 26301.0
 23 11 2013  16 02  -20.9749 26067.9 -03488.7 -07.6226 26300.3
 23 11 2013  16 03  -20.9747 26067.3 -03488.5 -07.6224 26299.7
 23 11 2013  16 04  -20.9745 26066.9 -03488.5 -07.6225 26299.3
 23 11 2013  16 05  -20.9749 26066.8 -03488.6 -07.6228 26299.2
 23 11 2013  16 06  -20.9755 26066.8 -03488.8 -07.6231 26299.2
 23 11 2013  16 07  -20.9762 26067.0 -03489.0 -07.6235 26299.5
 23 11 2013  16 08  -20.9768 26067.3 -03489.1 -07.6236 26299.7
 23 11 2013  16 09  -20.9774 26067.6 -03489.2 -07.6238 26300.1
 23 11 2013  16 10  -20.9778 26067.9 -03489.2 -07.6238 26300.4
 23 11 2013  16 11  -20.9780 26068.0 -03489.2 -07.6237 26300.5
 23 11 2013  16 12  -20.9782 26068.2 -03489.2 -07.6237 26300.7
 23 11 2013  16 13  -20.9781 26068.2 -03489.1 -07.6235 26300.7
 23 11 2013  16 14  -20.9777 26068.2 -03489.0 -07.6232 26300.6
 23 11 2013  16 15  -20.9773 26068.1 -03488.9 -07.6231 26300.5
 23 11 2013  16 16  -20.9770 26068.2 -03489.0 -07.6231 26300.6
 23 11 2013  16 17  -20.9769 26068.3 -03489.0 -07.6232 26300.7
 23 11 2013  16 18  -20.9767 26068.4 -03489.0 -07.6233 26300.9
 23 11 2013  16 19  -20.9762 26068.5 -03489.0 -07.6232 26301.0
 23 11 2013  16 20  -20.9758 26068.6 -03489.0 -07.6231 26301.0
 23 11 2013  16 21  -20.9755 26068.6 -03489.0 -07.6231 26301.1
 23 11 2013  16 22  -20.9753 26068.6 -03488.9 -07.6229 26301.0
 23 11 2013  16 23  -20.9752 26068.6 -03488.9 -07.6229 26301.0
 23 11 2013  16 24  -20.9750 26068.5 -03488.8 -07.6228 26301.0
 23 11 2013  16 25  -20.9747 26068.5 -03488.8 -07.6227 26301.0
 23 11 2013  16 26  -20.9745 26068.6 -03488.8 -07.6226 26301.0
 23 11 2013  16 27  -20.9744 26068.7 -03488.7 -07.6225 26301.1
 23 11 2013  16 28  -20.9745 26068.7 -03488.7 -07.6225 26301.1
 23 11 2013  16 29  -20.9746 26068.8 -03488.6 -07.6223 26301.2
 23 11 2013  16 30  -20.9743 26068.6 -03488.5 -07.6220 26301.0
 23 11 2013  16 31  -20.9741 26068.6 -03488.5 -07.6219 26300.9
 23 11 2013  16 32  -20.9741 26068.6 -03488.4 -07.6219 26301.0
 23 11 2013  16 33  -20.9746 26068.8 -03488.5 -07.6219 26301.1
 23 11 2013  16 34  -20.9747 26068.7 -03488.4 -07.6218 26301.1
 23 11 2013  16 35  -20.9752 26068.6 -03488.3 -07.6216 26301.0
 23 11 2013  16 36  -20.9753 26068.4 -03488.2 -07.6214 26300.7
 23 11 2013  16 37  -20.9755 26068.1 -03488.0 -07.6212 26300.4
 23 11 2013  16 38  -20.9756 26067.8 -03487.9 -07.6209 26300.1
 23 11 2013  16 39  -20.9760 26067.7 -03487.9 -07.6209 26300.0
 23 11 2013  16 40  -20.9764 26067.6 -03487.9 -07.6209 26299.9
 23 11 2013  16 41  -20.9767 26067.3 -03487.7 -07.6207 26299.6
 23 11 2013  16 42  -20.9767 26066.9 -03487.6 -07.6206 26299.2
 23 11 2013  16 43  -20.9771 26066.9 -03487.7 -07.6207 26299.2
 23 11 2013  16 44  -20.9775 26067.0 -03487.7 -07.6208 26299.3
 23 11 2013  16 45  -20.9776 26067.0 -03487.8 -07.6209 26299.2
 23 11 2013  16 46  -20.9780 26067.1 -03487.9 -07.6211 26299.4
 23 11 2013  16 47  -20.9785 26067.4 -03488.1 -07.6214 26299.7
 23 11 2013  16 48  -20.9791 26067.8 -03488.2 -07.6217 26300.2
 23 11 2013  16 49  -20.9796 26068.1 -03488.3 -07.6218 26300.5
 23 11 2013  16 50  -20.9799 26068.6 -03488.5 -07.6220 26300.9
 23 11 2013  16 51  -20.9798 26069.0 -03488.6 -07.6221 26301.4
 23 11 2013  16 52  -20.9800 26069.6 -03488.8 -07.6224 26302.0
 23 11 2013  16 53  -20.9801 26069.8 -03488.8 -07.6223 26302.2
 23 11 2013  16 54  -20.9802 26069.9 -03488.7 -07.6220 26302.3
 23 11 2013  16 55  -20.9802 26070.0 -03488.6 -07.6218 26302.3
 23 11 2013  16 56  -20.9801 26070.1 -03488.5 -07.6216 26302.4
 23 11 2013  16 57  -20.9800 26070.1 -03488.4 -07.6214 26302.5
 23 11 2013  16 58  -20.9799 26070.0 -03488.3 -07.6212 26302.4
 23 11 2013  16 59  -20.9797 26069.8 -03488.2 -07.6210 26302.1
 23 11 2013  17 00  -20.9795 26069.5 -03488.0 -07.6207 26301.8
 23 11 2013  17 01  -20.9794 26069.3 -03487.9 -07.6205 26301.6
 23 11 2013  17 02  -20.9795 26069.2 -03487.8 -07.6204 26301.5
 23 11 2013  17 03  -20.9798 26069.1 -03487.8 -07.6203 26301.4
 23 11 2013  17 04  -20.9797 26069.3 -03487.8 -07.6204 26301.6
 23 11 2013  17 05  -20.9801 26069.7 -03488.0 -07.6206 26302.0
 23 11 2013  17 06  -20.9802 26069.9 -03488.0 -07.6206 26302.2
 23 11 2013  17 07  -20.9805 26070.0 -03488.0 -07.6205 26302.3
 23 11 2013  17 08  -20.9809 26070.0 -03487.9 -07.6204 26302.3
 23 11 2013  17 09  -20.9811 26069.9 -03487.8 -07.6201 26302.1
 23 11 2013  17 10  -20.9814 26069.7 -03487.7 -07.6199 26302.0
 23 11 2013  17 11  -20.9815 26069.5 -03487.5 -07.6197 26301.7
 23 11 2013  17 12  -20.9816 26069.1 -03487.4 -07.6195 26301.3
 23 11 2013  17 13  -20.9818 26068.8 -03487.3 -07.6193 26301.0
 23 11 2013  17 14  -20.9819 26068.5 -03487.2 -07.6193 26300.7
 23 11 2013  17 15  -20.9822 26068.2 -03487.1 -07.6191 26300.4
 23 11 2013  17 16  -20.9824 26067.9 -03487.0 -07.6190 26300.1
 23 11 2013  17 17  -20.9827 26067.6 -03487.0 -07.6190 26299.7
 23 11 2013  17 18  -20.9832 26067.3 -03486.9 -07.6190 26299.5
 23 11 2013  17 19  -20.9840 26067.1 -03487.0 -07.6193 26299.3
 23 11 2013  17 20  -20.9850 26067.4 -03487.3 -07.6197 26299.6
 23 11 2013  17 21  -20.9862 26067.8 -03487.4 -07.6200 26300.0
 23 11 2013  17 22  -20.9872 26068.1 -03487.5 -07.6201 26300.3
 23 11 2013  17 23  -20.9884 26068.1 -03487.5 -07.6201 26300.4
 23 11 2013  17 24  -20.9892 26068.0 -03487.5 -07.6200 26300.3
 23 11 2013  17 25  -20.9897 26067.9 -03487.4 -07.6199 26300.1
 23 11 2013  17 26  -20.9899 26067.5 -03487.3 -07.6198 26299.7
 23 11 2013  17 27  -20.9901 26067.0 -03487.2 -07.6197 26299.2
 23 11 2013  17 28  -20.9907 26066.9 -03487.4 -07.6201 26299.1
 23 11 2013  17 29  -20.9912 26066.7 -03487.4 -07.6202 26299.0
 23 11 2013  17 30  -20.9916 26066.4 -03487.4 -07.6203 26298.7
 23 11 2013  17 31  -20.9919 26065.9 -03487.3 -07.6202 26298.1
 23 11 2013  17 32  -20.9922 26065.3 -03487.3 -07.6204 26297.6
 23 11 2013  17 33  -20.9928 26065.0 -03487.4 -07.6207 26297.3
 23 11 2013  17 34  -20.9935 26064.9 -03487.5 -07.6210 26297.2
 23 11 2013  17 35  -20.9944 26064.8 -03487.7 -07.6213 26297.1
 23 11 2013  17 36  -20.9952 26064.6 -03487.8 -07.6216 26296.9
 23 11 2013  17 37  -20.9955 26064.4 -03487.8 -07.6218 26296.7
 23 11 2013  17 38  -20.9958 26064.1 -03487.8 -07.6219 26296.4
 23 11 2013  17 39  -20.9966 26063.8 -03488.0 -07.6222 26296.2
 23 11 2013  17 40  -20.9975 26063.7 -03488.1 -07.6226 26296.0
 23 11 2013  17 41  -20.9981 26063.2 -03488.1 -07.6228 26295.6
 23 11 2013  17 42  -20.9988 26062.9 -03488.2 -07.6230 26295.3
 23 11 2013  17 43  -20.9992 26062.3 -03488.2 -07.6232 26294.7
 23 11 2013  17 44  -20.9995 26061.9 -03488.2 -07.6234 26294.3
 23 11 2013  17 45  -21.0002 26061.6 -03488.4 -07.6238 26294.1
 23 11 2013  17 46  -21.0011 26061.3 -03488.5 -07.6241 26293.8
 23 11 2013  17 47  -21.0017 26061.0 -03488.6 -07.6244 26293.4
 23 11 2013  17 48  -21.0023 26060.5 -03488.6 -07.6245 26293.0
 23 11 2013  17 49  -21.0027 26060.0 -03488.6 -07.6247 26292.5
 23 11 2013  17 50  -21.0032 26059.5 -03488.6 -07.6248 26292.0
 23 11 2013  17 51  -21.0038 26059.1 -03488.7 -07.6251 26291.6
 23 11 2013  17 52  -21.0044 26058.8 -03488.7 -07.6254 26291.3
 23 11 2013  17 53  -21.0051 26058.6 -03488.8 -07.6257 26291.1
 23 11 2013  17 54  -21.0057 26058.4 -03488.9 -07.6257 26290.9
 23 11 2013  17 55  -21.0060 26058.1 -03488.8 -07.6257 26290.7
 23 11 2013  17 56  -21.0068 26058.1 -03488.8 -07.6258 26290.6
 23 11 2013  17 57  -21.0074 26057.8 -03488.9 -07.6259 26290.3
 23 11 2013  17 58  -21.0080 26057.6 -03488.9 -07.6260 26290.1
 23 11 2013  17 59  -21.0088 26057.5 -03489.0 -07.6263 26290.1
 23 11 2013  18 00  -21.0091 26057.2 -03489.0 -07.6263 26289.7
 23 11 2013  18 01  -21.0094 26056.8 -03488.9 -07.6264 26289.3
 23 11 2013  18 02  -21.0101 26056.7 -03489.1 -07.6267 26289.3
 23 11 2013  18 03  -21.0105 26056.3 -03489.0 -07.6267 26288.8
 23 11 2013  18 04  -21.0105 26055.8 -03489.0 -07.6267 26288.4
 23 11 2013  18 05  -21.0107 26055.4 -03489.0 -07.6269 26288.0
 23 11 2013  18 06  -21.0107 26055.1 -03489.0 -07.6269 26287.6
 23 11 2013  18 07  -21.0106 26054.6 -03488.9 -07.6270 26287.2
 23 11 2013  18 08  -21.0104 26054.3 -03489.0 -07.6272 26286.9
 23 11 2013  18 09  -21.0100 26053.9 -03489.0 -07.6273 26286.5
 23 11 2013  18 10  -21.0095 26053.7 -03489.1 -07.6277 26286.3
 23 11 2013  18 11  -21.0091 26053.6 -03489.3 -07.6280 26286.2
 23 11 2013  18 12  -21.0088 26053.5 -03489.5 -07.6285 26286.1
 23 11 2013  18 13  -21.0089 26053.5 -03489.7 -07.6290 26286.2
 23 11 2013  18 14  -21.0087 26053.4 -03489.9 -07.6294 26286.1
 23 11 2013  18 15  -21.0086 26053.3 -03490.0 -07.6298 26286.1
 23 11 2013  18 16  -21.0089 26053.3 -03490.2 -07.6301 26286.0
 23 11 2013  18 17  -21.0087 26053.1 -03490.3 -07.6305 26285.9
 23 11 2013  18 18  -21.0088 26052.9 -03490.4 -07.6307 26285.7
 23 11 2013  18 19  -21.0087 26052.6 -03490.5 -07.6309 26285.4
 23 11 2013  18 20  -21.0083 26052.1 -03490.4 -07.6309 26284.9
 23 11 2013  18 21  -21.0080 26051.8 -03490.5 -07.6312 26284.6
 23 11 2013  18 22  -21.0077 26051.3 -03490.5 -07.6313 26284.1
 23 11 2013  18 23  -21.0074 26051.0 -03490.6 -07.6316 26283.8
 23 11 2013  18 24  -21.0074 26050.9 -03490.9 -07.6322 26283.7
 23 11 2013  18 25  -21.0078 26050.9 -03491.1 -07.6328 26283.8
 23 11 2013  18 26  -21.0082 26050.9 -03491.4 -07.6333 26283.8
 23 11 2013  18 27  -21.0083 26050.6 -03491.4 -07.6335 26283.5
 23 11 2013  18 28  -21.0084 26050.3 -03491.5 -07.6339 26283.3
 23 11 2013  18 29  -21.0085 26050.1 -03491.7 -07.6343 26283.1
 23 11 2013  18 30  -21.0087 26049.9 -03491.9 -07.6347 26282.9
 23 11 2013  18 31  -21.0090 26049.7 -03492.0 -07.6351 26282.7
 23 11 2013  18 32  -21.0090 26049.6 -03492.2 -07.6355 26282.6
 23 11 2013  18 33  -21.0089 26049.3 -03492.3 -07.6359 26282.3
 23 11 2013  18 34  -21.0092 26049.1 -03492.5 -07.6363 26282.2
 23 11 2013  18 35  -21.0096 26048.9 -03492.7 -07.6367 26282.0
 23 11 2013  18 36  -21.0102 26048.8 -03492.8 -07.6369 26281.9
 23 11 2013  18 37  -21.0106 26048.4 -03492.7 -07.6370 26281.6
 23 11 2013  18 38  -21.0106 26048.0 -03492.6 -07.6369 26281.1
 23 11 2013  18 39  -21.0111 26047.4 -03492.5 -07.6369 26280.6
 23 11 2013  18 40  -21.0115 26046.7 -03492.3 -07.6366 26279.8
 23 11 2013  18 41  -21.0116 26046.3 -03492.3 -07.6368 26279.4
 23 11 2013  18 42  -21.0119 26046.0 -03492.4 -07.6369 26279.1
 23 11 2013  18 43  -21.0128 26045.8 -03492.4 -07.6371 26278.9
 23 11 2013  18 44  -21.0132 26045.2 -03492.2 -07.6369 26278.3
 23 11 2013  18 45  -21.0131 26044.4 -03492.0 -07.6366 26277.5
 23 11 2013  18 46  -21.0128 26043.7 -03491.9 -07.6365 26276.7
 23 11 2013  18 47  -21.0124 26043.1 -03491.8 -07.6366 26276.1
 23 11 2013  18 48  -21.0117 26043.0 -03492.1 -07.6371 26276.1
 23 11 2013  18 49  -21.0115 26043.0 -03492.3 -07.6377 26276.1
 23 11 2013  18 50  -21.0115 26043.1 -03492.6 -07.6382 26276.2
 23 11 2013  18 51  -21.0119 26043.3 -03492.9 -07.6389 26276.4
 23 11 2013  18 52  -21.0121 26043.1 -03493.1 -07.6392 26276.3
 23 11 2013  18 53  -21.0123 26042.9 -03493.2 -07.6397 26276.2
 23 11 2013  18 54  -21.0125 26042.8 -03493.4 -07.6401 26276.1
 23 11 2013  18 55  -21.0126 26042.6 -03493.6 -07.6405 26275.9
 23 11 2013  18 56  -21.0128 26042.1 -03493.6 -07.6408 26275.4
 23 11 2013  18 57  -21.0130 26041.7 -03493.7 -07.6410 26275.0
 23 11 2013  18 58  -21.0133 26041.1 -03493.7 -07.6411 26274.4
 23 11 2013  18 59  -21.0135 26040.4 -03493.6 -07.6412 26273.7
 23 11 2013  19 00  -21.0134 26039.9 -03493.6 -07.6414 26273.2
 23 11 2013  19 01  -21.0133 26039.5 -03493.7 -07.6416 26272.8
 23 11 2013  19 02  -21.0135 26039.2 -03493.9 -07.6421 26272.6
 23 11 2013  19 03  -21.0138 26039.0 -03494.0 -07.6425 26272.4
 23 11 2013  19 04  -21.0138 26038.6 -03494.1 -07.6428 26272.0
 23 11 2013  19 05  -21.0137 26038.2 -03494.2 -07.6431 26271.6
 23 11 2013  19 06  -21.0138 26037.9 -03494.3 -07.6434 26271.3
 23 11 2013  19 07  -21.0141 26037.5 -03494.3 -07.6436 26270.9
 23 11 2013  19 08  -21.0143 26037.0 -03494.4 -07.6438 26270.5
 23 11 2013  19 09  -21.0143 26036.8 -03494.5 -07.6442 26270.2
 23 11 2013  19 10  -21.0143 26036.7 -03494.7 -07.6446 26270.2
 23 11 2013  19 11  -21.0146 26036.7 -03494.9 -07.6451 26270.2
 23 11 2013  19 12  -21.0143 26036.8 -03495.2 -07.6457 26270.4
 23 11 2013  19 13  -21.0144 26037.2 -03495.6 -07.6464 26270.8
 23 11 2013  19 14  -21.0144 26037.4 -03495.9 -07.6470 26271.0
 23 11 2013  19 15  -21.0141 26037.5 -03496.1 -07.6475 26271.2
 23 11 2013  19 16  -21.0140 26037.5 -03496.3 -07.6479 26271.2
 23 11 2013  19 17  -21.0136 26037.4 -03496.4 -07.6482 26271.1
 23 11 2013  19 18  -21.0135 26037.1 -03496.5 -07.6484 26270.8
 23 11 2013  19 19  -21.0134 26036.7 -03496.5 -07.6485 26270.4
 23 11 2013  19 20  -21.0133 26036.3 -03496.5 -07.6486 26270.0
 23 11 2013  19 21  -21.0134 26035.9 -03496.5 -07.6488 26269.6
 23 11 2013  19 22  -21.0134 26035.5 -03496.5 -07.6490 26269.3
 23 11 2013  19 23  -21.0134 26035.2 -03496.6 -07.6492 26268.9
 23 11 2013  19 24  -21.0135 26034.9 -03496.7 -07.6495 26268.7
 23 11 2013  19 25  -21.0137 26034.6 -03496.8 -07.6497 26268.4
 23 11 2013  19 26  -21.0137 26034.2 -03496.8 -07.6499 26268.0
 23 11 2013  19 27  -21.0137 26033.8 -03496.9 -07.6502 26267.6
 23 11 2013  19 28  -21.0136 26033.6 -03497.0 -07.6506 26267.5
 23 11 2013  19 29  -21.0135 26033.5 -03497.2 -07.6510 26267.3
 23 11 2013  19 30  -21.0135 26033.3 -03497.4 -07.6514 26267.2
 23 11 2013  19 31  -21.0135 26033.1 -03497.5 -07.6517 26267.0
 23 11 2013  19 32  -21.0135 26032.8 -03497.5 -07.6519 26266.7
 23 11 2013  19 33  -21.0135 26032.5 -03497.7 -07.6523 26266.5
 23 11 2013  19 34  -21.0137 26032.4 -03497.8 -07.6526 26266.3
 23 11 2013  19 35  -21.0139 26032.3 -03498.0 -07.6531 26266.2
 23 11 2013  19 36  -21.0139 26032.3 -03498.2 -07.6535 26266.3
 23 11 2013  19 37  -21.0140 26032.4 -03498.5 -07.6540 26266.4
 23 11 2013  19 38  -21.0141 26032.4 -03498.7 -07.6546 26266.5
 23 11 2013  19 39  -21.0142 26032.3 -03498.9 -07.6550 26266.4
 23 11 2013  19 40  -21.0143 26032.3 -03499.1 -07.6555 26266.4
 23 11 2013  19 41  -21.0146 26032.2 -03499.3 -07.6560 26266.3
 23 11 2013  19 42  -21.0145 26032.1 -03499.5 -07.6564 26266.2
 23 11 2013  19 43  -21.0147 26032.0 -03499.7 -07.6569 26266.2
 23 11 2013  19 44  -21.0148 26031.9 -03499.9 -07.6573 26266.1
 23 11 2013  19 45  -21.0150 26031.7 -03500.0 -07.6576 26265.9
 23 11 2013  19 46  -21.0151 26031.5 -03500.1 -07.6579 26265.8
 23 11 2013  19 47  -21.0152 26031.5 -03500.3 -07.6584 26265.7
 23 11 2013  19 48  -21.0153 26031.4 -03500.5 -07.6588 26265.7
 23 11 2013  19 49  -21.0153 26031.5 -03500.8 -07.6594 26265.9
 23 11 2013  19 50  -21.0153 26031.8 -03501.2 -07.6601 26266.2
 23 11 2013  19 51  -21.0155 26031.9 -03501.4 -07.6606 26266.3
 23 11 2013  19 52  -21.0156 26031.8 -03501.6 -07.6609 26266.2
 23 11 2013  19 53  -21.0157 26031.7 -03501.7 -07.6613 26266.2
 23 11 2013  19 54  -21.0159 26031.6 -03501.9 -07.6616 26266.1
 23 11 2013  19 55  -21.0161 26031.4 -03501.9 -07.6619 26265.9
 23 11 2013  19 56  -21.0163 26031.3 -03502.1 -07.6621 26265.8
 23 11 2013  19 57  -21.0165 26031.1 -03502.2 -07.6624 26265.7
 23 11 2013  19 58  -21.0166 26031.1 -03502.3 -07.6627 26265.6
 23 11 2013  19 59  -21.0168 26031.0 -03502.4 -07.6630 26265.5
 23 11 2013  20 00  -21.0169 26030.8 -03502.6 -07.6633 26265.4
 23 11 2013  20 01  -21.0171 26030.8 -03502.7 -07.6636 26265.4
 23 11 2013  20 02  -21.0172 26030.7 -03502.8 -07.6640 26265.4
 23 11 2013  20 03  -21.0174 26030.8 -03503.0 -07.6643 26265.4
 23 11 2013  20 04  -21.0175 26030.8 -03503.1 -07.6646 26265.4
 23 11 2013  20 05  -21.0177 26030.7 -03503.3 -07.6649 26265.4
 23 11 2013  20 06  -21.0178 26030.7 -03503.4 -07.6652 26265.4
 23 11 2013  20 07  -21.0179 26030.6 -03503.5 -07.6655 26265.3
 23 11 2013  20 08  -21.0180 26030.6 -03503.6 -07.6657 26265.3
 23 11 2013  20 09  -21.0181 26030.5 -03503.7 -07.6659 26265.3
 23 11 2013  20 10  -21.0182 26030.5 -03503.8 -07.6661 26265.2
 23 11 2013  20 11  -21.0183 26030.5 -03503.9 -07.6664 26265.2
 23 11 2013  20 12  -21.0185 26030.4 -03504.0 -07.6667 26265.2
 23 11 2013  20 13  -21.0186 26030.4 -03504.1 -07.6669 26265.2
 23 11 2013  20 14  -21.0186 26030.3 -03504.2 -07.6670 26265.1
 23 11 2013  20 15  -21.0187 26030.2 -03504.3 -07.6672 26265.1
 23 11 2013  20 16  -21.0189 26030.2 -03504.3 -07.6674 26265.0
 23 11 2013  20 17  -21.0192 26030.1 -03504.4 -07.6676 26264.9
 23 11 2013  20 18  -21.0194 26030.0 -03504.5 -07.6678 26264.8
 23 11 2013  20 19  -21.0196 26029.9 -03504.5 -07.6679 26264.7
 23 11 2013  20 20  -21.0197 26029.7 -03504.5 -07.6678 26264.5
 23 11 2013  20 21  -21.0199 26029.5 -03504.5 -07.6680 26264.4
 23 11 2013  20 22  -21.0202 26029.3 -03504.6 -07.6682 26264.2
 23 11 2013  20 23  -21.0204 26029.2 -03504.6 -07.6683 26264.0
 23 11 2013  20 24  -21.0206 26029.0 -03504.6 -07.6684 26263.9
 23 11 2013  20 25  -21.0208 26028.8 -03504.7 -07.6685 26263.7
 23 11 2013  20 26  -21.0210 26028.6 -03504.7 -07.6685 26263.5
 23 11 2013  20 27  -21.0212 26028.4 -03504.7 -07.6687 26263.3
 23 11 2013  20 28  -21.0214 26028.3 -03504.7 -07.6688 26263.2
 23 11 2013  20 29  -21.0216 26028.2 -03504.8 -07.6689 26263.1
 23 11 2013  20 30  -21.0217 26028.2 -03504.9 -07.6691 26263.1
 23 11 2013  20 31  -21.0218 26028.0 -03504.9 -07.6692 26263.0
 23 11 2013  20 32  -21.0221 26027.9 -03504.9 -07.6693 26262.8
 23 11 2013  20 33  -21.0223 26027.8 -03504.9 -07.6694 26262.7
 23 11 2013  20 34  -21.0224 26027.6 -03505.0 -07.6695 26262.6
 23 11 2013  20 35  -21.0225 26027.5 -03505.0 -07.6697 26262.5
 23 11 2013  20 36  -21.0225 26027.5 -03505.1 -07.6698 26262.4
 23 11 2013  20 37  -21.0225 26027.3 -03505.1 -07.6698 26262.2
 23 11 2013  20 38  -21.0226 26027.1 -03505.1 -07.6698 26262.1
 23 11 2013  20 39  -21.0227 26027.0 -03505.1 -07.6699 26261.9
 23 11 2013  20 40  -21.0228 26026.9 -03505.2 -07.6701 26261.9
 23 11 2013  20 41  -21.0229 26026.8 -03505.2 -07.6702 26261.8
 23 11 2013  20 42  -21.0230 26026.7 -03505.2 -07.6703 26261.7
 23 11 2013  20 43  -21.0231 26026.6 -03505.2 -07.6704 26261.6
 23 11 2013  20 44  -21.0232 26026.5 -03505.3 -07.6704 26261.5
 23 11 2013  20 45  -21.0232 26026.4 -03505.3 -07.6705 26261.4
 23 11 2013  20 46  -21.0234 26026.3 -03505.3 -07.6706 26261.3
 23 11 2013  20 47  -21.0235 26026.1 -03505.3 -07.6707 26261.1
 23 11 2013  20 48  -21.0235 26026.1 -03505.4 -07.6708 26261.1
 23 11 2013  20 49  -21.0236 26026.2 -03505.5 -07.6710 26261.2
 23 11 2013  20 50  -21.0237 26026.1 -03505.5 -07.6711 26261.1
 23 11 2013  20 51  -21.0239 26025.8 -03505.5 -07.6711 26260.8
 23 11 2013  20 52  -21.0240 26025.7 -03505.4 -07.6711 26260.7
 23 11 2013  20 53  -21.0240 26025.6 -03505.5 -07.6712 26260.6
 23 11 2013  20 54  -21.0240 26025.5 -03505.5 -07.6712 26260.6
 23 11 2013  20 55  -21.0240 26025.4 -03505.6 -07.6714 26260.5
 23 11 2013  20 56  -21.0241 26025.3 -03505.6 -07.6715 26260.3
 23 11 2013  20 57  -21.0242 26025.2 -03505.6 -07.6717 26260.2
 23 11 2013  20 58  -21.0243 26025.0 -03505.7 -07.6718 26260.1
 23 11 2013  20 59  -21.0244 26024.9 -03505.7 -07.6719 26260.0
 23 11 2013  21 00  -21.0244 26024.8 -03505.8 -07.6720 26259.9
 23 11 2013  21 01  -21.0244 26024.8 -03505.9 -07.6723 26259.9
 23 11 2013  21 02  -21.0244 26024.8 -03506.0 -07.6725 26259.9
 23 11 2013  21 03  -21.0246 26024.7 -03506.1 -07.6728 26259.8
 23 11 2013  21 04  -21.0247 26024.7 -03506.2 -07.6730 26259.9
 23 11 2013  21 05  -21.0250 26024.7 -03506.3 -07.6732 26259.8
 23 11 2013  21 06  -21.0251 26024.6 -03506.3 -07.6734 26259.7
 23 11 2013  21 07  -21.0254 26024.5 -03506.4 -07.6735 26259.6
 23 11 2013  21 08  -21.0256 26024.3 -03506.4 -07.6735 26259.5
 23 11 2013  21 09  -21.0258 26024.2 -03506.4 -07.6735 26259.3
 23 11 2013  21 10  -21.0258 26024.1 -03506.4 -07.6735 26259.3
 23 11 2013  21 11  -21.0259 26024.1 -03506.4 -07.6736 26259.2
 23 11 2013  21 12  -21.0259 26024.0 -03506.4 -07.6736 26259.1
 23 11 2013  21 13  -21.0259 26024.0 -03506.4 -07.6737 26259.1
 23 11 2013  21 14  -21.0258 26024.0 -03506.5 -07.6738 26259.2
 23 11 2013  21 15  -21.0257 26024.0 -03506.6 -07.6740 26259.2
 23 11 2013  21 16  -21.0257 26023.9 -03506.6 -07.6740 26259.1
 23 11 2013  21 17  -21.0256 26023.9 -03506.6 -07.6740 26259.0
 23 11 2013  21 18  -21.0256 26023.8 -03506.5 -07.6740 26258.9
 23 11 2013  21 19  -21.0257 26023.6 -03506.6 -07.6741 26258.8
 23 11 2013  21 20  -21.0257 26023.5 -03506.5 -07.6741 26258.6
 23 11 2013  21 21  -21.0256 26023.3 -03506.4 -07.6739 26258.4
 23 11 2013  21 22  -21.0256 26023.1 -03506.4 -07.6739 26258.2
 23 11 2013  21 23  -21.0256 26022.9 -03506.4 -07.6739 26258.1
 23 11 2013  21 24  -21.0256 26022.8 -03506.4 -07.6739 26257.9
 23 11 2013  21 25  -21.0257 26022.7 -03506.4 -07.6741 26257.9
 23 11 2013  21 26  -21.0256 26022.7 -03506.5 -07.6742 26257.9
 23 11 2013  21 27  -21.0256 26022.7 -03506.5 -07.6743 26257.9
 23 11 2013  21 28  -21.0255 26022.7 -03506.6 -07.6745 26257.9
 23 11 2013  21 29  -21.0255 26022.8 -03506.7 -07.6747 26258.0
 23 11 2013  21 30  -21.0253 26022.8 -03506.8 -07.6748 26258.0
 23 11 2013  21 31  -21.0252 26022.7 -03506.9 -07.6750 26258.0
 23 11 2013  21 32  -21.0251 26022.8 -03506.9 -07.6751 26258.1
 23 11 2013  21 33  -21.0249 26023.0 -03507.1 -07.6754 26258.2
 23 11 2013  21 34  -21.0247 26023.1 -03507.2 -07.6756 26258.3
 23 11 2013  21 35  -21.0244 26023.2 -03507.3 -07.6758 26258.5
 23 11 2013  21 36  -21.0242 26023.3 -03507.4 -07.6760 26258.6
 23 11 2013  21 37  -21.0241 26023.3 -03507.5 -07.6761 26258.6
 23 11 2013  21 38  -21.0239 26023.3 -03507.5 -07.6763 26258.6
 23 11 2013  21 39  -21.0238 26023.3 -03507.5 -07.6763 26258.6
 23 11 2013  21 40  -21.0237 26023.3 -03507.6 -07.6764 26258.6
 23 11 2013  21 41  -21.0236 26023.2 -03507.6 -07.6765 26258.6
 23 11 2013  21 42  -21.0236 26023.2 -03507.7 -07.6766 26258.6
 23 11 2013  21 43  -21.0234 26023.2 -03507.7 -07.6767 26258.6
 23 11 2013  21 44  -21.0234 26023.2 -03507.7 -07.6768 26258.5
 23 11 2013  21 45  -21.0234 26023.1 -03507.8 -07.6769 26258.5
 23 11 2013  21 46  -21.0235 26023.0 -03507.8 -07.6769 26258.4
 23 11 2013  21 47  -21.0235 26022.9 -03507.8 -07.6769 26258.3
 23 11 2013  21 48  -21.0236 26022.8 -03507.8 -07.6769 26258.2
 23 11 2013  21 49  -21.0238 26022.8 -03507.8 -07.6770 26258.1
 23 11 2013  21 50  -21.0240 26022.6 -03507.8 -07.6770 26258.0
 23 11 2013  21 51  -21.0241 26022.4 -03507.7 -07.6769 26257.8
 23 11 2013  21 52  -21.0244 26022.3 -03507.7 -07.6769 26257.6
 23 11 2013  21 53  -21.0246 26022.1 -03507.6 -07.6769 26257.5
 23 11 2013  21 54  -21.0248 26022.0 -03507.6 -07.6769 26257.4
 23 11 2013  21 55  -21.0250 26021.9 -03507.6 -07.6769 26257.2
 23 11 2013  21 56  -21.0250 26021.9 -03507.6 -07.6769 26257.2
 23 11 2013  21 57  -21.0251 26021.8 -03507.6 -07.6769 26257.1
 23 11 2013  21 58  -21.0253 26021.8 -03507.7 -07.6770 26257.1
 23 11 2013  21 59  -21.0254 26021.8 -03507.7 -07.6772 26257.1
 23 11 2013  22 00  -21.0254 26021.7 -03507.8 -07.6773 26257.1
 23 11 2013  22 01  -21.0254 26021.7 -03507.8 -07.6773 26257.1
 23 11 2013  22 02  -21.0253 26021.7 -03507.8 -07.6773 26257.1
 23 11 2013  22 03  -21.0253 26021.7 -03507.8 -07.6774 26257.0
 23 11 2013  22 04  -21.0253 26021.6 -03507.9 -07.6775 26257.0
 23 11 2013  22 05  -21.0252 26021.6 -03507.9 -07.6775 26257.0
 23 11 2013  22 06  -21.0251 26021.6 -03507.9 -07.6776 26257.0
 23 11 2013  22 07  -21.0250 26021.6 -03507.9 -07.6776 26257.0
 23 11 2013  22 08  -21.0249 26021.6 -03508.0 -07.6778 26257.0
 23 11 2013  22 09  -21.0247 26021.6 -03508.0 -07.6778 26257.0
 23 11 2013  22 10  -21.0246 26021.5 -03508.0 -07.6779 26256.9
 23 11 2013  22 11  -21.0245 26021.5 -03508.1 -07.6780 26256.9
 23 11 2013  22 12  -21.0242 26021.5 -03508.1 -07.6781 26256.9
 23 11 2013  22 13  -21.0241 26021.4 -03508.1 -07.6780 26256.8
 23 11 2013  22 14  -21.0240 26021.4 -03508.1 -07.6781 26256.8
 23 11 2013  22 15  -21.0240 26021.3 -03508.1 -07.6782 26256.7
 23 11 2013  22 16  -21.0238 26021.3 -03508.1 -07.6782 26256.7
 23 11 2013  22 17  -21.0238 26021.2 -03508.2 -07.6783 26256.6
 23 11 2013  22 18  -21.0237 26021.1 -03508.2 -07.6783 26256.5
 23 11 2013  22 19  -21.0236 26021.0 -03508.2 -07.6784 26256.4
 23 11 2013  22 20  -21.0235 26020.9 -03508.2 -07.6784 26256.4
 23 11 2013  22 21  -21.0234 26020.9 -03508.2 -07.6785 26256.3
 23 11 2013  22 22  -21.0232 26020.9 -03508.3 -07.6786 26256.3
 23 11 2013  22 23  -21.0231 26020.9 -03508.4 -07.6788 26256.4
 23 11 2013  22 24  -21.0230 26021.0 -03508.4 -07.6789 26256.4
 23 11 2013  22 25  -21.0229 26021.1 -03508.6 -07.6792 26256.5
 23 11 2013  22 26  -21.0226 26021.2 -03508.7 -07.6794 26256.7
 23 11 2013  22 27  -21.0222 26021.3 -03508.7 -07.6795 26256.8
 23 11 2013  22 28  -21.0219 26021.5 -03508.9 -07.6797 26257.0
 23 11 2013  22 29  -21.0215 26021.7 -03509.0 -07.6799 26257.2
 23 11 2013  22 30  -21.0214 26021.8 -03509.1 -07.6801 26257.4
 23 11 2013  22 31  -21.0211 26021.9 -03509.2 -07.6802 26257.4
 23 11 2013  22 32  -21.0208 26021.9 -03509.2 -07.6803 26257.4
 23 11 2013  22 33  -21.0207 26021.8 -03509.2 -07.6804 26257.4
 23 11 2013  22 34  -21.0206 26021.7 -03509.2 -07.6804 26257.3
 23 11 2013  22 35  -21.0204 26021.6 -03509.1 -07.6803 26257.1
 23 11 2013  22 36  -21.0204 26021.4 -03509.1 -07.6802 26256.9
 23 11 2013  22 37  -21.0205 26021.2 -03509.0 -07.6801 26256.7
 23 11 2013  22 38  -21.0207 26021.0 -03508.9 -07.6800 26256.6
 23 11 2013  22 39  -21.0209 26020.9 -03508.9 -07.6800 26256.4
 23 11 2013  22 40  -21.0211 26020.8 -03508.9 -07.6800 26256.3
 23 11 2013  22 41  -21.0213 26020.5 -03508.8 -07.6798 26256.0
 23 11 2013  22 42  -21.0214 26020.3 -03508.7 -07.6797 26255.8
 23 11 2013  22 43  -21.0213 26020.2 -03508.7 -07.6796 26255.7
 23 11 2013  22 44  -21.0213 26020.1 -03508.7 -07.6797 26255.6
 23 11 2013  22 45  -21.0212 26020.0 -03508.6 -07.6796 26255.5
 23 11 2013  22 46  -21.0212 26019.8 -03508.6 -07.6796 26255.3
 23 11 2013  22 47  -21.0210 26019.8 -03508.6 -07.6796 26255.2
 23 11 2013  22 48  -21.0206 26019.8 -03508.7 -07.6797 26255.3
 23 11 2013  22 49  -21.0203 26019.9 -03508.7 -07.6798 26255.4
 23 11 2013  22 50  -21.0202 26019.8 -03508.8 -07.6800 26255.4
 23 11 2013  22 51  -21.0199 26019.8 -03508.8 -07.6800 26255.3
 23 11 2013  22 52  -21.0197 26019.9 -03508.8 -07.6801 26255.4
 23 11 2013  22 53  -21.0195 26019.9 -03508.9 -07.6803 26255.4
 23 11 2013  22 54  -21.0193 26019.9 -03508.9 -07.6803 26255.4
 23 11 2013  22 55  -21.0192 26019.9 -03509.0 -07.6805 26255.5
 23 11 2013  22 56  -21.0191 26020.0 -03509.1 -07.6806 26255.6
 23 11 2013  22 57  -21.0192 26020.1 -03509.2 -07.6809 26255.7
 23 11 2013  22 58  -21.0192 26020.2 -03509.3 -07.6809 26255.8
 23 11 2013  22 59  -21.0191 26020.2 -03509.3 -07.6810 26255.8
 23 11 2013  23 00  -21.0190 26020.2 -03509.3 -07.6810 26255.8
 23 11 2013  23 01  -21.0189 26020.2 -03509.3 -07.6811 26255.8
 23 11 2013  23 02  -21.0187 26020.2 -03509.4 -07.6811 26255.8
 23 11 2013  23 03  -21.0184 26020.2 -03509.4 -07.6812 26255.8
 23 11 2013  23 04  -21.0181 26020.2 -03509.4 -07.6812 26255.8
 23 11 2013  23 05  -21.0178 26020.3 -03509.4 -07.6812 26255.9
 23 11 2013  23 06  -21.0175 26020.3 -03509.5 -07.6813 26255.9
 23 11 2013  23 07  -21.0173 26020.3 -03509.5 -07.6814 26255.9
 23 11 2013  23 08  -21.0171 26020.3 -03509.5 -07.6815 26256.0
 23 11 2013  23 09  -21.0168 26020.3 -03509.6 -07.6815 26255.9
 23 11 2013  23 10  -21.0167 26020.3 -03509.6 -07.6816 26255.9
 23 11 2013  23 11  -21.0164 26020.2 -03509.6 -07.6816 26255.9
 23 11 2013  23 12  -21.0162 26020.1 -03509.5 -07.6815 26255.7
 23 11 2013  23 13  -21.0161 26020.0 -03509.5 -07.6816 26255.7
 23 11 2013  23 14  -21.0159 26020.0 -03509.5 -07.6816 26255.6
 23 11 2013  23 15  -21.0158 26019.9 -03509.5 -07.6816 26255.5
 23 11 2013  23 16  -21.0158 26019.9 -03509.6 -07.6817 26255.5
 23 11 2013  23 17  -21.0158 26019.8 -03509.6 -07.6817 26255.4
 23 11 2013  23 18  -21.0158 26019.8 -03509.6 -07.6817 26255.4
 23 11 2013  23 19  -21.0159 26019.7 -03509.6 -07.6818 26255.3
 23 11 2013  23 20  -21.0159 26019.7 -03509.6 -07.6818 26255.3
 23 11 2013  23 21  -21.0159 26019.7 -03509.6 -07.6818 26255.3
 23 11 2013  23 22  -21.0159 26019.8 -03509.6 -07.6819 26255.4
 23 11 2013  23 23  -21.0159 26020.0 -03509.8 -07.6821 26255.6
 23 11 2013  23 24  -21.0160 26020.1 -03509.9 -07.6823 26255.8
 23 11 2013  23 25  -21.0160 26020.3 -03510.0 -07.6825 26256.0
 23 11 2013  23 26  -21.0160 26020.4 -03510.0 -07.6825 26256.0
 23 11 2013  23 27  -21.0159 26020.4 -03510.0 -07.6825 26256.1
 23 11 2013  23 28  -21.0157 26020.5 -03510.0 -07.6825 26256.1
 23 11 2013  23 29  -21.0157 26020.4 -03510.0 -07.6825 26256.1
 23 11 2013  23 30  -21.0156 26020.3 -03509.9 -07.6824 26256.0
 23 11 2013  23 31  -21.0154 26020.2 -03509.9 -07.6823 26255.9
 23 11 2013  23 32  -21.0153 26020.1 -03509.9 -07.6823 26255.8
 23 11 2013  23 33  -21.0152 26020.1 -03509.8 -07.6822 26255.7
 23 11 2013  23 34  -21.0151 26020.0 -03509.8 -07.6822 26255.7
 23 11 2013  23 35  -21.0151 26019.9 -03509.8 -07.6822 26255.5
 23 11 2013  23 36  -21.0150 26019.8 -03509.8 -07.6821 26255.5
 23 11 2013  23 37  -21.0151 26019.8 -03509.8 -07.6821 26255.4
 23 11 2013  23 38  -21.0151 26019.8 -03509.8 -07.6822 26255.5
 23 11 2013  23 39  -21.0150 26020.0 -03509.9 -07.6823 26255.6
 23 11 2013  23 40  -21.0148 26020.0 -03509.9 -07.6825 26255.7
 23 11 2013  23 41  -21.0149 26020.1 -03510.0 -07.6825 26255.8
 23 11 2013  23 42  -21.0150 26020.2 -03510.0 -07.6826 26255.8
 23 11 2013  23 43  -21.0149 26020.1 -03510.0 -07.6826 26255.8
 23 11 2013  23 44  -21.0148 26020.0 -03510.0 -07.6826 26255.7
 23 11 2013  23 45  -21.0147 26020.0 -03510.0 -07.6825 26255.7
 23 11 2013  23 46  -21.0145 26019.9 -03509.9 -07.6824 26255.6
 23 11 2013  23 47  -21.0144 26019.8 -03509.9 -07.6824 26255.5
 23 11 2013  23 48  -21.0142 26019.8 -03509.8 -07.6823 26255.4
 23 11 2013  23 49  -21.0140 26019.6 -03509.8 -07.6822 26255.3
 23 11 2013  23 50  -21.0140 26019.5 -03509.8 -07.6822 26255.2
 23 11 2013  23 51  -21.0139 26019.5 -03509.8 -07.6822 26255.1
 23 11 2013  23 52  -21.0139 26019.4 -03509.8 -07.6823 26255.1
 23 11 2013  23 53  -21.0140 26019.3 -03509.8 -07.6823 26255.0
 23 11 2013  23 54  -21.0141 26019.3 -03509.8 -07.6823 26254.9
 23 11 2013  23 55  -21.0141 26019.3 -03509.8 -07.6823 26255.0
 23 11 2013  23 56  -21.0142 26019.4 -03509.9 -07.6825 26255.1
 23 11 2013  23 57  -21.0141 26019.5 -03510.0 -07.6826 26255.2
