SAO LUIS EMBRACE-03 <089> 1 Min. Reported data

 DD MM YYYY  HH MM   D(Deg)  H(nT)   Z(nT)   I(Deg)   F(nT)

 30 03 2013  00 00  -21.0695 26009.6 -03422.6 -07.4965 26233.8
 30 03 2013  00 01  -21.0694 26009.7 -03422.7 -07.4966 26233.9
 30 03 2013  00 02  -21.0694 26010.2 -03422.9 -07.4969 26234.5
 30 03 2013  00 03  -21.0695 26010.8 -03423.2 -07.4973 26235.1
 30 03 2013  00 04  -21.0695 26010.9 -03423.2 -07.4973 26235.1
 30 03 2013  00 05  -21.0695 26010.5 -03422.9 -07.4968 26234.7
 30 03 2013  00 06  -21.0691 26010.7 -03422.9 -07.4967 26234.9
 30 03 2013  00 07  -21.0687 26011.4 -03423.1 -07.4971 26235.6
 30 03 2013  00 08  -21.0684 26011.6 -03423.2 -07.4973 26235.9
 30 03 2013  00 09  -21.0684 26011.6 -03423.2 -07.4972 26235.9
 30 03 2013  00 10  -21.0684 26011.7 -03423.2 -07.4972 26236.0
 30 03 2013  00 11  -21.0683 26011.7 -03423.2 -07.4971 26236.0
 30 03 2013  00 12  -21.0680 26011.6 -03423.1 -07.4969 26235.9
 30 03 2013  00 13  -21.0680 26011.0 -03422.7 -07.4963 26235.2
 30 03 2013  00 14  -21.0681 26010.5 -03422.5 -07.4959 26234.7
 30 03 2013  00 15  -21.0685 26010.0 -03422.2 -07.4955 26234.2
 30 03 2013  00 16  -21.0689 26009.8 -03422.1 -07.4953 26234.0
 30 03 2013  00 17  -21.0695 26009.6 -03422.0 -07.4952 26233.8
 30 03 2013  00 18  -21.0703 26009.2 -03421.9 -07.4950 26233.3
 30 03 2013  00 19  -21.0712 26008.8 -03421.7 -07.4947 26232.9
 30 03 2013  00 20  -21.0722 26008.7 -03421.6 -07.4946 26232.8
 30 03 2013  00 21  -21.0729 26008.4 -03421.5 -07.4945 26232.5
 30 03 2013  00 22  -21.0733 26008.0 -03421.3 -07.4940 26232.0
 30 03 2013  00 23  -21.0731 26007.6 -03421.1 -07.4937 26231.6
 30 03 2013  00 24  -21.0731 26007.0 -03420.8 -07.4932 26231.0
 30 03 2013  00 25  -21.0730 26007.1 -03420.8 -07.4932 26231.1
 30 03 2013  00 26  -21.0728 26008.0 -03421.3 -07.4940 26232.1
 30 03 2013  00 27  -21.0725 26008.8 -03421.8 -07.4949 26232.9
 30 03 2013  00 28  -21.0725 26009.0 -03422.0 -07.4953 26233.2
 30 03 2013  00 29  -21.0726 26009.3 -03422.1 -07.4954 26233.5
 30 03 2013  00 30  -21.0727 26009.7 -03422.3 -07.4958 26233.9
 30 03 2013  00 31  -21.0727 26009.8 -03422.4 -07.4959 26234.0
 30 03 2013  00 32  -21.0727 26009.9 -03422.3 -07.4958 26234.1
 30 03 2013  00 33  -21.0726 26009.7 -03422.2 -07.4955 26233.9
 30 03 2013  00 34  -21.0725 26009.6 -03422.0 -07.4952 26233.7
 30 03 2013  00 35  -21.0723 26009.7 -03422.1 -07.4953 26233.8
 30 03 2013  00 36  -21.0722 26009.7 -03422.1 -07.4953 26233.9
 30 03 2013  00 37  -21.0719 26009.9 -03422.1 -07.4954 26234.0
 30 03 2013  00 38  -21.0716 26009.8 -03422.1 -07.4953 26234.0
 30 03 2013  00 39  -21.0715 26009.8 -03422.1 -07.4953 26234.0
 30 03 2013  00 40  -21.0713 26009.8 -03422.1 -07.4952 26234.0
 30 03 2013  00 41  -21.0713 26009.8 -03422.1 -07.4952 26233.9
 30 03 2013  00 42  -21.0712 26009.7 -03422.0 -07.4951 26233.8
 30 03 2013  00 43  -21.0715 26009.4 -03421.9 -07.4949 26233.5
 30 03 2013  00 44  -21.0717 26009.1 -03421.7 -07.4947 26233.2
 30 03 2013  00 45  -21.0717 26008.9 -03421.6 -07.4944 26233.0
 30 03 2013  00 46  -21.0716 26008.9 -03421.6 -07.4944 26233.0
 30 03 2013  00 47  -21.0716 26009.0 -03421.6 -07.4945 26233.1
 30 03 2013  00 48  -21.0716 26008.8 -03421.6 -07.4945 26232.9
 30 03 2013  00 49  -21.0716 26008.6 -03421.5 -07.4944 26232.7
 30 03 2013  00 50  -21.0719 26008.2 -03421.3 -07.4941 26232.3
 30 03 2013  00 51  -21.0725 26007.6 -03421.1 -07.4937 26231.7
 30 03 2013  00 52  -21.0731 26007.3 -03420.9 -07.4935 26231.3
 30 03 2013  00 53  -21.0736 26007.1 -03420.9 -07.4935 26231.2
 30 03 2013  00 54  -21.0741 26007.0 -03420.8 -07.4934 26231.0
 30 03 2013  00 55  -21.0746 26006.5 -03420.7 -07.4931 26230.5
 30 03 2013  00 56  -21.0754 26006.2 -03420.5 -07.4929 26230.2
 30 03 2013  00 57  -21.0762 26006.0 -03420.4 -07.4928 26229.9
 30 03 2013  00 58  -21.0768 26005.7 -03420.3 -07.4926 26229.7
 30 03 2013  00 59  -21.0777 26005.5 -03420.3 -07.4926 26229.5
 30 03 2013  01 00  -21.0786 26005.4 -03420.2 -07.4925 26229.3
 30 03 2013  01 01  -21.0793 26005.2 -03420.2 -07.4924 26229.2
 30 03 2013  01 02  -21.0801 26004.9 -03420.0 -07.4923 26228.8
 30 03 2013  01 03  -21.0811 26004.6 -03419.9 -07.4920 26228.5
 30 03 2013  01 04  -21.0821 26004.3 -03419.8 -07.4918 26228.2
 30 03 2013  01 05  -21.0830 26004.0 -03419.7 -07.4917 26227.9
 30 03 2013  01 06  -21.0835 26003.9 -03419.6 -07.4916 26227.8
 30 03 2013  01 07  -21.0841 26003.7 -03419.5 -07.4915 26227.6
 30 03 2013  01 08  -21.0847 26003.4 -03419.4 -07.4913 26227.2
 30 03 2013  01 09  -21.0853 26003.1 -03419.2 -07.4910 26226.9
 30 03 2013  01 10  -21.0859 26002.6 -03419.0 -07.4907 26226.4
 30 03 2013  01 11  -21.0866 26002.0 -03418.7 -07.4903 26225.8
 30 03 2013  01 12  -21.0867 26001.4 -03418.4 -07.4898 26225.2
 30 03 2013  01 13  -21.0859 26001.7 -03418.5 -07.4899 26225.4
 30 03 2013  01 14  -21.0851 26001.9 -03418.7 -07.4903 26225.7
 30 03 2013  01 15  -21.0846 26002.2 -03419.0 -07.4908 26226.1
 30 03 2013  01 16  -21.0842 26002.6 -03419.3 -07.4913 26226.5
 30 03 2013  01 17  -21.0839 26003.2 -03419.7 -07.4920 26227.1
 30 03 2013  01 18  -21.0836 26003.7 -03420.1 -07.4926 26227.7
 30 03 2013  01 19  -21.0838 26004.2 -03420.4 -07.4931 26228.2
 30 03 2013  01 20  -21.0842 26004.6 -03420.6 -07.4936 26228.6
 30 03 2013  01 21  -21.0849 26005.1 -03420.9 -07.4940 26229.1
 30 03 2013  01 22  -21.0859 26005.7 -03421.2 -07.4946 26229.8
 30 03 2013  01 23  -21.0869 26006.7 -03421.7 -07.4953 26230.9
 30 03 2013  01 24  -21.0882 26007.5 -03422.1 -07.4959 26231.7
 30 03 2013  01 25  -21.0893 26007.9 -03422.2 -07.4960 26232.1
 30 03 2013  01 26  -21.0895 26008.9 -03422.4 -07.4963 26233.1
 30 03 2013  01 27  -21.0891 26009.7 -03422.6 -07.4964 26233.9
 30 03 2013  01 28  -21.0886 26010.4 -03422.8 -07.4967 26234.6
 30 03 2013  01 29  -21.0881 26011.1 -03423.0 -07.4968 26235.4
 30 03 2013  01 30  -21.0877 26012.2 -03423.4 -07.4974 26236.5
 30 03 2013  01 31  -21.0869 26013.0 -03423.6 -07.4976 26237.3
 30 03 2013  01 32  -21.0857 26014.5 -03424.1 -07.4983 26238.9
 30 03 2013  01 33  -21.0843 26017.3 -03425.3 -07.5000 26241.8
 30 03 2013  01 34  -21.0844 26018.7 -03426.0 -07.5012 26243.2
 30 03 2013  01 35  -21.0844 26020.1 -03426.5 -07.5019 26244.8
 30 03 2013  01 36  -21.0843 26020.8 -03426.8 -07.5022 26245.5
 30 03 2013  01 37  -21.0833 26021.2 -03426.5 -07.5017 26245.9
 30 03 2013  01 38  -21.0823 26022.4 -03426.8 -07.5020 26247.1
 30 03 2013  01 39  -21.0815 26023.1 -03427.0 -07.5020 26247.8
 30 03 2013  01 40  -21.0798 26024.3 -03427.3 -07.5024 26249.0
 30 03 2013  01 41  -21.0783 26025.9 -03427.8 -07.5031 26250.6
 30 03 2013  01 42  -21.0766 26026.7 -03428.1 -07.5035 26251.5
 30 03 2013  01 43  -21.0746 26027.9 -03428.5 -07.5039 26252.8
 30 03 2013  01 44  -21.0730 26029.0 -03428.8 -07.5045 26253.9
 30 03 2013  01 45  -21.0718 26030.4 -03429.4 -07.5052 26255.3
 30 03 2013  01 46  -21.0707 26031.5 -03429.8 -07.5058 26256.4
 30 03 2013  01 47  -21.0702 26032.6 -03430.2 -07.5064 26257.6
 30 03 2013  01 48  -21.0703 26033.9 -03430.7 -07.5071 26259.0
 30 03 2013  01 49  -21.0698 26034.9 -03431.0 -07.5074 26260.0
 30 03 2013  01 50  -21.0692 26035.7 -03431.2 -07.5076 26260.8
 30 03 2013  01 51  -21.0687 26036.0 -03431.0 -07.5072 26261.1
 30 03 2013  01 52  -21.0682 26036.4 -03430.9 -07.5068 26261.5
 30 03 2013  01 53  -21.0682 26036.5 -03430.7 -07.5064 26261.5
 30 03 2013  01 54  -21.0675 26036.9 -03430.6 -07.5061 26261.9
 30 03 2013  01 55  -21.0667 26037.7 -03430.8 -07.5061 26262.7
 30 03 2013  01 56  -21.0659 26038.0 -03430.7 -07.5060 26263.1
 30 03 2013  01 57  -21.0650 26038.6 -03430.8 -07.5060 26263.7
 30 03 2013  01 58  -21.0646 26038.7 -03430.7 -07.5057 26263.7
 30 03 2013  01 59  -21.0645 26038.7 -03430.5 -07.5053 26263.7
 30 03 2013  02 00  -21.0642 26038.8 -03430.4 -07.5050 26263.8
 30 03 2013  02 01  -21.0635 26039.0 -03430.3 -07.5047 26263.9
 30 03 2013  02 02  -21.0624 26039.2 -03430.3 -07.5046 26264.2
 30 03 2013  02 03  -21.0614 26039.3 -03430.1 -07.5043 26264.2
 30 03 2013  02 04  -21.0606 26039.2 -03430.0 -07.5040 26264.2
 30 03 2013  02 05  -21.0602 26038.7 -03429.7 -07.5035 26263.6
 30 03 2013  02 06  -21.0601 26038.1 -03429.2 -07.5027 26262.9
 30 03 2013  02 07  -21.0598 26037.7 -03429.0 -07.5022 26262.5
 30 03 2013  02 08  -21.0594 26037.2 -03428.7 -07.5018 26262.0
 30 03 2013  02 09  -21.0592 26036.7 -03428.4 -07.5013 26261.4
 30 03 2013  02 10  -21.0587 26036.2 -03428.2 -07.5010 26261.0
 30 03 2013  02 11  -21.0580 26035.8 -03428.0 -07.5006 26260.5
 30 03 2013  02 12  -21.0574 26035.4 -03427.7 -07.5002 26260.1
 30 03 2013  02 13  -21.0571 26034.9 -03427.5 -07.4999 26259.5
 30 03 2013  02 14  -21.0572 26034.4 -03427.4 -07.4997 26259.0
 30 03 2013  02 15  -21.0576 26033.9 -03427.2 -07.4995 26258.5
 30 03 2013  02 16  -21.0579 26033.2 -03427.0 -07.4992 26257.8
 30 03 2013  02 17  -21.0581 26032.9 -03426.8 -07.4990 26257.4
 30 03 2013  02 18  -21.0587 26032.1 -03426.6 -07.4987 26256.7
 30 03 2013  02 19  -21.0585 26031.5 -03426.3 -07.4982 26256.0
 30 03 2013  02 20  -21.0581 26031.0 -03426.0 -07.4978 26255.4
 30 03 2013  02 21  -21.0577 26030.5 -03425.9 -07.4976 26255.0
 30 03 2013  02 22  -21.0572 26030.2 -03425.7 -07.4974 26254.6
 30 03 2013  02 23  -21.0565 26029.8 -03425.7 -07.4973 26254.3
 30 03 2013  02 24  -21.0559 26029.4 -03425.6 -07.4972 26253.8
 30 03 2013  02 25  -21.0555 26028.9 -03425.4 -07.4971 26253.3
 30 03 2013  02 26  -21.0552 26028.3 -03425.2 -07.4968 26252.7
 30 03 2013  02 27  -21.0550 26027.6 -03425.0 -07.4965 26252.0
 30 03 2013  02 28  -21.0547 26027.0 -03424.8 -07.4962 26251.3
 30 03 2013  02 29  -21.0544 26026.5 -03424.7 -07.4961 26250.9
 30 03 2013  02 30  -21.0541 26025.8 -03424.5 -07.4960 26250.2
 30 03 2013  02 31  -21.0542 26025.0 -03424.2 -07.4956 26249.3
 30 03 2013  02 32  -21.0547 26024.1 -03423.9 -07.4952 26248.4
 30 03 2013  02 33  -21.0551 26022.9 -03423.5 -07.4946 26247.2
 30 03 2013  02 34  -21.0552 26021.9 -03423.1 -07.4940 26246.1
 30 03 2013  02 35  -21.0551 26021.3 -03422.9 -07.4938 26245.5
 30 03 2013  02 36  -21.0554 26020.9 -03422.9 -07.4938 26245.1
 30 03 2013  02 37  -21.0558 26020.6 -03422.9 -07.4940 26244.8
 30 03 2013  02 38  -21.0561 26020.2 -03422.9 -07.4940 26244.4
 30 03 2013  02 39  -21.0565 26020.0 -03422.9 -07.4942 26244.2
 30 03 2013  02 40  -21.0574 26019.6 -03422.9 -07.4943 26243.8
 30 03 2013  02 41  -21.0583 26019.2 -03422.8 -07.4942 26243.4
 30 03 2013  02 42  -21.0591 26018.8 -03422.8 -07.4942 26243.0
 30 03 2013  02 43  -21.0601 26018.5 -03422.7 -07.4941 26242.6
 30 03 2013  02 44  -21.0609 26018.2 -03422.7 -07.4941 26242.4
 30 03 2013  02 45  -21.0617 26018.0 -03422.6 -07.4940 26242.2
 30 03 2013  02 46  -21.0628 26017.8 -03422.6 -07.4940 26242.0
 30 03 2013  02 47  -21.0637 26017.5 -03422.5 -07.4939 26241.7
 30 03 2013  02 48  -21.0643 26017.2 -03422.3 -07.4937 26241.3
 30 03 2013  02 49  -21.0648 26016.8 -03422.2 -07.4936 26240.9
 30 03 2013  02 50  -21.0655 26016.4 -03422.1 -07.4934 26240.5
 30 03 2013  02 51  -21.0666 26016.4 -03422.1 -07.4934 26240.5
 30 03 2013  02 52  -21.0680 26016.1 -03422.0 -07.4934 26240.2
 30 03 2013  02 53  -21.0690 26015.8 -03421.9 -07.4933 26239.9
 30 03 2013  02 54  -21.0699 26015.4 -03421.7 -07.4929 26239.5
 30 03 2013  02 55  -21.0707 26014.9 -03421.5 -07.4926 26238.9
 30 03 2013  02 56  -21.0714 26014.3 -03421.2 -07.4921 26238.3
 30 03 2013  02 57  -21.0718 26013.8 -03421.0 -07.4918 26237.8
 30 03 2013  02 58  -21.0720 26013.4 -03420.8 -07.4915 26237.4
 30 03 2013  02 59  -21.0720 26012.9 -03420.5 -07.4910 26236.8
 30 03 2013  03 00  -21.0723 26012.6 -03420.4 -07.4909 26236.6
 30 03 2013  03 01  -21.0724 26012.5 -03420.5 -07.4910 26236.4
 30 03 2013  03 02  -21.0726 26012.4 -03420.5 -07.4911 26236.3
 30 03 2013  03 03  -21.0728 26012.3 -03420.5 -07.4912 26236.2
 30 03 2013  03 04  -21.0729 26012.2 -03420.5 -07.4912 26236.1
 30 03 2013  03 05  -21.0731 26012.0 -03420.5 -07.4913 26236.0
 30 03 2013  03 06  -21.0731 26011.9 -03420.5 -07.4912 26235.8
 30 03 2013  03 07  -21.0731 26011.8 -03420.5 -07.4912 26235.7
 30 03 2013  03 08  -21.0732 26011.6 -03420.5 -07.4913 26235.5
 30 03 2013  03 09  -21.0734 26011.6 -03420.5 -07.4913 26235.5
 30 03 2013  03 10  -21.0733 26011.4 -03420.4 -07.4913 26235.3
 30 03 2013  03 11  -21.0732 26011.2 -03420.4 -07.4912 26235.1
 30 03 2013  03 12  -21.0732 26011.0 -03420.3 -07.4912 26234.9
 30 03 2013  03 13  -21.0730 26010.8 -03420.3 -07.4912 26234.7
 30 03 2013  03 14  -21.0725 26010.6 -03420.3 -07.4911 26234.5
 30 03 2013  03 15  -21.0720 26010.3 -03420.2 -07.4910 26234.2
 30 03 2013  03 16  -21.0719 26010.2 -03420.2 -07.4912 26234.1
 30 03 2013  03 17  -21.0716 26010.1 -03420.2 -07.4912 26234.0
 30 03 2013  03 18  -21.0712 26010.0 -03420.3 -07.4914 26234.0
 30 03 2013  03 19  -21.0708 26010.2 -03420.5 -07.4917 26234.2
 30 03 2013  03 20  -21.0705 26010.5 -03420.7 -07.4922 26234.5
 30 03 2013  03 21  -21.0709 26010.7 -03421.0 -07.4926 26234.7
 30 03 2013  03 22  -21.0711 26010.9 -03421.2 -07.4929 26235.0
 30 03 2013  03 23  -21.0713 26011.1 -03421.3 -07.4932 26235.1
 30 03 2013  03 24  -21.0716 26011.0 -03421.3 -07.4932 26235.0
 30 03 2013  03 25  -21.0717 26010.9 -03421.2 -07.4931 26234.9
 30 03 2013  03 26  -21.0720 26010.7 -03421.2 -07.4930 26234.8
 30 03 2013  03 27  -21.0727 26010.4 -03421.0 -07.4928 26234.4
 30 03 2013  03 28  -21.0734 26010.0 -03420.8 -07.4925 26234.0
 30 03 2013  03 29  -21.0742 26009.4 -03420.6 -07.4922 26233.3
 30 03 2013  03 30  -21.0743 26008.5 -03420.2 -07.4915 26232.4
 30 03 2013  03 31  -21.0742 26007.9 -03419.8 -07.4909 26231.8
 30 03 2013  03 32  -21.0735 26007.8 -03419.8 -07.4909 26231.7
 30 03 2013  03 33  -21.0732 26007.8 -03419.9 -07.4910 26231.6
 30 03 2013  03 34  -21.0730 26007.7 -03420.0 -07.4913 26231.6
 30 03 2013  03 35  -21.0730 26007.7 -03420.1 -07.4915 26231.6
 30 03 2013  03 36  -21.0731 26007.8 -03420.3 -07.4919 26231.8
 30 03 2013  03 37  -21.0730 26007.9 -03420.5 -07.4923 26231.9
 30 03 2013  03 38  -21.0726 26008.7 -03420.9 -07.4929 26232.7
 30 03 2013  03 39  -21.0724 26009.6 -03421.5 -07.4941 26233.7
 30 03 2013  03 40  -21.0724 26010.6 -03422.1 -07.4951 26234.7
 30 03 2013  03 41  -21.0729 26011.6 -03422.7 -07.4961 26235.8
 30 03 2013  03 42  -21.0736 26012.1 -03423.0 -07.4967 26236.4
 30 03 2013  03 43  -21.0746 26012.3 -03423.1 -07.4968 26236.6
 30 03 2013  03 44  -21.0761 26012.3 -03423.1 -07.4968 26236.6
 30 03 2013  03 45  -21.0778 26012.3 -03423.1 -07.4968 26236.6
 30 03 2013  03 46  -21.0795 26012.3 -03423.0 -07.4966 26236.6
 30 03 2013  03 47  -21.0810 26012.2 -03422.9 -07.4964 26236.5
 30 03 2013  03 48  -21.0822 26012.1 -03422.8 -07.4961 26236.4
 30 03 2013  03 49  -21.0831 26012.2 -03422.7 -07.4959 26236.4
 30 03 2013  03 50  -21.0841 26012.1 -03422.5 -07.4955 26236.2
 30 03 2013  03 51  -21.0853 26012.0 -03422.3 -07.4952 26236.1
 30 03 2013  03 52  -21.0862 26012.3 -03422.4 -07.4952 26236.4
 30 03 2013  03 53  -21.0871 26012.8 -03422.5 -07.4954 26237.0
 30 03 2013  03 54  -21.0882 26013.1 -03422.6 -07.4955 26237.3
 30 03 2013  03 55  -21.0890 26013.1 -03422.5 -07.4952 26237.3
 30 03 2013  03 56  -21.0894 26013.0 -03422.3 -07.4948 26237.2
 30 03 2013  03 57  -21.0899 26012.9 -03422.1 -07.4943 26237.1
 30 03 2013  03 58  -21.0905 26012.9 -03421.9 -07.4941 26237.0
 30 03 2013  03 59  -21.0909 26012.8 -03421.8 -07.4938 26236.9
 30 03 2013  04 00  -21.0916 26012.6 -03421.6 -07.4934 26236.6
 30 03 2013  04 01  -21.0924 26012.4 -03421.4 -07.4931 26236.4
 30 03 2013  04 02  -21.0931 26012.0 -03421.2 -07.4927 26236.1
 30 03 2013  04 03  -21.0937 26011.4 -03420.8 -07.4921 26235.4
 30 03 2013  04 04  -21.0950 26010.5 -03420.3 -07.4913 26234.4
 30 03 2013  04 05  -21.0957 26009.9 -03420.0 -07.4907 26233.8
 30 03 2013  04 06  -21.0963 26009.2 -03419.6 -07.4901 26233.1
 30 03 2013  04 07  -21.0970 26008.8 -03419.4 -07.4898 26232.6
 30 03 2013  04 08  -21.0969 26009.0 -03419.4 -07.4897 26232.8
 30 03 2013  04 09  -21.0964 26009.5 -03419.5 -07.4898 26233.3
 30 03 2013  04 10  -21.0959 26010.7 -03420.1 -07.4907 26234.6
 30 03 2013  04 11  -21.0954 26012.5 -03420.9 -07.4919 26236.5
 30 03 2013  04 12  -21.0948 26014.8 -03421.9 -07.4934 26238.8
 30 03 2013  04 13  -21.0955 26016.0 -03422.6 -07.4946 26240.2
 30 03 2013  04 14  -21.0956 26017.4 -03423.1 -07.4952 26241.6
 30 03 2013  04 15  -21.0953 26019.1 -03423.7 -07.4961 26243.4
 30 03 2013  04 16  -21.0950 26020.2 -03424.0 -07.4965 26244.5
 30 03 2013  04 17  -21.0951 26020.9 -03424.2 -07.4966 26245.3
 30 03 2013  04 18  -21.0947 26022.1 -03424.5 -07.4970 26246.5
 30 03 2013  04 19  -21.0935 26023.8 -03425.0 -07.4976 26248.2
 30 03 2013  04 20  -21.0915 26027.0 -03426.2 -07.4993 26251.5
 30 03 2013  04 21  -21.0910 26029.0 -03427.1 -07.5007 26253.7
 30 03 2013  04 22  -21.0901 26030.8 -03427.8 -07.5016 26255.5
 30 03 2013  04 23  -21.0889 26031.4 -03427.8 -07.5014 26256.1
 30 03 2013  04 24  -21.0882 26031.7 -03427.6 -07.5009 26256.4
 30 03 2013  04 25  -21.0875 26032.5 -03427.6 -07.5007 26257.2
 30 03 2013  04 26  -21.0865 26033.3 -03427.7 -07.5007 26258.0
 30 03 2013  04 27  -21.0861 26033.2 -03427.4 -07.5000 26257.9
 30 03 2013  04 28  -21.0855 26033.8 -03427.3 -07.4998 26258.4
 30 03 2013  04 29  -21.0846 26035.1 -03427.7 -07.5001 26259.7
 30 03 2013  04 30  -21.0835 26036.0 -03427.9 -07.5004 26260.7
 30 03 2013  04 31  -21.0825 26036.7 -03427.9 -07.5003 26261.3
 30 03 2013  04 32  -21.0818 26037.2 -03428.0 -07.5004 26261.9
 30 03 2013  04 33  -21.0808 26037.6 -03428.0 -07.5001 26262.3
 30 03 2013  04 34  -21.0797 26037.9 -03427.9 -07.4998 26262.5
 30 03 2013  04 35  -21.0786 26037.9 -03427.7 -07.4993 26262.6
 30 03 2013  04 36  -21.0780 26038.2 -03427.6 -07.4991 26262.8
 30 03 2013  04 37  -21.0781 26038.5 -03427.6 -07.4990 26263.1
 30 03 2013  04 38  -21.0776 26038.6 -03427.5 -07.4988 26263.2
 30 03 2013  04 39  -21.0772 26038.5 -03427.3 -07.4984 26263.1
 30 03 2013  04 40  -21.0768 26038.3 -03427.0 -07.4978 26262.9
 30 03 2013  04 41  -21.0768 26038.0 -03426.8 -07.4974 26262.6
 30 03 2013  04 42  -21.0769 26038.1 -03426.6 -07.4971 26262.6
 30 03 2013  04 43  -21.0767 26038.1 -03426.6 -07.4969 26262.6
 30 03 2013  04 44  -21.0759 26037.8 -03426.3 -07.4964 26262.3
 30 03 2013  04 45  -21.0743 26037.4 -03425.9 -07.4957 26261.8
 30 03 2013  04 46  -21.0733 26037.0 -03425.6 -07.4952 26261.4
 30 03 2013  04 47  -21.0725 26036.5 -03425.3 -07.4947 26260.9
 30 03 2013  04 48  -21.0717 26035.9 -03425.0 -07.4942 26260.2
 30 03 2013  04 49  -21.0707 26035.6 -03424.8 -07.4938 26259.9
 30 03 2013  04 50  -21.0699 26035.2 -03424.7 -07.4937 26259.5
 30 03 2013  04 51  -21.0691 26034.8 -03424.5 -07.4934 26259.1
 30 03 2013  04 52  -21.0681 26034.5 -03424.4 -07.4932 26258.7
 30 03 2013  04 53  -21.0669 26034.3 -03424.3 -07.4931 26258.5
 30 03 2013  04 54  -21.0662 26034.3 -03424.4 -07.4934 26258.6
 30 03 2013  04 55  -21.0662 26034.1 -03424.4 -07.4935 26258.3
 30 03 2013  04 56  -21.0664 26033.7 -03424.4 -07.4935 26257.9
 30 03 2013  04 57  -21.0668 26033.4 -03424.3 -07.4934 26257.6
 30 03 2013  04 58  -21.0667 26033.4 -03424.3 -07.4935 26257.6
 30 03 2013  04 59  -21.0664 26033.3 -03424.4 -07.4936 26257.6
 30 03 2013  05 00  -21.0659 26033.0 -03424.3 -07.4935 26257.3
 30 03 2013  05 01  -21.0658 26032.0 -03423.8 -07.4928 26256.2
 30 03 2013  05 02  -21.0659 26031.3 -03423.5 -07.4922 26255.4
 30 03 2013  05 03  -21.0656 26030.8 -03423.2 -07.4918 26254.9
 30 03 2013  05 04  -21.0650 26030.7 -03423.3 -07.4919 26254.9
 30 03 2013  05 05  -21.0646 26030.7 -03423.4 -07.4921 26254.8
 30 03 2013  05 06  -21.0640 26030.3 -03423.3 -07.4920 26254.5
 30 03 2013  05 07  -21.0632 26030.0 -03423.2 -07.4920 26254.2
 30 03 2013  05 08  -21.0627 26029.7 -03423.2 -07.4921 26253.9
 30 03 2013  05 09  -21.0623 26029.3 -03423.1 -07.4920 26253.4
 30 03 2013  05 10  -21.0616 26028.9 -03423.0 -07.4919 26253.0
 30 03 2013  05 11  -21.0609 26028.3 -03422.9 -07.4918 26252.4
 30 03 2013  05 12  -21.0606 26027.5 -03422.7 -07.4915 26251.6
 30 03 2013  05 13  -21.0605 26026.6 -03422.3 -07.4910 26250.6
 30 03 2013  05 14  -21.0605 26025.8 -03422.1 -07.4907 26249.8
 30 03 2013  05 15  -21.0603 26025.3 -03421.9 -07.4905 26249.3
 30 03 2013  05 16  -21.0601 26024.9 -03421.9 -07.4906 26248.9
 30 03 2013  05 17  -21.0594 26024.6 -03421.9 -07.4907 26248.6
 30 03 2013  05 18  -21.0584 26024.4 -03421.9 -07.4908 26248.4
 30 03 2013  05 19  -21.0570 26024.3 -03422.0 -07.4910 26248.3
 30 03 2013  05 20  -21.0560 26024.1 -03422.1 -07.4912 26248.1
 30 03 2013  05 21  -21.0549 26023.9 -03422.2 -07.4915 26248.0
 30 03 2013  05 22  -21.0545 26023.8 -03422.3 -07.4918 26247.9
 30 03 2013  05 23  -21.0543 26023.7 -03422.5 -07.4922 26247.8
 30 03 2013  05 24  -21.0543 26023.6 -03422.6 -07.4925 26247.7
 30 03 2013  05 25  -21.0540 26023.3 -03422.6 -07.4926 26247.4
 30 03 2013  05 26  -21.0540 26023.0 -03422.6 -07.4927 26247.1
 30 03 2013  05 27  -21.0540 26022.8 -03422.7 -07.4928 26246.9
 30 03 2013  05 28  -21.0540 26022.6 -03422.7 -07.4930 26246.7
 30 03 2013  05 29  -21.0540 26022.5 -03422.8 -07.4932 26246.6
 30 03 2013  05 30  -21.0538 26022.5 -03422.9 -07.4934 26246.6
 30 03 2013  05 31  -21.0536 26022.4 -03423.0 -07.4937 26246.6
 30 03 2013  05 32  -21.0530 26022.4 -03423.1 -07.4938 26246.6
 30 03 2013  05 33  -21.0525 26022.4 -03423.2 -07.4940 26246.6
 30 03 2013  05 34  -21.0521 26022.3 -03423.2 -07.4941 26246.5
 30 03 2013  05 35  -21.0517 26022.1 -03423.3 -07.4943 26246.3
 30 03 2013  05 36  -21.0515 26022.0 -03423.3 -07.4945 26246.2
 30 03 2013  05 37  -21.0514 26021.8 -03423.3 -07.4945 26246.0
 30 03 2013  05 38  -21.0516 26021.7 -03423.4 -07.4947 26246.0
 30 03 2013  05 39  -21.0517 26021.7 -03423.5 -07.4949 26245.9
 30 03 2013  05 40  -21.0518 26021.5 -03423.4 -07.4949 26245.7
 30 03 2013  05 41  -21.0520 26021.2 -03423.4 -07.4948 26245.4
 30 03 2013  05 42  -21.0523 26020.9 -03423.3 -07.4947 26245.1
 30 03 2013  05 43  -21.0523 26020.7 -03423.3 -07.4947 26244.9
 30 03 2013  05 44  -21.0523 26020.4 -03423.2 -07.4947 26244.6
 30 03 2013  05 45  -21.0525 26020.2 -03423.2 -07.4947 26244.4
 30 03 2013  05 46  -21.0527 26019.9 -03423.2 -07.4947 26244.1
 30 03 2013  05 47  -21.0534 26019.7 -03423.2 -07.4948 26244.0
 30 03 2013  05 48  -21.0540 26019.7 -03423.2 -07.4950 26243.9
 30 03 2013  05 49  -21.0545 26019.7 -03423.3 -07.4951 26243.9
 30 03 2013  05 50  -21.0553 26019.3 -03423.2 -07.4951 26243.5
 30 03 2013  05 51  -21.0559 26019.0 -03423.1 -07.4949 26243.2
 30 03 2013  05 52  -21.0560 26019.0 -03423.1 -07.4950 26243.2
 30 03 2013  05 53  -21.0558 26019.1 -03423.2 -07.4950 26243.3
 30 03 2013  05 54  -21.0556 26019.1 -03423.2 -07.4951 26243.3
 30 03 2013  05 55  -21.0553 26019.3 -03423.4 -07.4954 26243.5
 30 03 2013  05 56  -21.0554 26019.2 -03423.5 -07.4956 26243.5
 30 03 2013  05 57  -21.0551 26019.0 -03423.4 -07.4955 26243.3
 30 03 2013  05 58  -21.0548 26018.8 -03423.3 -07.4954 26243.1
 30 03 2013  05 59  -21.0549 26018.6 -03423.3 -07.4954 26242.8
 30 03 2013  06 00  -21.0550 26018.3 -03423.2 -07.4954 26242.6
 30 03 2013  06 01  -21.0553 26018.1 -03423.2 -07.4953 26242.3
 30 03 2013  06 02  -21.0557 26017.9 -03423.2 -07.4954 26242.1
 30 03 2013  06 03  -21.0563 26017.8 -03423.2 -07.4955 26242.0
 30 03 2013  06 04  -21.0572 26017.8 -03423.3 -07.4956 26242.0
 30 03 2013  06 05  -21.0580 26017.8 -03423.3 -07.4957 26242.0
 30 03 2013  06 06  -21.0584 26017.7 -03423.3 -07.4958 26242.0
 30 03 2013  06 07  -21.0587 26017.8 -03423.4 -07.4958 26242.0
 30 03 2013  06 08  -21.0587 26018.3 -03423.6 -07.4962 26242.5
 30 03 2013  06 09  -21.0585 26019.1 -03424.0 -07.4968 26243.4
 30 03 2013  06 10  -21.0583 26019.5 -03424.2 -07.4972 26243.8
 30 03 2013  06 11  -21.0575 26019.4 -03424.2 -07.4971 26243.7
 30 03 2013  06 12  -21.0565 26018.8 -03423.8 -07.4965 26243.1
 30 03 2013  06 13  -21.0556 26018.0 -03423.4 -07.4958 26242.3
 30 03 2013  06 14  -21.0549 26017.7 -03423.2 -07.4956 26241.9
 30 03 2013  06 15  -21.0549 26017.6 -03423.3 -07.4957 26241.9
 30 03 2013  06 16  -21.0552 26017.8 -03423.5 -07.4961 26242.1
 30 03 2013  06 17  -21.0555 26018.0 -03423.8 -07.4966 26242.3
 30 03 2013  06 18  -21.0557 26018.0 -03423.9 -07.4969 26242.3
 30 03 2013  06 19  -21.0559 26017.9 -03423.9 -07.4969 26242.3
 30 03 2013  06 20  -21.0562 26017.7 -03423.9 -07.4969 26242.1
 30 03 2013  06 21  -21.0564 26017.6 -03423.8 -07.4968 26241.9
 30 03 2013  06 22  -21.0564 26017.6 -03423.9 -07.4969 26241.9
 30 03 2013  06 23  -21.0565 26017.6 -03423.9 -07.4970 26241.9
 30 03 2013  06 24  -21.0567 26017.6 -03423.9 -07.4970 26241.9
 30 03 2013  06 25  -21.0567 26017.5 -03423.9 -07.4971 26241.8
 30 03 2013  06 26  -21.0568 26017.4 -03423.9 -07.4970 26241.8
 30 03 2013  06 27  -21.0571 26017.5 -03424.0 -07.4972 26241.8
 30 03 2013  06 28  -21.0573 26017.6 -03424.1 -07.4973 26242.0
 30 03 2013  06 29  -21.0576 26017.7 -03424.1 -07.4974 26242.0
 30 03 2013  06 30  -21.0578 26017.8 -03424.2 -07.4976 26242.1
 30 03 2013  06 31  -21.0579 26017.7 -03424.2 -07.4976 26242.1
 30 03 2013  06 32  -21.0583 26017.6 -03424.2 -07.4975 26242.0
 30 03 2013  06 33  -21.0586 26017.5 -03424.1 -07.4975 26241.9
 30 03 2013  06 34  -21.0589 26017.5 -03424.1 -07.4975 26241.8
 30 03 2013  06 35  -21.0590 26017.4 -03424.1 -07.4975 26241.8
 30 03 2013  06 36  -21.0590 26017.4 -03424.1 -07.4975 26241.8
 30 03 2013  06 37  -21.0591 26017.3 -03424.0 -07.4974 26241.6
 30 03 2013  06 38  -21.0593 26017.0 -03423.9 -07.4972 26241.4
 30 03 2013  06 39  -21.0592 26017.0 -03423.9 -07.4972 26241.4
 30 03 2013  06 40  -21.0594 26017.0 -03423.9 -07.4972 26241.3
 30 03 2013  06 41  -21.0595 26017.0 -03423.9 -07.4973 26241.3
 30 03 2013  06 42  -21.0595 26017.2 -03424.1 -07.4974 26241.6
 30 03 2013  06 43  -21.0592 26017.6 -03424.3 -07.4978 26242.0
 30 03 2013  06 44  -21.0591 26017.9 -03424.5 -07.4981 26242.3
 30 03 2013  06 45  -21.0589 26018.1 -03424.6 -07.4984 26242.5
 30 03 2013  06 46  -21.0588 26018.2 -03424.6 -07.4984 26242.6
 30 03 2013  06 47  -21.0587 26018.4 -03424.7 -07.4986 26242.8
 30 03 2013  06 48  -21.0586 26018.4 -03424.7 -07.4985 26242.8
 30 03 2013  06 49  -21.0585 26018.3 -03424.6 -07.4984 26242.7
 30 03 2013  06 50  -21.0583 26018.1 -03424.6 -07.4984 26242.6
 30 03 2013  06 51  -21.0583 26018.1 -03424.5 -07.4982 26242.5
 30 03 2013  06 52  -21.0581 26018.2 -03424.6 -07.4983 26242.6
 30 03 2013  06 53  -21.0581 26018.3 -03424.7 -07.4985 26242.7
 30 03 2013  06 54  -21.0581 26018.3 -03424.7 -07.4986 26242.8
 30 03 2013  06 55  -21.0579 26018.2 -03424.7 -07.4985 26242.7
 30 03 2013  06 56  -21.0577 26018.1 -03424.6 -07.4984 26242.5
 30 03 2013  06 57  -21.0576 26018.0 -03424.5 -07.4982 26242.4
 30 03 2013  06 58  -21.0575 26018.1 -03424.6 -07.4983 26242.5
 30 03 2013  06 59  -21.0574 26018.1 -03424.6 -07.4984 26242.5
 30 03 2013  07 00  -21.0571 26018.3 -03424.7 -07.4986 26242.7
 30 03 2013  07 01  -21.0569 26018.5 -03424.9 -07.4988 26242.9
 30 03 2013  07 02  -21.0569 26018.7 -03425.0 -07.4990 26243.2
 30 03 2013  07 03  -21.0571 26019.0 -03425.2 -07.4993 26243.4
 30 03 2013  07 04  -21.0576 26019.3 -03425.3 -07.4996 26243.8
 30 03 2013  07 05  -21.0579 26019.6 -03425.5 -07.4999 26244.1
 30 03 2013  07 06  -21.0583 26019.9 -03425.6 -07.5001 26244.4
 30 03 2013  07 07  -21.0587 26020.0 -03425.7 -07.5001 26244.6
 30 03 2013  07 08  -21.0588 26020.0 -03425.6 -07.5000 26244.5
 30 03 2013  07 09  -21.0586 26020.0 -03425.5 -07.4998 26244.5
 30 03 2013  07 10  -21.0585 26019.9 -03425.4 -07.4996 26244.4
 30 03 2013  07 11  -21.0585 26019.9 -03425.3 -07.4995 26244.4
 30 03 2013  07 12  -21.0584 26019.8 -03425.2 -07.4992 26244.3
 30 03 2013  07 13  -21.0581 26019.7 -03425.1 -07.4991 26244.2
 30 03 2013  07 14  -21.0578 26019.7 -03425.1 -07.4990 26244.1
 30 03 2013  07 15  -21.0575 26019.6 -03425.0 -07.4989 26244.0
 30 03 2013  07 16  -21.0572 26019.7 -03425.1 -07.4990 26244.2
 30 03 2013  07 17  -21.0571 26019.9 -03425.2 -07.4991 26244.4
 30 03 2013  07 18  -21.0568 26020.0 -03425.3 -07.4993 26244.5
 30 03 2013  07 19  -21.0565 26020.0 -03425.2 -07.4992 26244.5
 30 03 2013  07 20  -21.0566 26020.1 -03425.3 -07.4993 26244.5
 30 03 2013  07 21  -21.0565 26020.2 -03425.3 -07.4993 26244.6
 30 03 2013  07 22  -21.0563 26020.3 -03425.3 -07.4994 26244.8
 30 03 2013  07 23  -21.0563 26020.5 -03425.4 -07.4995 26245.0
 30 03 2013  07 24  -21.0564 26020.7 -03425.6 -07.4998 26245.2
 30 03 2013  07 25  -21.0566 26020.6 -03425.5 -07.4997 26245.1
 30 03 2013  07 26  -21.0563 26020.4 -03425.4 -07.4995 26244.9
 30 03 2013  07 27  -21.0564 26020.0 -03425.2 -07.4991 26244.5
 30 03 2013  07 28  -21.0563 26019.9 -03425.1 -07.4989 26244.3
 30 03 2013  07 29  -21.0562 26019.8 -03425.1 -07.4988 26244.3
 30 03 2013  07 30  -21.0560 26019.8 -03425.1 -07.4989 26244.3
 30 03 2013  07 31  -21.0559 26019.9 -03425.1 -07.4990 26244.3
 30 03 2013  07 32  -21.0558 26020.0 -03425.2 -07.4991 26244.5
 30 03 2013  07 33  -21.0559 26020.1 -03425.3 -07.4992 26244.6
 30 03 2013  07 34  -21.0562 26020.0 -03425.2 -07.4992 26244.5
 30 03 2013  07 35  -21.0562 26020.0 -03425.2 -07.4992 26244.5
 30 03 2013  07 36  -21.0562 26020.2 -03425.3 -07.4993 26244.6
 30 03 2013  07 37  -21.0565 26020.3 -03425.4 -07.4995 26244.8
 30 03 2013  07 38  -21.0567 26020.3 -03425.4 -07.4995 26244.8
 30 03 2013  07 39  -21.0567 26020.2 -03425.3 -07.4994 26244.7
 30 03 2013  07 40  -21.0566 26020.2 -03425.3 -07.4993 26244.7
 30 03 2013  07 41  -21.0564 26020.2 -03425.3 -07.4993 26244.7
 30 03 2013  07 42  -21.0566 26019.9 -03425.2 -07.4991 26244.3
 30 03 2013  07 43  -21.0566 26019.7 -03425.0 -07.4988 26244.1
 30 03 2013  07 44  -21.0568 26019.3 -03424.9 -07.4986 26243.8
 30 03 2013  07 45  -21.0567 26019.1 -03424.7 -07.4984 26243.5
 30 03 2013  07 46  -21.0567 26019.1 -03424.7 -07.4983 26243.5
 30 03 2013  07 47  -21.0568 26019.2 -03424.8 -07.4985 26243.6
 30 03 2013  07 48  -21.0570 26019.3 -03424.8 -07.4986 26243.7
 30 03 2013  07 49  -21.0570 26019.2 -03424.8 -07.4986 26243.7
 30 03 2013  07 50  -21.0571 26019.1 -03424.8 -07.4985 26243.5
 30 03 2013  07 51  -21.0571 26019.1 -03424.7 -07.4984 26243.5
 30 03 2013  07 52  -21.0570 26019.2 -03424.8 -07.4985 26243.6
 30 03 2013  07 53  -21.0571 26019.4 -03424.9 -07.4987 26243.8
 30 03 2013  07 54  -21.0570 26019.5 -03425.0 -07.4988 26243.9
 30 03 2013  07 55  -21.0568 26019.6 -03425.1 -07.4990 26244.1
 30 03 2013  07 56  -21.0567 26019.6 -03425.1 -07.4989 26244.1
 30 03 2013  07 57  -21.0563 26019.8 -03425.1 -07.4990 26244.2
 30 03 2013  07 58  -21.0560 26019.7 -03425.1 -07.4990 26244.2
 30 03 2013  07 59  -21.0558 26019.6 -03425.1 -07.4989 26244.1
 30 03 2013  08 00  -21.0556 26019.5 -03425.0 -07.4989 26244.0
 30 03 2013  08 01  -21.0555 26019.1 -03424.9 -07.4987 26243.6
 30 03 2013  08 02  -21.0557 26019.0 -03424.8 -07.4985 26243.4
 30 03 2013  08 03  -21.0558 26019.2 -03424.9 -07.4987 26243.7
 30 03 2013  08 04  -21.0559 26019.2 -03424.9 -07.4988 26243.7
 30 03 2013  08 05  -21.0560 26019.2 -03424.9 -07.4988 26243.6
 30 03 2013  08 06  -21.0555 26019.5 -03425.1 -07.4990 26243.9
 30 03 2013  08 07  -21.0547 26019.7 -03425.2 -07.4991 26244.2
 30 03 2013  08 08  -21.0543 26020.0 -03425.3 -07.4994 26244.5
 30 03 2013  08 09  -21.0541 26019.9 -03425.4 -07.4995 26244.4
 30 03 2013  08 10  -21.0539 26019.9 -03425.3 -07.4995 26244.4
 30 03 2013  08 11  -21.0541 26020.0 -03425.4 -07.4996 26244.5
 30 03 2013  08 12  -21.0543 26019.9 -03425.4 -07.4996 26244.4
 30 03 2013  08 13  -21.0543 26019.9 -03425.4 -07.4996 26244.4
 30 03 2013  08 14  -21.0540 26019.9 -03425.4 -07.4996 26244.4
 30 03 2013  08 15  -21.0539 26020.1 -03425.5 -07.4997 26244.6
 30 03 2013  08 16  -21.0538 26020.2 -03425.5 -07.4998 26244.7
 30 03 2013  08 17  -21.0540 26020.0 -03425.5 -07.4997 26244.5
 30 03 2013  08 18  -21.0545 26020.0 -03425.5 -07.4998 26244.5
 30 03 2013  08 19  -21.0550 26020.3 -03425.7 -07.5001 26244.9
 30 03 2013  08 20  -21.0555 26020.5 -03425.8 -07.5003 26245.1
 30 03 2013  08 21  -21.0558 26020.4 -03425.7 -07.5002 26244.9
 30 03 2013  08 22  -21.0560 26020.3 -03425.6 -07.5000 26244.8
 30 03 2013  08 23  -21.0556 26020.5 -03425.7 -07.5000 26245.0
 30 03 2013  08 24  -21.0552 26020.6 -03425.8 -07.5002 26245.2
 30 03 2013  08 25  -21.0554 26020.6 -03425.8 -07.5002 26245.1
 30 03 2013  08 26  -21.0557 26020.5 -03425.8 -07.5002 26245.0
 30 03 2013  08 27  -21.0559 26020.5 -03425.8 -07.5002 26245.0
 30 03 2013  08 28  -21.0563 26020.6 -03425.8 -07.5003 26245.1
 30 03 2013  08 29  -21.0566 26020.5 -03425.8 -07.5004 26245.1
 30 03 2013  08 30  -21.0567 26020.6 -03425.8 -07.5003 26245.1
 30 03 2013  08 31  -21.0568 26020.6 -03425.8 -07.5003 26245.2
 30 03 2013  08 32  -21.0568 26020.7 -03425.9 -07.5004 26245.2
 30 03 2013  08 33  -21.0569 26020.5 -03425.8 -07.5004 26245.1
 30 03 2013  08 34  -21.0569 26020.3 -03425.7 -07.5002 26244.9
 30 03 2013  08 35  -21.0567 26020.0 -03425.6 -07.5000 26244.5
 30 03 2013  08 36  -21.0563 26019.3 -03425.3 -07.4995 26243.8
 30 03 2013  08 37  -21.0565 26019.1 -03425.2 -07.4993 26243.5
 30 03 2013  08 38  -21.0561 26019.1 -03425.2 -07.4994 26243.5
 30 03 2013  08 39  -21.0561 26019.1 -03425.3 -07.4996 26243.6
 30 03 2013  08 40  -21.0561 26019.4 -03425.6 -07.5001 26244.0
 30 03 2013  08 41  -21.0557 26019.6 -03425.8 -07.5005 26244.2
 30 03 2013  08 42  -21.0558 26020.0 -03426.1 -07.5010 26244.6
 30 03 2013  08 43  -21.0560 26020.4 -03426.4 -07.5015 26245.0
 30 03 2013  08 44  -21.0561 26020.6 -03426.5 -07.5018 26245.3
 30 03 2013  08 45  -21.0561 26020.5 -03426.5 -07.5018 26245.2
 30 03 2013  08 46  -21.0558 26020.3 -03426.4 -07.5017 26244.9
 30 03 2013  08 47  -21.0556 26020.2 -03426.3 -07.5016 26244.8
 30 03 2013  08 48  -21.0558 26020.2 -03426.4 -07.5017 26244.8
 30 03 2013  08 49  -21.0558 26020.1 -03426.5 -07.5018 26244.8
 30 03 2013  08 50  -21.0561 26020.1 -03426.5 -07.5020 26244.7
 30 03 2013  08 51  -21.0561 26019.9 -03426.5 -07.5020 26244.5
 30 03 2013  08 52  -21.0562 26019.9 -03426.6 -07.5021 26244.6
 30 03 2013  08 53  -21.0567 26020.0 -03426.7 -07.5023 26244.6
 30 03 2013  08 54  -21.0566 26020.1 -03426.8 -07.5026 26244.8
 30 03 2013  08 55  -21.0570 26020.4 -03427.0 -07.5029 26245.1
 30 03 2013  08 56  -21.0576 26020.6 -03427.2 -07.5032 26245.4
 30 03 2013  08 57  -21.0582 26020.7 -03427.2 -07.5033 26245.4
 30 03 2013  08 58  -21.0590 26020.7 -03427.2 -07.5034 26245.4
 30 03 2013  08 59  -21.0596 26020.7 -03427.2 -07.5033 26245.4
 30 03 2013  09 00  -21.0603 26020.6 -03427.2 -07.5033 26245.4
 30 03 2013  09 01  -21.0608 26020.6 -03427.1 -07.5032 26245.3
 30 03 2013  09 02  -21.0613 26020.5 -03427.1 -07.5031 26245.2
 30 03 2013  09 03  -21.0623 26020.8 -03427.3 -07.5034 26245.6
 30 03 2013  09 04  -21.0623 26021.0 -03427.3 -07.5035 26245.7
 30 03 2013  09 05  -21.0628 26020.9 -03427.4 -07.5035 26245.7
 30 03 2013  09 06  -21.0634 26021.3 -03427.6 -07.5039 26246.0
 30 03 2013  09 07  -21.0643 26021.0 -03427.5 -07.5038 26245.8
 30 03 2013  09 08  -21.0644 26020.8 -03427.4 -07.5036 26245.6
 30 03 2013  09 09  -21.0651 26020.7 -03427.4 -07.5037 26245.4
 30 03 2013  09 10  -21.0655 26020.9 -03427.6 -07.5040 26245.6
 30 03 2013  09 11  -21.0656 26021.0 -03427.7 -07.5043 26245.8
 30 03 2013  09 12  -21.0659 26021.2 -03427.8 -07.5045 26246.0
 30 03 2013  09 13  -21.0664 26021.7 -03428.1 -07.5050 26246.5
 30 03 2013  09 14  -21.0666 26021.9 -03428.2 -07.5051 26246.8
 30 03 2013  09 15  -21.0671 26022.2 -03428.4 -07.5053 26247.1
 30 03 2013  09 16  -21.0684 26022.5 -03428.5 -07.5055 26247.4
 30 03 2013  09 17  -21.0687 26022.8 -03428.5 -07.5055 26247.7
 30 03 2013  09 18  -21.0689 26022.6 -03428.4 -07.5053 26247.4
 30 03 2013  09 19  -21.0693 26022.4 -03428.3 -07.5052 26247.2
 30 03 2013  09 20  -21.0693 26022.3 -03428.3 -07.5051 26247.2
 30 03 2013  09 21  -21.0694 26022.1 -03428.1 -07.5048 26247.0
 30 03 2013  09 22  -21.0701 26022.0 -03428.1 -07.5048 26246.8
 30 03 2013  09 23  -21.0708 26021.8 -03428.0 -07.5047 26246.6
 30 03 2013  09 24  -21.0707 26021.7 -03428.0 -07.5047 26246.6
 30 03 2013  09 25  -21.0709 26021.8 -03428.1 -07.5048 26246.6
 30 03 2013  09 26  -21.0714 26022.0 -03428.2 -07.5051 26246.8
 30 03 2013  09 27  -21.0714 26022.0 -03428.3 -07.5052 26246.9
 30 03 2013  09 28  -21.0713 26021.9 -03428.2 -07.5051 26246.8
 30 03 2013  09 29  -21.0716 26021.8 -03428.1 -07.5049 26246.7
 30 03 2013  09 30  -21.0724 26021.9 -03428.2 -07.5051 26246.7
 30 03 2013  09 31  -21.0729 26022.0 -03428.2 -07.5051 26246.9
 30 03 2013  09 32  -21.0730 26022.3 -03428.2 -07.5050 26247.1
 30 03 2013  09 33  -21.0734 26022.7 -03428.4 -07.5053 26247.6
 30 03 2013  09 34  -21.0739 26022.9 -03428.4 -07.5053 26247.7
 30 03 2013  09 35  -21.0741 26022.9 -03428.4 -07.5052 26247.8
 30 03 2013  09 36  -21.0745 26023.0 -03428.5 -07.5053 26247.9
 30 03 2013  09 37  -21.0755 26023.1 -03428.6 -07.5055 26248.0
 30 03 2013  09 38  -21.0760 26023.4 -03428.7 -07.5058 26248.3
 30 03 2013  09 39  -21.0764 26023.8 -03428.9 -07.5060 26248.7
 30 03 2013  09 40  -21.0762 26023.9 -03428.9 -07.5059 26248.8
 30 03 2013  09 41  -21.0765 26024.0 -03428.9 -07.5059 26249.0
 30 03 2013  09 42  -21.0772 26024.6 -03429.1 -07.5062 26249.5
 30 03 2013  09 43  -21.0776 26025.0 -03429.2 -07.5064 26250.0
 30 03 2013  09 44  -21.0776 26025.2 -03429.3 -07.5064 26250.2
 30 03 2013  09 45  -21.0775 26025.1 -03429.2 -07.5063 26250.0
 30 03 2013  09 46  -21.0779 26025.2 -03429.2 -07.5063 26250.1
 30 03 2013  09 47  -21.0793 26025.7 -03429.5 -07.5067 26250.7
 30 03 2013  09 48  -21.0810 26026.3 -03429.7 -07.5070 26251.3
 30 03 2013  09 49  -21.0800 26026.5 -03429.7 -07.5069 26251.5
 30 03 2013  09 50  -21.0776 26026.5 -03429.4 -07.5063 26251.4
 30 03 2013  09 51  -21.0789 26026.7 -03429.4 -07.5063 26251.6
 30 03 2013  09 52  -21.0821 26027.0 -03429.6 -07.5068 26252.0
 30 03 2013  09 53  -21.0836 26027.4 -03429.9 -07.5071 26252.4
 30 03 2013  09 54  -21.0845 26027.9 -03430.1 -07.5075 26253.0
 30 03 2013  09 55  -21.0846 26028.4 -03430.2 -07.5076 26253.5
 30 03 2013  09 56  -21.0843 26028.7 -03430.2 -07.5075 26253.7
 30 03 2013  09 57  -21.0844 26028.5 -03430.0 -07.5071 26253.5
 30 03 2013  09 58  -21.0847 26028.1 -03429.7 -07.5065 26253.1
 30 03 2013  09 59  -21.0860 26028.0 -03429.6 -07.5064 26253.0
 30 03 2013  10 00  -21.0873 26028.3 -03429.8 -07.5067 26253.3
 30 03 2013  10 01  -21.0877 26028.2 -03429.8 -07.5067 26253.2
 30 03 2013  10 02  -21.0878 26028.2 -03429.7 -07.5066 26253.2
 30 03 2013  10 03  -21.0888 26028.5 -03430.0 -07.5070 26253.6
 30 03 2013  10 04  -21.0895 26028.9 -03430.1 -07.5072 26253.9
 30 03 2013  10 05  -21.0895 26028.7 -03430.0 -07.5070 26253.7
 30 03 2013  10 06  -21.0899 26028.7 -03429.9 -07.5068 26253.7
 30 03 2013  10 07  -21.0904 26028.5 -03429.8 -07.5066 26253.5
 30 03 2013  10 08  -21.0911 26028.8 -03429.8 -07.5066 26253.8
 30 03 2013  10 09  -21.0912 26028.9 -03429.8 -07.5066 26253.9
 30 03 2013  10 10  -21.0912 26029.0 -03429.9 -07.5066 26254.0
 30 03 2013  10 11  -21.0914 26029.1 -03429.9 -07.5066 26254.1
 30 03 2013  10 12  -21.0919 26029.3 -03429.9 -07.5065 26254.3
 30 03 2013  10 13  -21.0923 26029.4 -03429.8 -07.5064 26254.4
 30 03 2013  10 14  -21.0925 26029.3 -03429.7 -07.5063 26254.3
 30 03 2013  10 15  -21.0933 26029.4 -03429.8 -07.5064 26254.3
 30 03 2013  10 16  -21.0941 26029.7 -03430.0 -07.5067 26254.7
 30 03 2013  10 17  -21.0952 26030.1 -03430.2 -07.5070 26255.1
 30 03 2013  10 18  -21.0956 26030.3 -03430.2 -07.5070 26255.3
 30 03 2013  10 19  -21.0953 26030.5 -03430.1 -07.5068 26255.5
 30 03 2013  10 20  -21.0959 26030.5 -03430.0 -07.5065 26255.5
 30 03 2013  10 21  -21.0967 26030.5 -03429.9 -07.5063 26255.5
 30 03 2013  10 22  -21.0980 26030.4 -03429.8 -07.5061 26255.3
 30 03 2013  10 23  -21.0998 26030.4 -03429.8 -07.5060 26255.3
 30 03 2013  10 24  -21.0998 26030.1 -03429.6 -07.5057 26255.1
 30 03 2013  10 25  -21.1003 26029.9 -03429.5 -07.5056 26254.8
 30 03 2013  10 26  -21.1008 26029.8 -03429.5 -07.5056 26254.7
 30 03 2013  10 27  -21.1014 26030.1 -03429.6 -07.5058 26255.1
 30 03 2013  10 28  -21.1011 26030.4 -03429.7 -07.5058 26255.3
 30 03 2013  10 29  -21.1010 26030.4 -03429.6 -07.5057 26255.3
 30 03 2013  10 30  -21.1010 26030.4 -03429.6 -07.5056 26255.4
 30 03 2013  10 31  -21.1012 26030.3 -03429.5 -07.5055 26255.2
 30 03 2013  10 32  -21.1016 26030.3 -03429.5 -07.5054 26255.2
 30 03 2013  10 33  -21.1021 26030.6 -03429.6 -07.5056 26255.5
 30 03 2013  10 34  -21.1031 26030.7 -03429.6 -07.5057 26255.6
 30 03 2013  10 35  -21.1039 26030.9 -03429.7 -07.5057 26255.8
 30 03 2013  10 36  -21.1044 26031.1 -03429.7 -07.5057 26256.1
 30 03 2013  10 37  -21.1043 26031.4 -03429.7 -07.5056 26256.3
 30 03 2013  10 38  -21.1047 26031.5 -03429.7 -07.5055 26256.5
 30 03 2013  10 39  -21.1050 26031.5 -03429.6 -07.5054 26256.5
 30 03 2013  10 40  -21.1048 26031.5 -03429.5 -07.5052 26256.5
 30 03 2013  10 41  -21.1050 26031.5 -03429.5 -07.5051 26256.4
 30 03 2013  10 42  -21.1050 26031.7 -03429.5 -07.5051 26256.6
 30 03 2013  10 43  -21.1053 26032.0 -03429.6 -07.5052 26256.9
 30 03 2013  10 44  -21.1058 26032.4 -03429.7 -07.5053 26257.3
 30 03 2013  10 45  -21.1064 26032.7 -03429.7 -07.5053 26257.6
 30 03 2013  10 46  -21.1066 26032.8 -03429.6 -07.5051 26257.7
 30 03 2013  10 47  -21.1065 26033.0 -03429.6 -07.5050 26258.0
 30 03 2013  10 48  -21.1065 26033.4 -03429.6 -07.5049 26258.3
 30 03 2013  10 49  -21.1070 26033.6 -03429.6 -07.5048 26258.5
 30 03 2013  10 50  -21.1074 26033.9 -03429.6 -07.5047 26258.9
 30 03 2013  10 51  -21.1075 26034.3 -03429.6 -07.5046 26259.2
 30 03 2013  10 52  -21.1078 26034.5 -03429.6 -07.5045 26259.4
 30 03 2013  10 53  -21.1080 26034.7 -03429.5 -07.5042 26259.6
 30 03 2013  10 54  -21.1079 26034.9 -03429.4 -07.5040 26259.8
 30 03 2013  10 55  -21.1074 26035.0 -03429.3 -07.5037 26259.9
 30 03 2013  10 56  -21.1076 26035.3 -03429.3 -07.5036 26260.2
 30 03 2013  10 57  -21.1079 26035.6 -03429.2 -07.5034 26260.5
 30 03 2013  10 58  -21.1073 26036.2 -03429.3 -07.5034 26261.1
 30 03 2013  10 59  -21.1074 26036.6 -03429.4 -07.5034 26261.5
 30 03 2013  11 00  -21.1082 26037.0 -03429.4 -07.5034 26261.8
 30 03 2013  11 01  -21.1089 26037.1 -03429.4 -07.5033 26262.0
 30 03 2013  11 02  -21.1095 26037.3 -03429.3 -07.5030 26262.2
 30 03 2013  11 03  -21.1088 26037.7 -03429.2 -07.5028 26262.6
 30 03 2013  11 04  -21.1088 26038.2 -03429.2 -07.5027 26263.0
 30 03 2013  11 05  -21.1084 26038.8 -03429.3 -07.5026 26263.6
 30 03 2013  11 06  -21.1082 26039.5 -03429.3 -07.5026 26264.3
 30 03 2013  11 07  -21.1087 26040.1 -03429.4 -07.5025 26265.0
 30 03 2013  11 08  -21.1094 26040.4 -03429.3 -07.5021 26265.2
 30 03 2013  11 09  -21.1099 26040.3 -03429.0 -07.5016 26265.1
 30 03 2013  11 10  -21.1102 26040.3 -03428.8 -07.5011 26265.1
 30 03 2013  11 11  -21.1098 26039.9 -03428.4 -07.5003 26264.6
 30 03 2013  11 12  -21.1094 26039.7 -03428.1 -07.4998 26264.3
 30 03 2013  11 13  -21.1105 26039.6 -03428.1 -07.4998 26264.3
 30 03 2013  11 14  -21.1119 26040.1 -03428.3 -07.5002 26264.8
 30 03 2013  11 15  -21.1121 26040.1 -03428.3 -07.5001 26264.9
 30 03 2013  11 16  -21.1110 26040.1 -03428.1 -07.4997 26264.8
 30 03 2013  11 17  -21.1109 26040.4 -03428.1 -07.4995 26265.0
 30 03 2013  11 18  -21.1114 26040.8 -03428.2 -07.4996 26265.5
 30 03 2013  11 19  -21.1114 26040.8 -03427.9 -07.4991 26265.5
 30 03 2013  11 20  -21.1112 26040.7 -03427.7 -07.4985 26265.3
 30 03 2013  11 21  -21.1117 26040.7 -03427.5 -07.4983 26265.3
 30 03 2013  11 22  -21.1116 26040.9 -03427.5 -07.4982 26265.5
 30 03 2013  11 23  -21.1110 26041.2 -03427.5 -07.4981 26265.8
 30 03 2013  11 24  -21.1114 26041.1 -03427.4 -07.4978 26265.6
 30 03 2013  11 25  -21.1116 26040.8 -03427.2 -07.4975 26265.4
 30 03 2013  11 26  -21.1117 26040.7 -03427.1 -07.4973 26265.3
 30 03 2013  11 27  -21.1116 26040.9 -03427.2 -07.4974 26265.4
 30 03 2013  11 28  -21.1112 26041.4 -03427.3 -07.4976 26265.9
 30 03 2013  11 29  -21.1107 26041.9 -03427.4 -07.4976 26266.5
 30 03 2013  11 30  -21.1104 26042.6 -03427.5 -07.4976 26267.2
 30 03 2013  11 31  -21.1100 26043.1 -03427.5 -07.4974 26267.7
 30 03 2013  11 32  -21.1098 26043.5 -03427.4 -07.4972 26268.1
 30 03 2013  11 33  -21.1100 26043.7 -03427.3 -07.4969 26268.2
 30 03 2013  11 34  -21.1100 26044.1 -03427.2 -07.4966 26268.7
 30 03 2013  11 35  -21.1101 26044.4 -03427.2 -07.4965 26269.0
 30 03 2013  11 36  -21.1102 26044.7 -03427.1 -07.4961 26269.2
 30 03 2013  11 37  -21.1106 26044.7 -03426.9 -07.4957 26269.1
 30 03 2013  11 38  -21.1110 26044.8 -03426.7 -07.4953 26269.2
 30 03 2013  11 39  -21.1108 26045.4 -03426.7 -07.4951 26269.8
 30 03 2013  11 40  -21.1102 26046.1 -03426.7 -07.4950 26270.5
 30 03 2013  11 41  -21.1106 26046.3 -03426.5 -07.4945 26270.7
 30 03 2013  11 42  -21.1111 26046.2 -03426.1 -07.4937 26270.6
 30 03 2013  11 43  -21.1119 26046.1 -03425.8 -07.4930 26270.4
 30 03 2013  11 44  -21.1131 26046.1 -03425.6 -07.4926 26270.4
 30 03 2013  11 45  -21.1133 26046.2 -03425.6 -07.4925 26270.5
 30 03 2013  11 46  -21.1135 26046.3 -03425.5 -07.4923 26270.6
 30 03 2013  11 47  -21.1137 26046.2 -03425.3 -07.4918 26270.4
 30 03 2013  11 48  -21.1139 26046.0 -03425.0 -07.4914 26270.2
 30 03 2013  11 49  -21.1140 26046.0 -03424.9 -07.4911 26270.2
 30 03 2013  11 50  -21.1141 26046.2 -03424.9 -07.4909 26270.4
 30 03 2013  11 51  -21.1137 26046.4 -03424.9 -07.4909 26270.6
 30 03 2013  11 52  -21.1132 26046.5 -03424.7 -07.4905 26270.7
 30 03 2013  11 53  -21.1131 26046.2 -03424.4 -07.4900 26270.3
 30 03 2013  11 54  -21.1135 26045.6 -03424.1 -07.4895 26269.7
 30 03 2013  11 55  -21.1143 26045.6 -03424.1 -07.4895 26269.7
 30 03 2013  11 56  -21.1148 26046.4 -03424.4 -07.4899 26270.5
 30 03 2013  11 57  -21.1141 26047.5 -03424.7 -07.4902 26271.6
 30 03 2013  11 58  -21.1132 26048.3 -03424.8 -07.4901 26272.5
 30 03 2013  11 59  -21.1127 26048.9 -03424.7 -07.4899 26273.1
 30 03 2013  12 00  -21.1124 26049.2 -03424.6 -07.4894 26273.3
 30 03 2013  12 01  -21.1121 26049.8 -03424.5 -07.4892 26273.9
 30 03 2013  12 02  -21.1116 26050.6 -03424.5 -07.4889 26274.7
 30 03 2013  12 03  -21.1113 26050.4 -03424.1 -07.4880 26274.5
 30 03 2013  12 04  -21.1112 26049.8 -03423.5 -07.4870 26273.8
 30 03 2013  12 05  -21.1115 26049.3 -03423.1 -07.4862 26273.3
 30 03 2013  12 06  -21.1119 26049.1 -03422.8 -07.4857 26273.0
 30 03 2013  12 07  -21.1123 26049.4 -03422.8 -07.4856 26273.3
 30 03 2013  12 08  -21.1124 26050.3 -03423.0 -07.4858 26274.2
 30 03 2013  12 09  -21.1122 26051.1 -03423.1 -07.4857 26275.0
 30 03 2013  12 10  -21.1120 26052.0 -03423.2 -07.4856 26275.9
 30 03 2013  12 11  -21.1116 26052.9 -03423.2 -07.4854 26276.8
 30 03 2013  12 12  -21.1112 26053.4 -03422.9 -07.4847 26277.3
 30 03 2013  12 13  -21.1103 26053.4 -03422.5 -07.4838 26277.3
 30 03 2013  12 14  -21.1098 26053.3 -03422.1 -07.4830 26277.0
 30 03 2013  12 15  -21.1100 26052.7 -03421.7 -07.4821 26276.5
 30 03 2013  12 16  -21.1104 26052.2 -03421.3 -07.4814 26275.9
 30 03 2013  12 17  -21.1108 26052.2 -03421.1 -07.4810 26275.8
 30 03 2013  12 18  -21.1106 26052.4 -03421.0 -07.4808 26276.1
 30 03 2013  12 19  -21.1101 26053.2 -03421.0 -07.4806 26276.8
 30 03 2013  12 20  -21.1094 26054.1 -03421.0 -07.4804 26277.7
 30 03 2013  12 21  -21.1092 26054.8 -03420.9 -07.4800 26278.4
 30 03 2013  12 22  -21.1094 26055.2 -03420.7 -07.4794 26278.8
 30 03 2013  12 23  -21.1099 26055.4 -03420.4 -07.4786 26279.0
 30 03 2013  12 24  -21.1103 26055.5 -03420.1 -07.4779 26279.0
 30 03 2013  12 25  -21.1113 26055.9 -03420.0 -07.4776 26279.4
 30 03 2013  12 26  -21.1122 26056.6 -03420.0 -07.4775 26280.1
 30 03 2013  12 27  -21.1122 26057.2 -03419.9 -07.4772 26280.7
 30 03 2013  12 28  -21.1110 26057.9 -03419.8 -07.4767 26281.4
 30 03 2013  12 29  -21.1095 26057.6 -03419.2 -07.4755 26281.0
 30 03 2013  12 30  -21.1082 26057.5 -03418.8 -07.4745 26280.8
 30 03 2013  12 31  -21.1079 26057.5 -03418.5 -07.4740 26280.8
 30 03 2013  12 32  -21.1086 26056.6 -03417.9 -07.4730 26279.9
 30 03 2013  12 33  -21.1098 26055.6 -03417.5 -07.4723 26278.8
 30 03 2013  12 34  -21.1098 26055.4 -03417.3 -07.4719 26278.5
 30 03 2013  12 35  -21.1093 26055.0 -03417.1 -07.4716 26278.1
 30 03 2013  12 36  -21.1088 26054.4 -03416.8 -07.4712 26277.5
 30 03 2013  12 37  -21.1082 26054.3 -03416.7 -07.4710 26277.4
 30 03 2013  12 38  -21.1076 26054.5 -03416.7 -07.4709 26277.6
 30 03 2013  12 39  -21.1072 26054.2 -03416.4 -07.4704 26277.3
 30 03 2013  12 40  -21.1070 26053.9 -03416.2 -07.4699 26276.9
 30 03 2013  12 41  -21.1066 26054.0 -03416.1 -07.4697 26277.0
 30 03 2013  12 42  -21.1062 26054.1 -03416.0 -07.4695 26277.1
 30 03 2013  12 43  -21.1061 26054.1 -03415.9 -07.4692 26277.0
 30 03 2013  12 44  -21.1060 26054.2 -03415.8 -07.4690 26277.2
 30 03 2013  12 45  -21.1058 26054.5 -03415.7 -07.4687 26277.4
 30 03 2013  12 46  -21.1057 26054.6 -03415.5 -07.4684 26277.5
 30 03 2013  12 47  -21.1056 26054.9 -03415.5 -07.4681 26277.8
 30 03 2013  12 48  -21.1053 26055.4 -03415.4 -07.4679 26278.3
 30 03 2013  12 49  -21.1048 26055.9 -03415.4 -07.4676 26278.8
 30 03 2013  12 50  -21.1047 26056.6 -03415.4 -07.4674 26279.5
 30 03 2013  12 51  -21.1046 26057.2 -03415.3 -07.4671 26280.1
 30 03 2013  12 52  -21.1040 26057.6 -03415.1 -07.4666 26280.5
 30 03 2013  12 53  -21.1035 26057.8 -03414.8 -07.4660 26280.6
 30 03 2013  12 54  -21.1030 26058.0 -03414.6 -07.4654 26280.7
 30 03 2013  12 55  -21.1027 26058.0 -03414.3 -07.4648 26280.8
 30 03 2013  12 56  -21.1024 26058.1 -03414.0 -07.4641 26280.8
 30 03 2013  12 57  -21.1021 26058.3 -03413.9 -07.4637 26281.0
 30 03 2013  12 58  -21.1018 26058.6 -03413.7 -07.4633 26281.3
 30 03 2013  12 59  -21.1015 26058.8 -03413.5 -07.4628 26281.4
 30 03 2013  13 00  -21.1014 26059.2 -03413.4 -07.4624 26281.8
 30 03 2013  13 01  -21.1013 26059.3 -03413.1 -07.4619 26281.9
 30 03 2013  13 02  -21.1011 26059.8 -03413.1 -07.4616 26282.4
 30 03 2013  13 03  -21.1007 26060.1 -03412.9 -07.4611 26282.7
 30 03 2013  13 04  -21.1002 26060.5 -03412.7 -07.4606 26283.0
 30 03 2013  13 05  -21.0998 26060.9 -03412.6 -07.4602 26283.4
 30 03 2013  13 06  -21.0994 26061.0 -03412.3 -07.4596 26283.5
 30 03 2013  13 07  -21.0993 26061.4 -03412.2 -07.4593 26283.8
 30 03 2013  13 08  -21.0992 26062.1 -03412.2 -07.4591 26284.5
 30 03 2013  13 09  -21.0987 26063.0 -03412.3 -07.4590 26285.4
 30 03 2013  13 10  -21.0982 26063.6 -03412.2 -07.4586 26286.0
 30 03 2013  13 11  -21.0975 26064.0 -03412.0 -07.4581 26286.3
 30 03 2013  13 12  -21.0968 26064.6 -03411.9 -07.4577 26286.9
 30 03 2013  13 13  -21.0963 26064.9 -03411.7 -07.4573 26287.2
 30 03 2013  13 14  -21.0956 26064.9 -03411.4 -07.4565 26287.1
 30 03 2013  13 15  -21.0951 26064.7 -03411.1 -07.4559 26286.9
 30 03 2013  13 16  -21.0947 26064.9 -03411.0 -07.4556 26287.2
 30 03 2013  13 17  -21.0944 26065.6 -03411.1 -07.4556 26287.8
 30 03 2013  13 18  -21.0940 26066.2 -03411.1 -07.4555 26288.4
 30 03 2013  13 19  -21.0935 26066.3 -03410.8 -07.4549 26288.5
 30 03 2013  13 20  -21.0933 26065.9 -03410.5 -07.4542 26288.1
 30 03 2013  13 21  -21.0932 26065.8 -03410.3 -07.4538 26287.9
 30 03 2013  13 22  -21.0931 26066.0 -03410.2 -07.4537 26288.1
 30 03 2013  13 23  -21.0930 26066.2 -03410.1 -07.4534 26288.3
 30 03 2013  13 24  -21.0928 26067.0 -03410.3 -07.4535 26289.1
 30 03 2013  13 25  -21.0926 26068.0 -03410.5 -07.4536 26290.2
 30 03 2013  13 26  -21.0924 26069.1 -03410.6 -07.4536 26291.2
 30 03 2013  13 27  -21.0923 26069.7 -03410.4 -07.4531 26291.8
 30 03 2013  13 28  -21.0923 26070.5 -03410.4 -07.4527 26292.6
 30 03 2013  13 29  -21.0926 26071.1 -03410.3 -07.4523 26293.2
 30 03 2013  13 30  -21.0929 26071.5 -03410.1 -07.4519 26293.6
 30 03 2013  13 31  -21.0928 26071.5 -03409.8 -07.4512 26293.6
 30 03 2013  13 32  -21.0931 26071.2 -03409.4 -07.4504 26293.2
 30 03 2013  13 33  -21.0938 26071.9 -03409.5 -07.4504 26293.9
 30 03 2013  13 34  -21.0944 26072.6 -03409.5 -07.4503 26294.6
 30 03 2013  13 35  -21.0943 26073.1 -03409.4 -07.4499 26295.1
 30 03 2013  13 36  -21.0941 26073.7 -03409.3 -07.4496 26295.6
 30 03 2013  13 37  -21.0937 26073.8 -03409.0 -07.4488 26295.7
 30 03 2013  13 38  -21.0934 26074.0 -03408.8 -07.4482 26295.8
 30 03 2013  13 39  -21.0927 26074.8 -03408.8 -07.4481 26296.6
 30 03 2013  13 40  -21.0917 26075.6 -03408.7 -07.4478 26297.5
 30 03 2013  13 41  -21.0913 26076.5 -03408.8 -07.4475 26298.3
 30 03 2013  13 42  -21.0908 26077.4 -03408.7 -07.4472 26299.3
 30 03 2013  13 43  -21.0903 26077.6 -03408.4 -07.4464 26299.4
 30 03 2013  13 44  -21.0901 26077.0 -03407.8 -07.4453 26298.7
 30 03 2013  13 45  -21.0901 26076.3 -03407.3 -07.4444 26298.0
 30 03 2013  13 46  -21.0898 26076.6 -03407.3 -07.4444 26298.2
 30 03 2013  13 47  -21.0896 26076.3 -03407.0 -07.4438 26297.9
 30 03 2013  13 48  -21.0889 26076.6 -03407.0 -07.4437 26298.2
 30 03 2013  13 49  -21.0892 26075.8 -03406.5 -07.4428 26297.3
 30 03 2013  13 50  -21.0896 26075.2 -03406.2 -07.4424 26296.8
 30 03 2013  13 51  -21.0897 26074.1 -03405.7 -07.4417 26295.6
 30 03 2013  13 52  -21.0896 26073.3 -03405.5 -07.4414 26294.7
 30 03 2013  13 53  -21.0895 26072.7 -03405.4 -07.4414 26294.2
 30 03 2013  13 54  -21.0894 26072.2 -03405.3 -07.4414 26293.6
 30 03 2013  13 55  -21.0891 26072.0 -03405.3 -07.4414 26293.5
 30 03 2013  13 56  -21.0885 26071.6 -03405.2 -07.4412 26293.1
 30 03 2013  13 57  -21.0884 26071.4 -03405.1 -07.4410 26292.8
 30 03 2013  13 58  -21.0886 26071.0 -03405.0 -07.4409 26292.4
 30 03 2013  13 59  -21.0888 26071.2 -03405.2 -07.4413 26292.7
 30 03 2013  14 00  -21.0890 26071.5 -03405.3 -07.4414 26293.0
 30 03 2013  14 01  -21.0887 26072.0 -03405.4 -07.4416 26293.5
 30 03 2013  14 02  -21.0879 26072.2 -03405.4 -07.4414 26293.7
 30 03 2013  14 03  -21.0874 26072.5 -03405.4 -07.4414 26293.9
 30 03 2013  14 04  -21.0872 26072.4 -03405.3 -07.4412 26293.8
 30 03 2013  14 05  -21.0870 26072.2 -03405.1 -07.4409 26293.6
 30 03 2013  14 06  -21.0867 26071.7 -03404.9 -07.4406 26293.1
 30 03 2013  14 07  -21.0866 26070.6 -03404.5 -07.4401 26291.9
 30 03 2013  14 08  -21.0868 26070.7 -03404.7 -07.4403 26292.0
 30 03 2013  14 09  -21.0873 26070.6 -03404.7 -07.4405 26292.0
 30 03 2013  14 10  -21.0869 26069.5 -03404.3 -07.4398 26290.8
 30 03 2013  14 11  -21.0861 26068.6 -03404.0 -07.4394 26289.9
 30 03 2013  14 12  -21.0851 26067.8 -03403.8 -07.4393 26289.1
 30 03 2013  14 13  -21.0845 26066.9 -03403.6 -07.4392 26288.2
 30 03 2013  14 14  -21.0843 26067.6 -03404.1 -07.4400 26288.9
 30 03 2013  14 15  -21.0842 26067.9 -03404.4 -07.4405 26289.3
 30 03 2013  14 16  -21.0845 26067.9 -03404.5 -07.4407 26289.3
 30 03 2013  14 17  -21.0846 26067.9 -03404.5 -07.4407 26289.2
 30 03 2013  14 18  -21.0839 26068.0 -03404.5 -07.4407 26289.3
 30 03 2013  14 19  -21.0833 26068.4 -03404.6 -07.4409 26289.8
 30 03 2013  14 20  -21.0833 26068.6 -03404.7 -07.4410 26290.0
 30 03 2013  14 21  -21.0830 26068.9 -03404.7 -07.4410 26290.3
 30 03 2013  14 22  -21.0831 26069.4 -03404.9 -07.4411 26290.8
 30 03 2013  14 23  -21.0830 26069.6 -03404.8 -07.4410 26291.0
 30 03 2013  14 24  -21.0824 26069.6 -03404.7 -07.4407 26290.9
 30 03 2013  14 25  -21.0816 26069.8 -03404.7 -07.4406 26291.2
 30 03 2013  14 26  -21.0810 26070.3 -03404.8 -07.4407 26291.7
 30 03 2013  14 27  -21.0810 26071.3 -03405.1 -07.4411 26292.8
 30 03 2013  14 28  -21.0809 26071.9 -03405.2 -07.4411 26293.3
 30 03 2013  14 29  -21.0806 26072.1 -03405.0 -07.4407 26293.5
 30 03 2013  14 30  -21.0800 26072.2 -03404.9 -07.4404 26293.6
 30 03 2013  14 31  -21.0792 26072.2 -03404.7 -07.4401 26293.6
 30 03 2013  14 32  -21.0786 26072.4 -03404.7 -07.4399 26293.8
 30 03 2013  14 33  -21.0784 26072.3 -03404.5 -07.4396 26293.7
 30 03 2013  14 34  -21.0783 26072.5 -03404.4 -07.4393 26293.8
 30 03 2013  14 35  -21.0778 26072.4 -03404.2 -07.4389 26293.7
 30 03 2013  14 36  -21.0772 26071.9 -03403.9 -07.4383 26293.2
 30 03 2013  14 37  -21.0761 26071.4 -03403.6 -07.4379 26292.6
 30 03 2013  14 38  -21.0753 26071.5 -03403.6 -07.4379 26292.7
 30 03 2013  14 39  -21.0750 26072.0 -03403.9 -07.4383 26293.3
 30 03 2013  14 40  -21.0745 26072.8 -03404.2 -07.4387 26294.1
 30 03 2013  14 41  -21.0741 26073.3 -03404.3 -07.4388 26294.6
 30 03 2013  14 42  -21.0738 26074.0 -03404.4 -07.4389 26295.3
 30 03 2013  14 43  -21.0733 26074.6 -03404.4 -07.4388 26295.9
 30 03 2013  14 44  -21.0724 26074.9 -03404.4 -07.4385 26296.2
 30 03 2013  14 45  -21.0714 26074.6 -03404.1 -07.4380 26295.9
 30 03 2013  14 46  -21.0707 26074.2 -03403.8 -07.4376 26295.5
 30 03 2013  14 47  -21.0705 26074.1 -03403.7 -07.4374 26295.3
 30 03 2013  14 48  -21.0701 26073.8 -03403.6 -07.4372 26295.0
 30 03 2013  14 49  -21.0694 26073.6 -03403.5 -07.4370 26294.8
 30 03 2013  14 50  -21.0687 26073.7 -03403.6 -07.4371 26294.9
 30 03 2013  14 51  -21.0682 26074.1 -03403.8 -07.4374 26295.4
 30 03 2013  14 52  -21.0677 26074.4 -03403.9 -07.4376 26295.7
 30 03 2013  14 53  -21.0671 26074.7 -03404.0 -07.4378 26295.9
 30 03 2013  14 54  -21.0667 26075.1 -03404.2 -07.4381 26296.4
 30 03 2013  14 55  -21.0662 26075.7 -03404.5 -07.4385 26297.0
 30 03 2013  14 56  -21.0659 26076.4 -03404.7 -07.4389 26297.7
 30 03 2013  14 57  -21.0655 26076.5 -03404.7 -07.4389 26297.8
 30 03 2013  14 58  -21.0650 26076.5 -03404.7 -07.4388 26297.8
 30 03 2013  14 59  -21.0646 26076.0 -03404.5 -07.4385 26297.3
 30 03 2013  15 00  -21.0635 26075.2 -03404.2 -07.4380 26296.5
 30 03 2013  15 01  -21.0627 26074.8 -03404.2 -07.4381 26296.1
 30 03 2013  15 02  -21.0621 26074.9 -03404.4 -07.4385 26296.2
 30 03 2013  15 03  -21.0622 26075.4 -03404.8 -07.4393 26296.8
 30 03 2013  15 04  -21.0619 26075.7 -03405.0 -07.4396 26297.1
 30 03 2013  15 05  -21.0614 26075.8 -03405.1 -07.4397 26297.2
 30 03 2013  15 06  -21.0609 26075.9 -03405.1 -07.4399 26297.3
 30 03 2013  15 07  -21.0604 26076.0 -03405.3 -07.4402 26297.4
 30 03 2013  15 08  -21.0599 26076.1 -03405.5 -07.4406 26297.6
 30 03 2013  15 09  -21.0596 26076.3 -03405.7 -07.4410 26297.7
 30 03 2013  15 10  -21.0593 26076.1 -03405.7 -07.4410 26297.5
 30 03 2013  15 11  -21.0591 26075.8 -03405.7 -07.4411 26297.2
 30 03 2013  15 12  -21.0588 26075.6 -03405.8 -07.4413 26297.1
 30 03 2013  15 13  -21.0587 26075.5 -03405.9 -07.4416 26297.0
 30 03 2013  15 14  -21.0586 26075.2 -03405.9 -07.4418 26296.7
 30 03 2013  15 15  -21.0584 26075.2 -03406.1 -07.4423 26296.7
 30 03 2013  15 16  -21.0583 26075.6 -03406.5 -07.4430 26297.2
 30 03 2013  15 17  -21.0583 26076.1 -03406.9 -07.4436 26297.7
 30 03 2013  15 18  -21.0584 26076.4 -03407.1 -07.4440 26298.1
 30 03 2013  15 19  -21.0587 26076.9 -03407.4 -07.4444 26298.6
 30 03 2013  15 20  -21.0594 26077.4 -03407.5 -07.4447 26299.1
 30 03 2013  15 21  -21.0597 26077.3 -03407.5 -07.4445 26299.0
 30 03 2013  15 22  -21.0601 26077.4 -03407.5 -07.4446 26299.1
 30 03 2013  15 23  -21.0607 26077.6 -03407.6 -07.4447 26299.2
 30 03 2013  15 24  -21.0614 26077.5 -03407.6 -07.4447 26299.2
 30 03 2013  15 25  -21.0608 26076.7 -03407.2 -07.4441 26298.3
 30 03 2013  15 26  -21.0607 26076.3 -03407.1 -07.4440 26297.9
 30 03 2013  15 27  -21.0616 26076.6 -03407.4 -07.4447 26298.3
 30 03 2013  15 28  -21.0622 26077.1 -03407.8 -07.4452 26298.9
 30 03 2013  15 29  -21.0633 26077.5 -03408.0 -07.4456 26299.3
 30 03 2013  15 30  -21.0639 26077.5 -03407.9 -07.4454 26299.2
 30 03 2013  15 31  -21.0639 26077.0 -03407.6 -07.4450 26298.7
 30 03 2013  15 32  -21.0640 26076.3 -03407.4 -07.4446 26298.0
 30 03 2013  15 33  -21.0639 26075.7 -03407.2 -07.4445 26297.4
 30 03 2013  15 34  -21.0639 26075.6 -03407.3 -07.4447 26297.3
 30 03 2013  15 35  -21.0648 26076.1 -03407.7 -07.4454 26297.8
 30 03 2013  15 36  -21.0661 26076.8 -03408.1 -07.4460 26298.5
 30 03 2013  15 37  -21.0666 26076.9 -03408.1 -07.4460 26298.7
 30 03 2013  15 38  -21.0667 26076.6 -03407.9 -07.4457 26298.4
 30 03 2013  15 39  -21.0673 26076.8 -03408.0 -07.4458 26298.6
 30 03 2013  15 40  -21.0676 26077.3 -03408.1 -07.4460 26299.0
 30 03 2013  15 41  -21.0685 26078.0 -03408.4 -07.4464 26299.8
 30 03 2013  15 42  -21.0687 26077.9 -03408.3 -07.4461 26299.7
 30 03 2013  15 43  -21.0684 26076.9 -03407.7 -07.4450 26298.6
 30 03 2013  15 44  -21.0681 26076.4 -03407.4 -07.4446 26298.1
 30 03 2013  15 45  -21.0682 26076.4 -03407.5 -07.4448 26298.1
 30 03 2013  15 46  -21.0680 26076.3 -03407.5 -07.4448 26298.0
 30 03 2013  15 47  -21.0678 26076.5 -03407.6 -07.4451 26298.2
 30 03 2013  15 48  -21.0686 26077.1 -03408.0 -07.4458 26298.9
 30 03 2013  15 49  -21.0682 26076.9 -03407.9 -07.4455 26298.6
 30 03 2013  15 50  -21.0685 26077.0 -03408.0 -07.4457 26298.8
 30 03 2013  15 51  -21.0689 26077.4 -03408.2 -07.4461 26299.2
 30 03 2013  15 52  -21.0693 26077.6 -03408.2 -07.4461 26299.3
 30 03 2013  15 53  -21.0700 26077.6 -03408.2 -07.4461 26299.4
 30 03 2013  15 54  -21.0699 26076.9 -03407.9 -07.4456 26298.7
 30 03 2013  15 55  -21.0698 26075.8 -03407.5 -07.4451 26297.5
 30 03 2013  15 56  -21.0689 26074.8 -03407.2 -07.4447 26296.4
 30 03 2013  15 57  -21.0687 26074.1 -03407.2 -07.4448 26295.7
 30 03 2013  15 58  -21.0683 26073.5 -03407.2 -07.4451 26295.2
 30 03 2013  15 59  -21.0693 26073.9 -03407.8 -07.4462 26295.7
 30 03 2013  16 00  -21.0696 26073.7 -03408.0 -07.4466 26295.5
 30 03 2013  16 01  -21.0691 26073.4 -03408.0 -07.4468 26295.1
 30 03 2013  16 02  -21.0698 26074.4 -03408.8 -07.4483 26296.3
 30 03 2013  16 03  -21.0710 26075.8 -03409.7 -07.4498 26297.8
 30 03 2013  16 04  -21.0723 26077.3 -03410.5 -07.4510 26299.4
 30 03 2013  16 05  -21.0731 26077.8 -03410.7 -07.4513 26299.9
 30 03 2013  16 06  -21.0735 26077.9 -03410.6 -07.4512 26300.0
 30 03 2013  16 07  -21.0736 26077.3 -03410.4 -07.4508 26299.3
 30 03 2013  16 08  -21.0729 26075.8 -03409.8 -07.4499 26297.8
 30 03 2013  16 09  -21.0731 26075.6 -03409.9 -07.4502 26297.6
 30 03 2013  16 10  -21.0735 26075.6 -03410.2 -07.4508 26297.7
 30 03 2013  16 11  -21.0741 26075.4 -03410.3 -07.4513 26297.5
 30 03 2013  16 12  -21.0749 26075.3 -03410.6 -07.4518 26297.4
 30 03 2013  16 13  -21.0759 26075.0 -03410.7 -07.4520 26297.2
 30 03 2013  16 14  -21.0762 26074.1 -03410.4 -07.4518 26296.2
 30 03 2013  16 15  -21.0764 26073.6 -03410.4 -07.4520 26295.7
 30 03 2013  16 16  -21.0763 26073.2 -03410.6 -07.4525 26295.4
 30 03 2013  16 17  -21.0769 26073.2 -03411.0 -07.4532 26295.4
 30 03 2013  16 18  -21.0773 26073.5 -03411.3 -07.4539 26295.7
 30 03 2013  16 19  -21.0786 26074.7 -03412.1 -07.4552 26297.0
 30 03 2013  16 20  -21.0801 26075.7 -03412.5 -07.4559 26298.0
 30 03 2013  16 21  -21.0814 26076.0 -03412.6 -07.4559 26298.4
 30 03 2013  16 22  -21.0823 26075.9 -03412.3 -07.4555 26298.2
 30 03 2013  16 23  -21.0830 26075.8 -03412.2 -07.4552 26298.1
 30 03 2013  16 24  -21.0839 26075.9 -03412.3 -07.4553 26298.2
 30 03 2013  16 25  -21.0845 26075.6 -03412.1 -07.4549 26297.9
 30 03 2013  16 26  -21.0850 26074.9 -03411.7 -07.4544 26297.1
 30 03 2013  16 27  -21.0853 26074.0 -03411.4 -07.4539 26296.3
 30 03 2013  16 28  -21.0861 26073.6 -03411.3 -07.4539 26295.8
 30 03 2013  16 29  -21.0865 26073.3 -03411.4 -07.4541 26295.6
 30 03 2013  16 30  -21.0865 26073.0 -03411.5 -07.4544 26295.3
 30 03 2013  16 31  -21.0872 26072.9 -03411.6 -07.4547 26295.2
 30 03 2013  16 32  -21.0874 26072.4 -03411.5 -07.4546 26294.7
 30 03 2013  16 33  -21.0874 26071.8 -03411.4 -07.4546 26294.1
 30 03 2013  16 34  -21.0882 26071.9 -03411.7 -07.4551 26294.1
 30 03 2013  16 35  -21.0890 26071.9 -03411.8 -07.4555 26294.2
 30 03 2013  16 36  -21.0895 26072.1 -03412.0 -07.4558 26294.4
 30 03 2013  16 37  -21.0900 26071.8 -03412.0 -07.4558 26294.1
 30 03 2013  16 38  -21.0900 26071.0 -03411.7 -07.4554 26293.3
 30 03 2013  16 39  -21.0904 26071.1 -03411.9 -07.4558 26293.4
 30 03 2013  16 40  -21.0916 26071.1 -03411.9 -07.4559 26293.4
 30 03 2013  16 41  -21.0923 26070.8 -03411.8 -07.4558 26293.1
 30 03 2013  16 42  -21.0930 26070.8 -03411.9 -07.4560 26293.1
 30 03 2013  16 43  -21.0931 26070.5 -03411.9 -07.4559 26292.8
 30 03 2013  16 44  -21.0935 26070.2 -03411.8 -07.4559 26292.5
 30 03 2013  16 45  -21.0943 26069.9 -03411.8 -07.4560 26292.2
 30 03 2013  16 46  -21.0949 26069.6 -03411.8 -07.4560 26291.9
 30 03 2013  16 47  -21.0955 26069.4 -03411.7 -07.4560 26291.7
 30 03 2013  16 48  -21.0964 26069.2 -03411.7 -07.4559 26291.5
 30 03 2013  16 49  -21.0970 26068.8 -03411.6 -07.4558 26291.1
 30 03 2013  16 50  -21.0974 26068.3 -03411.4 -07.4557 26290.6
 30 03 2013  16 51  -21.0977 26068.3 -03411.5 -07.4558 26290.6
 30 03 2013  16 52  -21.0984 26068.5 -03411.8 -07.4563 26290.9
 30 03 2013  16 53  -21.0989 26068.8 -03411.9 -07.4565 26291.2
 30 03 2013  16 54  -21.0992 26068.8 -03411.9 -07.4564 26291.1
 30 03 2013  16 55  -21.0999 26069.2 -03412.0 -07.4566 26291.5
 30 03 2013  16 56  -21.1000 26069.0 -03411.9 -07.4564 26291.3
 30 03 2013  16 57  -21.0995 26068.8 -03411.7 -07.4561 26291.1
 30 03 2013  16 58  -21.1001 26069.3 -03412.0 -07.4565 26291.7
 30 03 2013  16 59  -21.1011 26069.7 -03412.1 -07.4567 26292.1
 30 03 2013  17 00  -21.1016 26069.7 -03412.0 -07.4565 26292.0
 30 03 2013  17 01  -21.1020 26069.5 -03411.8 -07.4561 26291.8
 30 03 2013  17 02  -21.1027 26069.2 -03411.6 -07.4557 26291.5
 30 03 2013  17 03  -21.1032 26069.0 -03411.4 -07.4554 26291.2
 30 03 2013  17 04  -21.1035 26068.5 -03411.2 -07.4550 26290.8
 30 03 2013  17 05  -21.1039 26068.2 -03411.0 -07.4548 26290.4
 30 03 2013  17 06  -21.1043 26067.9 -03410.9 -07.4546 26290.1
 30 03 2013  17 07  -21.1048 26067.6 -03410.7 -07.4544 26289.8
 30 03 2013  17 08  -21.1049 26066.8 -03410.4 -07.4538 26289.0
 30 03 2013  17 09  -21.1052 26065.7 -03409.9 -07.4530 26287.8
 30 03 2013  17 10  -21.1060 26065.5 -03409.8 -07.4529 26287.5
 30 03 2013  17 11  -21.1070 26065.2 -03409.7 -07.4527 26287.3
 30 03 2013  17 12  -21.1081 26065.0 -03409.5 -07.4524 26287.0
 30 03 2013  17 13  -21.1090 26064.6 -03409.2 -07.4518 26286.6
 30 03 2013  17 14  -21.1093 26064.4 -03408.9 -07.4513 26286.4
 30 03 2013  17 15  -21.1100 26064.2 -03408.8 -07.4510 26286.2
 30 03 2013  17 16  -21.1103 26064.4 -03408.7 -07.4508 26286.3
 30 03 2013  17 17  -21.1112 26064.9 -03408.8 -07.4510 26286.9
 30 03 2013  17 18  -21.1120 26065.1 -03408.8 -07.4508 26287.1
 30 03 2013  17 19  -21.1124 26064.9 -03408.4 -07.4501 26286.8
 30 03 2013  17 20  -21.1127 26064.0 -03407.9 -07.4491 26285.8
 30 03 2013  17 21  -21.1114 26063.1 -03407.2 -07.4480 26284.8
 30 03 2013  17 22  -21.1119 26063.6 -03407.6 -07.4486 26285.4
 30 03 2013  17 23  -21.1122 26063.7 -03407.5 -07.4485 26285.5
 30 03 2013  17 24  -21.1126 26063.6 -03407.4 -07.4482 26285.3
 30 03 2013  17 25  -21.1131 26063.3 -03407.1 -07.4478 26285.1
 30 03 2013  17 26  -21.1132 26062.8 -03406.8 -07.4471 26284.5
 30 03 2013  17 27  -21.1130 26062.4 -03406.4 -07.4465 26284.0
 30 03 2013  17 28  -21.1130 26062.7 -03406.5 -07.4466 26284.4
 30 03 2013  17 29  -21.1131 26062.7 -03406.5 -07.4465 26284.4
 30 03 2013  17 30  -21.1137 26062.5 -03406.2 -07.4461 26284.1
 30 03 2013  17 31  -21.1144 26062.3 -03406.0 -07.4456 26284.0
 30 03 2013  17 32  -21.1146 26062.1 -03405.6 -07.4448 26283.7
 30 03 2013  17 33  -21.1144 26061.4 -03405.1 -07.4438 26282.9
 30 03 2013  17 34  -21.1136 26060.7 -03404.5 -07.4427 26282.1
 30 03 2013  17 35  -21.1130 26060.6 -03404.3 -07.4425 26282.0
 30 03 2013  17 36  -21.1126 26060.7 -03404.3 -07.4424 26282.1
 30 03 2013  17 37  -21.1124 26060.6 -03404.2 -07.4422 26282.0
 30 03 2013  17 38  -21.1122 26060.3 -03404.0 -07.4418 26281.6
 30 03 2013  17 39  -21.1121 26059.9 -03403.7 -07.4413 26281.2
 30 03 2013  17 40  -21.1115 26059.3 -03403.3 -07.4406 26280.6
 30 03 2013  17 41  -21.1110 26058.4 -03402.9 -07.4400 26279.7
 30 03 2013  17 42  -21.1106 26057.9 -03402.6 -07.4396 26279.1
 30 03 2013  17 43  -21.1104 26057.6 -03402.5 -07.4395 26278.8
 30 03 2013  17 44  -21.1102 26057.3 -03402.4 -07.4393 26278.5
 30 03 2013  17 45  -21.1102 26057.0 -03402.4 -07.4392 26278.2
 30 03 2013  17 46  -21.1094 26056.4 -03402.1 -07.4388 26277.6
 30 03 2013  17 47  -21.1090 26056.4 -03402.1 -07.4388 26277.5
 30 03 2013  17 48  -21.1087 26056.2 -03402.0 -07.4387 26277.3
 30 03 2013  17 49  -21.1079 26055.5 -03401.7 -07.4382 26276.6
 30 03 2013  17 50  -21.1073 26055.2 -03401.6 -07.4380 26276.3
 30 03 2013  17 51  -21.1068 26054.9 -03401.5 -07.4379 26276.0
 30 03 2013  17 52  -21.1059 26054.6 -03401.4 -07.4378 26275.7
 30 03 2013  17 53  -21.1055 26054.3 -03401.3 -07.4377 26275.4
 30 03 2013  17 54  -21.1055 26054.3 -03401.4 -07.4379 26275.4
 30 03 2013  17 55  -21.1052 26054.1 -03401.3 -07.4379 26275.2
 30 03 2013  17 56  -21.1048 26053.8 -03401.2 -07.4376 26274.8
 30 03 2013  17 57  -21.1042 26053.4 -03401.0 -07.4374 26274.4
 30 03 2013  17 58  -21.1034 26052.7 -03400.8 -07.4370 26273.7
 30 03 2013  17 59  -21.1028 26052.4 -03400.8 -07.4371 26273.5
 30 03 2013  18 00  -21.1021 26052.1 -03400.7 -07.4370 26273.1
 30 03 2013  18 01  -21.1019 26051.8 -03400.7 -07.4371 26272.8
 30 03 2013  18 02  -21.1016 26051.6 -03400.7 -07.4371 26272.6
 30 03 2013  18 03  -21.1012 26051.1 -03400.5 -07.4369 26272.1
 30 03 2013  18 04  -21.1005 26050.6 -03400.3 -07.4367 26271.6
 30 03 2013  18 05  -21.1006 26050.6 -03400.5 -07.4369 26271.6
 30 03 2013  18 06  -21.1004 26050.5 -03400.5 -07.4371 26271.5
 30 03 2013  18 07  -21.1000 26050.1 -03400.4 -07.4368 26271.1
 30 03 2013  18 08  -21.0995 26049.7 -03400.2 -07.4366 26270.7
 30 03 2013  18 09  -21.0990 26049.3 -03400.1 -07.4364 26270.3
 30 03 2013  18 10  -21.0987 26049.2 -03400.1 -07.4365 26270.1
 30 03 2013  18 11  -21.0986 26049.0 -03400.1 -07.4366 26270.0
 30 03 2013  18 12  -21.0985 26048.8 -03400.2 -07.4367 26269.8
 30 03 2013  18 13  -21.0985 26048.9 -03400.3 -07.4371 26269.9
 30 03 2013  18 14  -21.0985 26049.0 -03400.4 -07.4373 26270.0
 30 03 2013  18 15  -21.0983 26048.6 -03400.3 -07.4370 26269.6
 30 03 2013  18 16  -21.0983 26048.2 -03400.1 -07.4369 26269.2
 30 03 2013  18 17  -21.0983 26047.4 -03399.8 -07.4364 26268.3
 30 03 2013  18 18  -21.0972 26046.3 -03399.3 -07.4356 26267.2
 30 03 2013  18 19  -21.0965 26045.6 -03399.2 -07.4355 26266.5
 30 03 2013  18 20  -21.0965 26045.5 -03399.3 -07.4359 26266.3
 30 03 2013  18 21  -21.0966 26045.2 -03399.5 -07.4363 26266.2
 30 03 2013  18 22  -21.0965 26045.1 -03399.6 -07.4365 26266.0
 30 03 2013  18 23  -21.0961 26045.0 -03399.6 -07.4367 26265.9
 30 03 2013  18 24  -21.0956 26044.8 -03399.7 -07.4370 26265.8
 30 03 2013  18 25  -21.0955 26044.9 -03399.9 -07.4374 26265.9
 30 03 2013  18 26  -21.0951 26044.9 -03400.1 -07.4377 26265.9
 30 03 2013  18 27  -21.0946 26044.4 -03400.0 -07.4377 26265.4
 30 03 2013  18 28  -21.0943 26044.0 -03400.0 -07.4378 26265.0
 30 03 2013  18 29  -21.0944 26043.9 -03400.1 -07.4379 26264.9
 30 03 2013  18 30  -21.0942 26043.2 -03399.9 -07.4378 26264.1
 30 03 2013  18 31  -21.0935 26042.4 -03399.7 -07.4375 26263.4
 30 03 2013  18 32  -21.0929 26041.7 -03399.5 -07.4373 26262.6
 30 03 2013  18 33  -21.0925 26041.2 -03399.4 -07.4374 26262.2
 30 03 2013  18 34  -21.0925 26040.9 -03399.5 -07.4375 26261.9
 30 03 2013  18 35  -21.0927 26040.5 -03399.5 -07.4376 26261.5
 30 03 2013  18 36  -21.0927 26040.0 -03399.3 -07.4374 26260.9
 30 03 2013  18 37  -21.0924 26039.4 -03399.1 -07.4371 26260.3
 30 03 2013  18 38  -21.0921 26039.1 -03399.0 -07.4370 26260.0
 30 03 2013  18 39  -21.0921 26039.0 -03399.0 -07.4371 26259.9
 30 03 2013  18 40  -21.0918 26038.6 -03398.9 -07.4370 26259.5
 30 03 2013  18 41  -21.0917 26038.4 -03398.9 -07.4370 26259.3
 30 03 2013  18 42  -21.0918 26038.9 -03399.2 -07.4374 26259.8
 30 03 2013  18 43  -21.0919 26039.3 -03399.4 -07.4377 26260.3
 30 03 2013  18 44  -21.0917 26039.2 -03399.3 -07.4376 26260.2
 30 03 2013  18 45  -21.0914 26039.3 -03399.3 -07.4376 26260.2
 30 03 2013  18 46  -21.0913 26039.5 -03399.4 -07.4377 26260.5
 30 03 2013  18 47  -21.0913 26039.7 -03399.5 -07.4379 26260.7
 30 03 2013  18 48  -21.0914 26039.9 -03399.5 -07.4379 26260.8
 30 03 2013  18 49  -21.0912 26039.8 -03399.4 -07.4377 26260.8
 30 03 2013  18 50  -21.0903 26039.4 -03399.2 -07.4374 26260.3
 30 03 2013  18 51  -21.0892 26038.7 -03398.9 -07.4368 26259.6
 30 03 2013  18 52  -21.0883 26038.2 -03398.8 -07.4367 26259.1
 30 03 2013  18 53  -21.0879 26038.1 -03398.9 -07.4370 26259.0
 30 03 2013  18 54  -21.0879 26038.2 -03399.0 -07.4374 26259.1
 30 03 2013  18 55  -21.0881 26038.2 -03399.2 -07.4376 26259.2
 30 03 2013  18 56  -21.0879 26038.2 -03399.2 -07.4377 26259.1
 30 03 2013  18 57  -21.0878 26038.2 -03399.3 -07.4378 26259.1
 30 03 2013  18 58  -21.0875 26038.0 -03399.3 -07.4379 26259.0
 30 03 2013  18 59  -21.0872 26037.8 -03399.3 -07.4380 26258.7
 30 03 2013  19 00  -21.0869 26037.7 -03399.3 -07.4381 26258.6
 30 03 2013  19 01  -21.0866 26037.6 -03399.4 -07.4383 26258.6
 30 03 2013  19 02  -21.0864 26037.4 -03399.4 -07.4384 26258.4
 30 03 2013  19 03  -21.0861 26037.1 -03399.4 -07.4385 26258.1
 30 03 2013  19 04  -21.0856 26036.7 -03399.4 -07.4386 26257.7
 30 03 2013  19 05  -21.0853 26036.3 -03399.4 -07.4386 26257.3
 30 03 2013  19 06  -21.0848 26036.0 -03399.4 -07.4387 26257.0
 30 03 2013  19 07  -21.0846 26036.0 -03399.6 -07.4391 26257.0
 30 03 2013  19 08  -21.0841 26035.8 -03399.7 -07.4394 26256.8
 30 03 2013  19 09  -21.0839 26035.6 -03399.8 -07.4397 26256.6
 30 03 2013  19 10  -21.0836 26035.4 -03399.9 -07.4399 26256.4
 30 03 2013  19 11  -21.0832 26035.1 -03399.9 -07.4402 26256.2
 30 03 2013  19 12  -21.0827 26034.8 -03400.0 -07.4404 26255.9
 30 03 2013  19 13  -21.0821 26034.7 -03400.2 -07.4409 26255.8
 30 03 2013  19 14  -21.0811 26035.0 -03400.6 -07.4417 26256.1
 30 03 2013  19 15  -21.0802 26034.4 -03400.7 -07.4421 26255.6
 30 03 2013  19 16  -21.0791 26033.8 -03400.7 -07.4423 26254.9
 30 03 2013  19 17  -21.0780 26033.8 -03401.1 -07.4431 26255.0
 30 03 2013  19 18  -21.0774 26033.2 -03401.2 -07.4435 26254.4
 30 03 2013  19 19  -21.0772 26033.1 -03401.5 -07.4440 26254.4
 30 03 2013  19 20  -21.0769 26033.1 -03401.7 -07.4445 26254.5
 30 03 2013  19 21  -21.0766 26033.2 -03401.9 -07.4450 26254.5
 30 03 2013  19 22  -21.0760 26032.7 -03402.0 -07.4452 26254.1
 30 03 2013  19 23  -21.0749 26032.5 -03402.1 -07.4455 26253.9
 30 03 2013  19 24  -21.0743 26032.7 -03402.4 -07.4462 26254.1
 30 03 2013  19 25  -21.0732 26032.8 -03402.7 -07.4467 26254.3
 30 03 2013  19 26  -21.0735 26033.8 -03403.4 -07.4479 26255.4
 30 03 2013  19 27  -21.0733 26034.2 -03403.8 -07.4487 26255.8
 30 03 2013  19 28  -21.0739 26035.1 -03404.3 -07.4496 26256.7
 30 03 2013  19 29  -21.0745 26035.4 -03404.6 -07.4501 26257.0
 30 03 2013  19 30  -21.0748 26035.4 -03404.7 -07.4504 26257.1
 30 03 2013  19 31  -21.0754 26035.5 -03404.8 -07.4506 26257.2
 30 03 2013  19 32  -21.0758 26035.5 -03404.9 -07.4508 26257.2
 30 03 2013  19 33  -21.0758 26035.5 -03405.0 -07.4510 26257.2
 30 03 2013  19 34  -21.0753 26035.3 -03405.1 -07.4512 26257.0
 30 03 2013  19 35  -21.0740 26034.9 -03405.1 -07.4513 26256.6
 30 03 2013  19 36  -21.0733 26034.8 -03405.3 -07.4518 26256.6
 30 03 2013  19 37  -21.0730 26034.8 -03405.5 -07.4523 26256.5
 30 03 2013  19 38  -21.0728 26035.1 -03405.8 -07.4529 26256.9
 30 03 2013  19 39  -21.0730 26035.3 -03406.2 -07.4536 26257.2
 30 03 2013  19 40  -21.0728 26035.3 -03406.3 -07.4539 26257.2
 30 03 2013  19 41  -21.0723 26035.3 -03406.4 -07.4542 26257.2
 30 03 2013  19 42  -21.0724 26035.5 -03406.7 -07.4547 26257.5
 30 03 2013  19 43  -21.0726 26035.6 -03406.9 -07.4551 26257.5
 30 03 2013  19 44  -21.0728 26035.6 -03407.0 -07.4554 26257.5
 30 03 2013  19 45  -21.0723 26035.2 -03407.0 -07.4554 26257.2
 30 03 2013  19 46  -21.0722 26034.9 -03407.0 -07.4556 26256.9
 30 03 2013  19 47  -21.0718 26034.5 -03407.0 -07.4556 26256.4
 30 03 2013  19 48  -21.0711 26033.9 -03406.9 -07.4555 26255.8
 30 03 2013  19 49  -21.0707 26033.5 -03406.9 -07.4557 26255.5
 30 03 2013  19 50  -21.0702 26033.0 -03406.9 -07.4559 26255.0
 30 03 2013  19 51  -21.0699 26032.8 -03407.1 -07.4562 26254.8
 30 03 2013  19 52  -21.0695 26032.3 -03407.2 -07.4566 26254.4
 30 03 2013  19 53  -21.0691 26032.0 -03407.2 -07.4569 26254.0
 30 03 2013  19 54  -21.0685 26031.7 -03407.4 -07.4572 26253.7
 30 03 2013  19 55  -21.0677 26031.4 -03407.6 -07.4578 26253.5
 30 03 2013  19 56  -21.0673 26031.5 -03407.9 -07.4584 26253.7
 30 03 2013  19 57  -21.0667 26031.4 -03408.2 -07.4590 26253.6
 30 03 2013  19 58  -21.0660 26031.3 -03408.4 -07.4596 26253.5
 30 03 2013  19 59  -21.0653 26030.9 -03408.5 -07.4600 26253.2
 30 03 2013  20 00  -21.0647 26030.6 -03408.7 -07.4604 26252.9
 30 03 2013  20 01  -21.0646 26030.7 -03409.0 -07.4610 26253.0
 30 03 2013  20 02  -21.0648 26030.9 -03409.3 -07.4616 26253.2
 30 03 2013  20 03  -21.0649 26030.8 -03409.6 -07.4622 26253.1
 30 03 2013  20 04  -21.0650 26030.8 -03409.8 -07.4626 26253.1
 30 03 2013  20 05  -21.0650 26030.5 -03409.8 -07.4629 26252.9
 30 03 2013  20 06  -21.0646 26029.9 -03409.8 -07.4630 26252.3
 30 03 2013  20 07  -21.0641 26029.3 -03409.7 -07.4629 26251.7
 30 03 2013  20 08  -21.0639 26028.7 -03409.6 -07.4630 26251.0
 30 03 2013  20 09  -21.0634 26028.1 -03409.7 -07.4632 26250.5
 30 03 2013  20 10  -21.0627 26027.3 -03409.5 -07.4632 26249.7
 30 03 2013  20 11  -21.0616 26026.6 -03409.5 -07.4632 26249.0
 30 03 2013  20 12  -21.0604 26026.4 -03409.7 -07.4637 26248.8
 30 03 2013  20 13  -21.0594 26026.6 -03410.1 -07.4645 26249.0
 30 03 2013  20 14  -21.0593 26027.2 -03410.7 -07.4657 26249.7
 30 03 2013  20 15  -21.0598 26027.7 -03411.3 -07.4668 26250.3
 30 03 2013  20 16  -21.0601 26027.6 -03411.5 -07.4673 26250.2
 30 03 2013  20 17  -21.0598 26026.8 -03411.3 -07.4672 26249.5
 30 03 2013  20 18  -21.0593 26026.2 -03411.2 -07.4671 26248.8
 30 03 2013  20 19  -21.0587 26025.9 -03411.2 -07.4672 26248.5
 30 03 2013  20 20  -21.0579 26025.6 -03411.3 -07.4674 26248.2
 30 03 2013  20 21  -21.0573 26025.5 -03411.5 -07.4679 26248.2
 30 03 2013  20 22  -21.0567 26025.4 -03411.7 -07.4683 26248.1
 30 03 2013  20 23  -21.0562 26025.3 -03411.9 -07.4688 26247.9
 30 03 2013  20 24  -21.0558 26025.1 -03412.0 -07.4691 26247.8
 30 03 2013  20 25  -21.0553 26024.9 -03412.2 -07.4695 26247.6
 30 03 2013  20 26  -21.0548 26025.0 -03412.4 -07.4701 26247.7
 30 03 2013  20 27  -21.0544 26025.1 -03412.7 -07.4707 26247.9
 30 03 2013  20 28  -21.0541 26024.9 -03412.9 -07.4711 26247.8
 30 03 2013  20 29  -21.0538 26024.8 -03413.0 -07.4714 26247.6
 30 03 2013  20 30  -21.0534 26024.7 -03413.2 -07.4718 26247.6
 30 03 2013  20 31  -21.0531 26024.6 -03413.4 -07.4722 26247.5
 30 03 2013  20 32  -21.0529 26024.6 -03413.6 -07.4726 26247.5
 30 03 2013  20 33  -21.0526 26024.8 -03413.9 -07.4733 26247.7
 30 03 2013  20 34  -21.0525 26024.8 -03414.1 -07.4738 26247.8
 30 03 2013  20 35  -21.0523 26024.8 -03414.4 -07.4743 26247.8
 30 03 2013  20 36  -21.0523 26024.8 -03414.6 -07.4748 26247.9
 30 03 2013  20 37  -21.0522 26024.8 -03414.8 -07.4752 26247.9
 30 03 2013  20 38  -21.0523 26024.7 -03414.9 -07.4755 26247.8
 30 03 2013  20 39  -21.0522 26024.4 -03415.0 -07.4757 26247.5
 30 03 2013  20 40  -21.0519 26024.2 -03415.0 -07.4759 26247.3
 30 03 2013  20 41  -21.0516 26023.9 -03415.1 -07.4762 26247.1
 30 03 2013  20 42  -21.0514 26023.8 -03415.2 -07.4764 26246.9
 30 03 2013  20 43  -21.0512 26023.5 -03415.3 -07.4767 26246.7
 30 03 2013  20 44  -21.0510 26023.3 -03415.4 -07.4771 26246.5
 30 03 2013  20 45  -21.0508 26023.1 -03415.6 -07.4774 26246.3
 30 03 2013  20 46  -21.0508 26023.0 -03415.8 -07.4778 26246.3
 30 03 2013  20 47  -21.0508 26023.0 -03415.9 -07.4782 26246.2
 30 03 2013  20 48  -21.0508 26022.7 -03416.0 -07.4785 26246.0
 30 03 2013  20 49  -21.0509 26022.6 -03416.1 -07.4788 26245.8
 30 03 2013  20 50  -21.0510 26022.4 -03416.2 -07.4790 26245.6
 30 03 2013  20 51  -21.0511 26022.1 -03416.3 -07.4793 26245.4
 30 03 2013  20 52  -21.0510 26021.9 -03416.4 -07.4795 26245.2
 30 03 2013  20 53  -21.0511 26021.6 -03416.4 -07.4796 26244.9
 30 03 2013  20 54  -21.0510 26021.6 -03416.6 -07.4800 26244.9
 30 03 2013  20 55  -21.0510 26021.4 -03416.7 -07.4803 26244.8
 30 03 2013  20 56  -21.0508 26021.3 -03416.8 -07.4805 26244.6
 30 03 2013  20 57  -21.0509 26021.2 -03416.9 -07.4807 26244.6
 30 03 2013  20 58  -21.0509 26021.3 -03417.1 -07.4812 26244.7
 30 03 2013  20 59  -21.0510 26021.1 -03417.1 -07.4813 26244.5
 30 03 2013  21 00  -21.0509 26020.9 -03417.2 -07.4816 26244.3
 30 03 2013  21 01  -21.0510 26020.8 -03417.3 -07.4818 26244.2
 30 03 2013  21 02  -21.0509 26020.7 -03417.4 -07.4820 26244.2
 30 03 2013  21 03  -21.0509 26020.6 -03417.5 -07.4823 26244.1
 30 03 2013  21 04  -21.0508 26020.5 -03417.6 -07.4825 26244.0
 30 03 2013  21 05  -21.0506 26020.4 -03417.6 -07.4826 26243.9
 30 03 2013  21 06  -21.0505 26020.0 -03417.5 -07.4826 26243.4
 30 03 2013  21 07  -21.0503 26020.2 -03417.8 -07.4830 26243.7
 30 03 2013  21 08  -21.0500 26020.1 -03417.9 -07.4832 26243.6
 30 03 2013  21 09  -21.0496 26020.1 -03418.0 -07.4835 26243.7
 30 03 2013  21 10  -21.0493 26020.2 -03418.2 -07.4839 26243.8
 30 03 2013  21 11  -21.0492 26020.4 -03418.4 -07.4843 26244.0
 30 03 2013  21 12  -21.0490 26020.7 -03418.7 -07.4848 26244.3
 30 03 2013  21 13  -21.0489 26020.9 -03418.9 -07.4853 26244.5
 30 03 2013  21 14  -21.0490 26021.0 -03419.1 -07.4856 26244.7
 30 03 2013  21 15  -21.0490 26021.2 -03419.3 -07.4861 26244.9
 30 03 2013  21 16  -21.0492 26021.4 -03419.5 -07.4865 26245.1
 30 03 2013  21 17  -21.0493 26021.5 -03419.7 -07.4868 26245.2
 30 03 2013  21 18  -21.0494 26021.8 -03419.9 -07.4872 26245.5
 30 03 2013  21 19  -21.0493 26022.2 -03420.2 -07.4877 26246.0
 30 03 2013  21 20  -21.0490 26022.3 -03420.4 -07.4880 26246.1
 30 03 2013  21 21  -21.0490 26022.6 -03420.6 -07.4884 26246.4
 30 03 2013  21 22  -21.0489 26022.7 -03420.7 -07.4886 26246.6
 30 03 2013  21 23  -21.0489 26022.7 -03420.7 -07.4887 26246.6
 30 03 2013  21 24  -21.0489 26023.0 -03420.9 -07.4890 26246.9
 30 03 2013  21 25  -21.0490 26023.1 -03421.0 -07.4893 26247.0
 30 03 2013  21 26  -21.0489 26023.2 -03421.2 -07.4894 26247.1
 30 03 2013  21 27  -21.0489 26023.6 -03421.4 -07.4898 26247.5
 30 03 2013  21 28  -21.0491 26023.9 -03421.6 -07.4902 26247.9
 30 03 2013  21 29  -21.0494 26024.2 -03421.8 -07.4905 26248.2
 30 03 2013  21 30  -21.0497 26024.4 -03421.9 -07.4907 26248.4
 30 03 2013  21 31  -21.0499 26024.7 -03422.1 -07.4910 26248.8
 30 03 2013  21 32  -21.0502 26025.0 -03422.2 -07.4913 26249.0
 30 03 2013  21 33  -21.0503 26025.1 -03422.3 -07.4914 26249.2
 30 03 2013  21 34  -21.0504 26025.6 -03422.5 -07.4918 26249.7
 30 03 2013  21 35  -21.0507 26026.0 -03422.7 -07.4920 26250.1
 30 03 2013  21 36  -21.0507 26026.4 -03422.9 -07.4924 26250.5
 30 03 2013  21 37  -21.0513 26026.5 -03423.0 -07.4926 26250.6
 30 03 2013  21 38  -21.0518 26026.3 -03423.0 -07.4925 26250.5
 30 03 2013  21 39  -21.0521 26026.1 -03422.8 -07.4923 26250.3
 30 03 2013  21 40  -21.0522 26026.3 -03422.8 -07.4922 26250.4
 30 03 2013  21 41  -21.0519 26026.5 -03422.9 -07.4923 26250.7
 30 03 2013  21 42  -21.0514 26027.3 -03423.3 -07.4930 26251.5
 30 03 2013  21 43  -21.0511 26028.3 -03423.8 -07.4938 26252.5
 30 03 2013  21 44  -21.0512 26029.0 -03424.2 -07.4944 26253.2
 30 03 2013  21 45  -21.0516 26029.1 -03424.3 -07.4946 26253.3
 30 03 2013  21 46  -21.0520 26028.8 -03424.2 -07.4944 26253.0
 30 03 2013  21 47  -21.0524 26028.5 -03423.9 -07.4940 26252.8
 30 03 2013  21 48  -21.0527 26028.5 -03423.9 -07.4938 26252.7
 30 03 2013  21 49  -21.0529 26028.9 -03424.0 -07.4940 26253.1
 30 03 2013  21 50  -21.0530 26028.9 -03424.0 -07.4941 26253.1
 30 03 2013  21 51  -21.0532 26029.1 -03424.1 -07.4942 26253.3
 30 03 2013  21 52  -21.0532 26029.3 -03424.2 -07.4943 26253.6
 30 03 2013  21 53  -21.0534 26029.6 -03424.3 -07.4945 26253.9
 30 03 2013  21 54  -21.0537 26029.8 -03424.4 -07.4946 26254.1
 30 03 2013  21 55  -21.0538 26030.2 -03424.6 -07.4948 26254.5
 30 03 2013  21 56  -21.0536 26030.6 -03424.7 -07.4950 26254.9
 30 03 2013  21 57  -21.0531 26030.8 -03424.8 -07.4951 26255.1
 30 03 2013  21 58  -21.0529 26030.7 -03424.7 -07.4949 26255.0
 30 03 2013  21 59  -21.0529 26030.6 -03424.6 -07.4947 26254.9
 30 03 2013  22 00  -21.0529 26031.0 -03424.7 -07.4949 26255.4
 30 03 2013  22 01  -21.0532 26031.0 -03424.8 -07.4950 26255.4
 30 03 2013  22 02  -21.0535 26030.9 -03424.6 -07.4948 26255.2
 30 03 2013  22 03  -21.0537 26030.5 -03424.4 -07.4944 26254.8
 30 03 2013  22 04  -21.0538 26030.0 -03424.1 -07.4939 26254.3
 30 03 2013  22 05  -21.0540 26029.4 -03423.8 -07.4933 26253.6
 30 03 2013  22 06  -21.0541 26029.0 -03423.5 -07.4928 26253.1
 30 03 2013  22 07  -21.0541 26028.8 -03423.3 -07.4926 26252.9
 30 03 2013  22 08  -21.0540 26028.6 -03423.3 -07.4925 26252.7
 30 03 2013  22 09  -21.0538 26028.6 -03423.3 -07.4925 26252.8
 30 03 2013  22 10  -21.0536 26028.9 -03423.4 -07.4927 26253.1
 30 03 2013  22 11  -21.0536 26029.2 -03423.7 -07.4931 26253.4
 30 03 2013  22 12  -21.0538 26029.3 -03423.7 -07.4933 26253.5
 30 03 2013  22 13  -21.0540 26029.0 -03423.6 -07.4931 26253.2
 30 03 2013  22 14  -21.0545 26028.4 -03423.4 -07.4928 26252.6
 30 03 2013  22 15  -21.0550 26027.8 -03423.0 -07.4922 26251.9
 30 03 2013  22 16  -21.0554 26027.2 -03422.7 -07.4917 26251.3
 30 03 2013  22 17  -21.0557 26026.7 -03422.5 -07.4914 26250.8
 30 03 2013  22 18  -21.0560 26026.5 -03422.4 -07.4912 26250.5
 30 03 2013  22 19  -21.0563 26026.2 -03422.3 -07.4911 26250.2
 30 03 2013  22 20  -21.0563 26026.1 -03422.3 -07.4911 26250.2
 30 03 2013  22 21  -21.0563 26026.2 -03422.3 -07.4912 26250.2
 30 03 2013  22 22  -21.0562 26026.2 -03422.4 -07.4913 26250.2
 30 03 2013  22 23  -21.0561 26026.1 -03422.4 -07.4913 26250.1
 30 03 2013  22 24  -21.0560 26026.0 -03422.4 -07.4913 26250.0
 30 03 2013  22 25  -21.0560 26026.0 -03422.4 -07.4914 26250.0
 30 03 2013  22 26  -21.0562 26026.0 -03422.5 -07.4916 26250.1
 30 03 2013  22 27  -21.0563 26026.1 -03422.6 -07.4917 26250.2
 30 03 2013  22 28  -21.0565 26026.1 -03422.6 -07.4917 26250.1
 30 03 2013  22 29  -21.0565 26026.0 -03422.6 -07.4917 26250.1
 30 03 2013  22 30  -21.0566 26025.8 -03422.4 -07.4915 26249.8
 30 03 2013  22 31  -21.0565 26025.5 -03422.3 -07.4913 26249.5
 30 03 2013  22 32  -21.0565 26025.3 -03422.2 -07.4912 26249.4
 30 03 2013  22 33  -21.0562 26025.4 -03422.3 -07.4912 26249.5
 30 03 2013  22 34  -21.0560 26025.8 -03422.5 -07.4916 26249.8
 30 03 2013  22 35  -21.0559 26026.1 -03422.7 -07.4920 26250.2
 30 03 2013  22 36  -21.0559 26026.4 -03422.9 -07.4922 26250.5
 30 03 2013  22 37  -21.0561 26026.5 -03423.0 -07.4924 26250.7
 30 03 2013  22 38  -21.0561 26026.7 -03423.1 -07.4926 26250.8
 30 03 2013  22 39  -21.0562 26026.6 -03423.0 -07.4925 26250.8
 30 03 2013  22 40  -21.0564 26026.5 -03422.9 -07.4924 26250.6
 30 03 2013  22 41  -21.0565 26026.3 -03422.8 -07.4921 26250.4
 30 03 2013  22 42  -21.0568 26026.1 -03422.7 -07.4920 26250.2
 30 03 2013  22 43  -21.0571 26026.0 -03422.7 -07.4920 26250.1
 30 03 2013  22 44  -21.0575 26025.9 -03422.6 -07.4918 26250.0
 30 03 2013  22 45  -21.0578 26025.7 -03422.5 -07.4916 26249.7
 30 03 2013  22 46  -21.0579 26025.4 -03422.3 -07.4914 26249.4
 30 03 2013  22 47  -21.0579 26025.2 -03422.2 -07.4912 26249.3
 30 03 2013  22 48  -21.0581 26025.2 -03422.2 -07.4912 26249.2
 30 03 2013  22 49  -21.0580 26025.0 -03422.2 -07.4911 26249.0
 30 03 2013  22 50  -21.0581 26024.8 -03422.1 -07.4910 26248.8
 30 03 2013  22 51  -21.0582 26024.6 -03422.0 -07.4909 26248.7
 30 03 2013  22 52  -21.0581 26024.6 -03422.0 -07.4909 26248.6
 30 03 2013  22 53  -21.0581 26024.6 -03422.0 -07.4909 26248.6
 30 03 2013  22 54  -21.0580 26024.6 -03422.1 -07.4910 26248.6
 30 03 2013  22 55  -21.0580 26024.6 -03422.1 -07.4911 26248.7
 30 03 2013  22 56  -21.0580 26024.6 -03422.1 -07.4911 26248.6
 30 03 2013  22 57  -21.0581 26024.5 -03422.1 -07.4911 26248.5
 30 03 2013  22 58  -21.0582 26024.4 -03422.1 -07.4912 26248.5
 30 03 2013  22 59  -21.0582 26024.3 -03422.0 -07.4910 26248.3
 30 03 2013  23 00  -21.0583 26024.3 -03422.0 -07.4910 26248.3
 30 03 2013  23 01  -21.0584 26024.3 -03422.1 -07.4912 26248.4
 30 03 2013  23 02  -21.0584 26024.6 -03422.2 -07.4913 26248.6
 30 03 2013  23 03  -21.0584 26024.6 -03422.3 -07.4915 26248.7
 30 03 2013  23 04  -21.0584 26024.6 -03422.3 -07.4915 26248.7
 30 03 2013  23 05  -21.0585 26024.5 -03422.2 -07.4914 26248.5
 30 03 2013  23 06  -21.0586 26024.3 -03422.2 -07.4913 26248.4
 30 03 2013  23 07  -21.0586 26024.3 -03422.2 -07.4913 26248.4
 30 03 2013  23 08  -21.0585 26024.3 -03422.2 -07.4913 26248.4
 30 03 2013  23 09  -21.0584 26024.4 -03422.2 -07.4914 26248.4
 30 03 2013  23 10  -21.0584 26024.1 -03422.1 -07.4912 26248.1
 30 03 2013  23 11  -21.0584 26024.2 -03422.1 -07.4911 26248.2
 30 03 2013  23 12  -21.0582 26024.2 -03422.1 -07.4913 26248.3
 30 03 2013  23 13  -21.0580 26024.4 -03422.2 -07.4914 26248.5
 30 03 2013  23 14  -21.0579 26024.6 -03422.4 -07.4917 26248.7
 30 03 2013  23 15  -21.0578 26024.8 -03422.5 -07.4918 26248.9
 30 03 2013  23 16  -21.0577 26025.0 -03422.6 -07.4920 26249.1
 30 03 2013  23 17  -21.0576 26025.0 -03422.6 -07.4921 26249.1
 30 03 2013  23 18  -21.0577 26025.0 -03422.6 -07.4920 26249.0
 30 03 2013  23 19  -21.0577 26024.9 -03422.5 -07.4920 26249.0
 30 03 2013  23 20  -21.0577 26024.8 -03422.5 -07.4919 26248.9
 30 03 2013  23 21  -21.0578 26024.7 -03422.5 -07.4919 26248.8
 30 03 2013  23 22  -21.0579 26024.6 -03422.4 -07.4918 26248.7
 30 03 2013  23 23  -21.0580 26024.6 -03422.3 -07.4917 26248.6
 30 03 2013  23 24  -21.0580 26024.5 -03422.3 -07.4916 26248.6
 30 03 2013  23 25  -21.0581 26024.5 -03422.3 -07.4916 26248.5
 30 03 2013  23 26  -21.0581 26024.5 -03422.3 -07.4916 26248.5
 30 03 2013  23 27  -21.0581 26024.5 -03422.4 -07.4917 26248.6
 30 03 2013  23 28  -21.0581 26024.6 -03422.4 -07.4917 26248.7
 30 03 2013  23 29  -21.0580 26024.7 -03422.5 -07.4919 26248.8
 30 03 2013  23 30  -21.0580 26024.7 -03422.5 -07.4919 26248.8
 30 03 2013  23 31  -21.0580 26024.7 -03422.5 -07.4919 26248.7
 30 03 2013  23 32  -21.0580 26024.6 -03422.5 -07.4919 26248.7
 30 03 2013  23 33  -21.0580 26024.7 -03422.5 -07.4919 26248.8
 30 03 2013  23 34  -21.0580 26024.8 -03422.6 -07.4920 26248.9
 30 03 2013  23 35  -21.0580 26025.0 -03422.6 -07.4922 26249.1
 30 03 2013  23 36  -21.0580 26025.1 -03422.7 -07.4922 26249.2
 30 03 2013  23 37  -21.0579 26025.1 -03422.7 -07.4922 26249.2
 30 03 2013  23 38  -21.0578 26025.1 -03422.7 -07.4922 26249.2
 30 03 2013  23 39  -21.0577 26025.1 -03422.7 -07.4922 26249.2
 30 03 2013  23 40  -21.0577 26025.0 -03422.6 -07.4921 26249.1
 30 03 2013  23 41  -21.0577 26025.1 -03422.6 -07.4921 26249.2
 30 03 2013  23 42  -21.0577 26025.1 -03422.6 -07.4921 26249.1
 30 03 2013  23 43  -21.0577 26025.1 -03422.6 -07.4921 26249.2
 30 03 2013  23 44  -21.0578 26025.1 -03422.6 -07.4921 26249.1
 30 03 2013  23 45  -21.0577 26025.1 -03422.6 -07.4921 26249.2
 30 03 2013  23 46  -21.0577 26025.1 -03422.6 -07.4920 26249.2
 30 03 2013  23 47  -21.0575 26025.2 -03422.6 -07.4921 26249.3
 30 03 2013  23 48  -21.0575 26025.2 -03422.6 -07.4921 26249.3
 30 03 2013  23 49  -21.0573 26025.2 -03422.7 -07.4922 26249.3
 30 03 2013  23 50  -21.0572 26025.3 -03422.7 -07.4923 26249.4
 30 03 2013  23 51  -21.0571 26025.4 -03422.7 -07.4923 26249.5
 30 03 2013  23 52  -21.0570 26025.5 -03422.8 -07.4924 26249.6
 30 03 2013  23 53  -21.0570 26025.5 -03422.8 -07.4924 26249.7
 30 03 2013  23 54  -21.0569 26025.7 -03422.9 -07.4925 26249.8
 30 03 2013  23 55  -21.0568 26025.8 -03423.0 -07.4927 26250.0
 30 03 2013  23 56  -21.0566 26025.8 -03422.9 -07.4925 26249.9
 30 03 2013  23 57  -21.0566 26025.8 -03422.9 -07.4925 26249.9
