SAO LUIS EMBRACE-03 <303> 1 Min. Reported data

 DD MM YYYY  HH MM   D(Deg)  H(nT)   Z(nT)   I(Deg)   F(nT)

 30 10 2013  00 00  -21.0005 26025.5 -03501.0 -07.6615 26259.9
 30 10 2013  00 01  -21.0007 26025.5 -03501.0 -07.6616 26259.9
 30 10 2013  00 02  -21.0006 26025.4 -03501.0 -07.6616 26259.8
 30 10 2013  00 03  -21.0006 26025.4 -03501.0 -07.6617 26259.8
 30 10 2013  00 04  -21.0006 26025.3 -03501.0 -07.6617 26259.7
 30 10 2013  00 05  -21.0005 26025.3 -03501.1 -07.6617 26259.7
 30 10 2013  00 06  -21.0004 26025.3 -03501.1 -07.6618 26259.7
 30 10 2013  00 07  -21.0003 26025.2 -03501.1 -07.6618 26259.7
 30 10 2013  00 08  -21.0002 26025.2 -03501.1 -07.6619 26259.6
 30 10 2013  00 09  -21.0001 26025.2 -03501.1 -07.6619 26259.6
 30 10 2013  00 10  -21.0001 26025.1 -03501.2 -07.6620 26259.6
 30 10 2013  00 11  -21.0002 26025.1 -03501.2 -07.6621 26259.6
 30 10 2013  00 12  -21.0003 26025.1 -03501.2 -07.6622 26259.6
 30 10 2013  00 13  -21.0002 26025.1 -03501.2 -07.6622 26259.6
 30 10 2013  00 14  -21.0002 26025.1 -03501.3 -07.6622 26259.6
 30 10 2013  00 15  -21.0002 26025.2 -03501.3 -07.6623 26259.6
 30 10 2013  00 16  -21.0003 26025.2 -03501.3 -07.6624 26259.6
 30 10 2013  00 17  -21.0005 26025.1 -03501.4 -07.6624 26259.6
 30 10 2013  00 18  -21.0004 26025.1 -03501.4 -07.6624 26259.6
 30 10 2013  00 19  -21.0003 26025.1 -03501.3 -07.6624 26259.6
 30 10 2013  00 20  -21.0002 26025.1 -03501.3 -07.6624 26259.6
 30 10 2013  00 21  -21.0000 26025.1 -03501.4 -07.6624 26259.5
 30 10 2013  00 22  -20.9998 26025.0 -03501.3 -07.6623 26259.5
 30 10 2013  00 23  -20.9998 26024.9 -03501.3 -07.6623 26259.4
 30 10 2013  00 24  -20.9998 26024.9 -03501.3 -07.6623 26259.4
 30 10 2013  00 25  -20.9996 26024.9 -03501.3 -07.6623 26259.4
 30 10 2013  00 26  -20.9994 26024.8 -03501.2 -07.6622 26259.3
 30 10 2013  00 27  -20.9993 26024.7 -03501.2 -07.6622 26259.2
 30 10 2013  00 28  -20.9993 26024.6 -03501.2 -07.6622 26259.0
 30 10 2013  00 29  -20.9992 26024.4 -03501.1 -07.6621 26258.9
 30 10 2013  00 30  -20.9992 26024.3 -03501.1 -07.6621 26258.7
 30 10 2013  00 31  -20.9991 26024.3 -03501.1 -07.6621 26258.7
 30 10 2013  00 32  -20.9992 26024.2 -03501.1 -07.6621 26258.6
 30 10 2013  00 33  -20.9992 26024.1 -03501.1 -07.6621 26258.6
 30 10 2013  00 34  -20.9992 26024.0 -03501.0 -07.6620 26258.4
 30 10 2013  00 35  -20.9992 26023.9 -03501.0 -07.6620 26258.4
 30 10 2013  00 36  -20.9991 26023.8 -03501.0 -07.6620 26258.3
 30 10 2013  00 37  -20.9991 26023.8 -03501.0 -07.6621 26258.2
 30 10 2013  00 38  -20.9991 26023.8 -03501.0 -07.6620 26258.2
 30 10 2013  00 39  -20.9991 26023.7 -03501.0 -07.6621 26258.1
 30 10 2013  00 40  -20.9992 26023.6 -03501.0 -07.6621 26258.1
 30 10 2013  00 41  -20.9992 26023.5 -03501.0 -07.6621 26258.0
 30 10 2013  00 42  -20.9993 26023.5 -03501.0 -07.6621 26257.9
 30 10 2013  00 43  -20.9992 26023.5 -03501.0 -07.6622 26257.9
 30 10 2013  00 44  -20.9993 26023.5 -03501.1 -07.6623 26258.0
 30 10 2013  00 45  -20.9994 26023.5 -03501.1 -07.6624 26258.0
 30 10 2013  00 46  -20.9994 26023.6 -03501.2 -07.6626 26258.1
 30 10 2013  00 47  -20.9995 26023.7 -03501.3 -07.6627 26258.2
 30 10 2013  00 48  -20.9995 26023.8 -03501.4 -07.6629 26258.3
 30 10 2013  00 49  -20.9995 26023.9 -03501.5 -07.6630 26258.4
 30 10 2013  00 50  -20.9995 26024.0 -03501.5 -07.6630 26258.5
 30 10 2013  00 51  -20.9994 26023.9 -03501.5 -07.6631 26258.4
 30 10 2013  00 52  -20.9992 26023.9 -03501.5 -07.6631 26258.4
 30 10 2013  00 53  -20.9990 26023.8 -03501.5 -07.6630 26258.3
 30 10 2013  00 54  -20.9988 26023.7 -03501.4 -07.6630 26258.2
 30 10 2013  00 55  -20.9987 26023.7 -03501.5 -07.6631 26258.2
 30 10 2013  00 56  -20.9987 26023.6 -03501.5 -07.6632 26258.1
 30 10 2013  00 57  -20.9988 26023.6 -03501.5 -07.6633 26258.1
 30 10 2013  00 58  -20.9988 26023.6 -03501.6 -07.6633 26258.1
 30 10 2013  00 59  -20.9987 26023.6 -03501.6 -07.6635 26258.1
 30 10 2013  01 00  -20.9987 26023.6 -03501.7 -07.6636 26258.2
 30 10 2013  01 01  -20.9985 26023.7 -03501.8 -07.6637 26258.2
 30 10 2013  01 02  -20.9986 26023.8 -03501.9 -07.6640 26258.4
 30 10 2013  01 03  -20.9987 26024.0 -03502.0 -07.6641 26258.6
 30 10 2013  01 04  -20.9988 26024.1 -03502.1 -07.6642 26258.7
 30 10 2013  01 05  -20.9989 26024.2 -03502.1 -07.6643 26258.7
 30 10 2013  01 06  -20.9988 26024.2 -03502.2 -07.6644 26258.8
 30 10 2013  01 07  -20.9988 26024.2 -03502.1 -07.6644 26258.8
 30 10 2013  01 08  -20.9989 26024.1 -03502.1 -07.6644 26258.7
 30 10 2013  01 09  -20.9988 26024.1 -03502.1 -07.6644 26258.7
 30 10 2013  01 10  -20.9990 26024.1 -03502.2 -07.6645 26258.7
 30 10 2013  01 11  -20.9990 26024.1 -03502.2 -07.6645 26258.7
 30 10 2013  01 12  -20.9991 26024.0 -03502.1 -07.6644 26258.6
 30 10 2013  01 13  -20.9993 26023.9 -03502.1 -07.6644 26258.5
 30 10 2013  01 14  -20.9993 26023.8 -03502.1 -07.6644 26258.4
 30 10 2013  01 15  -20.9994 26023.7 -03502.1 -07.6643 26258.3
 30 10 2013  01 16  -20.9994 26023.7 -03502.0 -07.6643 26258.2
 30 10 2013  01 17  -20.9994 26023.6 -03502.0 -07.6643 26258.2
 30 10 2013  01 18  -20.9994 26023.4 -03502.0 -07.6642 26258.0
 30 10 2013  01 19  -20.9995 26023.3 -03501.9 -07.6642 26257.9
 30 10 2013  01 20  -20.9995 26023.3 -03501.9 -07.6642 26257.9
 30 10 2013  01 21  -20.9995 26023.2 -03501.9 -07.6642 26257.8
 30 10 2013  01 22  -20.9995 26023.1 -03501.9 -07.6641 26257.6
 30 10 2013  01 23  -20.9995 26022.9 -03501.8 -07.6641 26257.4
 30 10 2013  01 24  -20.9994 26022.7 -03501.8 -07.6641 26257.3
 30 10 2013  01 25  -20.9995 26022.7 -03501.8 -07.6641 26257.2
 30 10 2013  01 26  -20.9995 26022.5 -03501.8 -07.6641 26257.1
 30 10 2013  01 27  -20.9996 26022.5 -03501.8 -07.6641 26257.0
 30 10 2013  01 28  -20.9996 26022.4 -03501.8 -07.6642 26257.0
 30 10 2013  01 29  -20.9997 26022.4 -03501.9 -07.6643 26257.0
 30 10 2013  01 30  -20.9999 26022.4 -03501.9 -07.6645 26257.0
 30 10 2013  01 31  -21.0000 26022.5 -03502.0 -07.6646 26257.1
 30 10 2013  01 32  -21.0001 26022.5 -03502.0 -07.6646 26257.1
 30 10 2013  01 33  -21.0001 26022.5 -03502.1 -07.6647 26257.1
 30 10 2013  01 34  -21.0000 26022.6 -03502.1 -07.6648 26257.2
 30 10 2013  01 35  -21.0002 26022.6 -03502.2 -07.6649 26257.2
 30 10 2013  01 36  -21.0004 26022.6 -03502.2 -07.6650 26257.2
 30 10 2013  01 37  -21.0005 26022.5 -03502.2 -07.6649 26257.1
 30 10 2013  01 38  -21.0005 26022.4 -03502.1 -07.6649 26257.0
 30 10 2013  01 39  -21.0005 26022.2 -03502.1 -07.6648 26256.8
 30 10 2013  01 40  -21.0004 26022.1 -03502.0 -07.6647 26256.7
 30 10 2013  01 41  -21.0003 26021.9 -03502.0 -07.6646 26256.5
 30 10 2013  01 42  -21.0003 26021.8 -03501.9 -07.6646 26256.4
 30 10 2013  01 43  -21.0004 26021.7 -03501.9 -07.6646 26256.2
 30 10 2013  01 44  -21.0005 26021.5 -03501.9 -07.6646 26256.1
 30 10 2013  01 45  -21.0006 26021.2 -03501.8 -07.6645 26255.8
 30 10 2013  01 46  -21.0007 26020.9 -03501.7 -07.6643 26255.5
 30 10 2013  01 47  -21.0007 26020.4 -03501.5 -07.6641 26255.0
 30 10 2013  01 48  -21.0006 26020.0 -03501.4 -07.6639 26254.6
 30 10 2013  01 49  -21.0010 26019.8 -03501.3 -07.6639 26254.4
 30 10 2013  01 50  -21.0015 26019.6 -03501.3 -07.6639 26254.1
 30 10 2013  01 51  -21.0019 26019.4 -03501.3 -07.6639 26253.9
 30 10 2013  01 52  -21.0023 26019.3 -03501.3 -07.6640 26253.9
 30 10 2013  01 53  -21.0029 26019.4 -03501.4 -07.6643 26254.0
 30 10 2013  01 54  -21.0030 26019.4 -03501.5 -07.6644 26253.9
 30 10 2013  01 55  -21.0032 26019.5 -03501.6 -07.6646 26254.0
 30 10 2013  01 56  -21.0034 26019.6 -03501.7 -07.6648 26254.1
 30 10 2013  01 57  -21.0038 26019.6 -03501.8 -07.6649 26254.2
 30 10 2013  01 58  -21.0040 26019.7 -03501.9 -07.6651 26254.3
 30 10 2013  01 59  -21.0043 26019.7 -03501.9 -07.6652 26254.3
 30 10 2013  02 00  -21.0046 26019.6 -03501.9 -07.6652 26254.2
 30 10 2013  02 01  -21.0048 26019.4 -03501.8 -07.6651 26253.9
 30 10 2013  02 02  -21.0049 26019.1 -03501.8 -07.6650 26253.7
 30 10 2013  02 03  -21.0050 26018.9 -03501.7 -07.6650 26253.5
 30 10 2013  02 04  -21.0052 26018.8 -03501.7 -07.6649 26253.4
 30 10 2013  02 05  -21.0054 26018.6 -03501.6 -07.6649 26253.2
 30 10 2013  02 06  -21.0058 26018.5 -03501.7 -07.6650 26253.1
 30 10 2013  02 07  -21.0060 26018.3 -03501.6 -07.6649 26252.9
 30 10 2013  02 08  -21.0062 26018.2 -03501.6 -07.6649 26252.8
 30 10 2013  02 09  -21.0065 26018.1 -03501.6 -07.6650 26252.7
 30 10 2013  02 10  -21.0067 26018.1 -03501.6 -07.6651 26252.7
 30 10 2013  02 11  -21.0069 26018.0 -03501.7 -07.6652 26252.6
 30 10 2013  02 12  -21.0070 26018.0 -03501.7 -07.6653 26252.6
 30 10 2013  02 13  -21.0073 26018.0 -03501.8 -07.6654 26252.6
 30 10 2013  02 14  -21.0074 26018.0 -03501.8 -07.6655 26252.6
 30 10 2013  02 15  -21.0075 26018.0 -03501.9 -07.6656 26252.6
 30 10 2013  02 16  -21.0075 26017.8 -03501.8 -07.6656 26252.4
 30 10 2013  02 17  -21.0075 26017.7 -03501.9 -07.6657 26252.3
 30 10 2013  02 18  -21.0075 26017.6 -03501.8 -07.6656 26252.2
 30 10 2013  02 19  -21.0078 26017.6 -03501.9 -07.6658 26252.2
 30 10 2013  02 20  -21.0079 26017.6 -03502.0 -07.6659 26252.2
 30 10 2013  02 21  -21.0079 26017.5 -03502.0 -07.6660 26252.2
 30 10 2013  02 22  -21.0082 26017.5 -03502.0 -07.6661 26252.2
 30 10 2013  02 23  -21.0083 26017.5 -03502.1 -07.6663 26252.1
 30 10 2013  02 24  -21.0085 26017.4 -03502.2 -07.6664 26252.1
 30 10 2013  02 25  -21.0088 26017.3 -03502.2 -07.6664 26252.0
 30 10 2013  02 26  -21.0091 26017.4 -03502.2 -07.6665 26252.0
 30 10 2013  02 27  -21.0092 26017.3 -03502.2 -07.6665 26251.9
 30 10 2013  02 28  -21.0093 26017.1 -03502.2 -07.6665 26251.8
 30 10 2013  02 29  -21.0093 26017.0 -03502.2 -07.6665 26251.7
 30 10 2013  02 30  -21.0094 26016.9 -03502.2 -07.6666 26251.6
 30 10 2013  02 31  -21.0094 26016.9 -03502.2 -07.6667 26251.5
 30 10 2013  02 32  -21.0094 26016.8 -03502.3 -07.6668 26251.5
 30 10 2013  02 33  -21.0095 26016.8 -03502.3 -07.6670 26251.5
 30 10 2013  02 34  -21.0095 26016.7 -03502.4 -07.6670 26251.4
 30 10 2013  02 35  -21.0095 26016.7 -03502.4 -07.6672 26251.4
 30 10 2013  02 36  -21.0095 26016.5 -03502.5 -07.6673 26251.2
 30 10 2013  02 37  -21.0096 26016.5 -03502.5 -07.6674 26251.2
 30 10 2013  02 38  -21.0097 26016.5 -03502.6 -07.6675 26251.2
 30 10 2013  02 39  -21.0097 26016.4 -03502.6 -07.6677 26251.2
 30 10 2013  02 40  -21.0098 26016.4 -03502.7 -07.6678 26251.1
 30 10 2013  02 41  -21.0099 26016.3 -03502.7 -07.6679 26251.1
 30 10 2013  02 42  -21.0100 26016.3 -03502.8 -07.6681 26251.1
 30 10 2013  02 43  -21.0101 26016.3 -03502.8 -07.6681 26251.0
 30 10 2013  02 44  -21.0101 26016.2 -03502.9 -07.6683 26251.0
 30 10 2013  02 45  -21.0103 26016.2 -03502.9 -07.6684 26250.9
 30 10 2013  02 46  -21.0103 26016.2 -03503.0 -07.6685 26251.0
 30 10 2013  02 47  -21.0105 26016.3 -03503.1 -07.6687 26251.1
 30 10 2013  02 48  -21.0104 26016.4 -03503.2 -07.6689 26251.2
 30 10 2013  02 49  -21.0105 26016.2 -03503.1 -07.6688 26251.0
 30 10 2013  02 50  -21.0107 26016.1 -03503.1 -07.6688 26250.9
 30 10 2013  02 51  -21.0108 26016.2 -03503.2 -07.6690 26251.0
 30 10 2013  02 52  -21.0109 26016.3 -03503.3 -07.6692 26251.1
 30 10 2013  02 53  -21.0110 26016.1 -03503.3 -07.6691 26250.9
 30 10 2013  02 54  -21.0112 26016.2 -03503.3 -07.6693 26251.0
 30 10 2013  02 55  -21.0114 26016.0 -03503.2 -07.6691 26250.8
 30 10 2013  02 56  -21.0117 26016.1 -03503.3 -07.6693 26250.9
 30 10 2013  02 57  -21.0119 26016.1 -03503.4 -07.6694 26251.0
 30 10 2013  02 58  -21.0122 26016.0 -03503.3 -07.6693 26250.8
 30 10 2013  02 59  -21.0123 26015.9 -03503.3 -07.6693 26250.7
 30 10 2013  03 00  -21.0123 26016.0 -03503.3 -07.6693 26250.9
 30 10 2013  03 01  -21.0125 26015.8 -03503.3 -07.6693 26250.6
 30 10 2013  03 02  -21.0128 26015.5 -03503.1 -07.6690 26250.3
 30 10 2013  03 03  -21.0130 26015.8 -03503.3 -07.6692 26250.7
 30 10 2013  03 04  -21.0130 26015.6 -03503.1 -07.6690 26250.4
 30 10 2013  03 05  -21.0133 26015.6 -03503.1 -07.6690 26250.4
 30 10 2013  03 06  -21.0135 26015.4 -03503.0 -07.6689 26250.2
 30 10 2013  03 07  -21.0135 26015.5 -03503.1 -07.6689 26250.3
 30 10 2013  03 08  -21.0136 26015.6 -03503.1 -07.6691 26250.4
 30 10 2013  03 09  -21.0138 26015.2 -03503.1 -07.6690 26250.0
 30 10 2013  03 10  -21.0140 26015.4 -03503.1 -07.6690 26250.1
 30 10 2013  03 11  -21.0140 26015.4 -03503.1 -07.6691 26250.2
 30 10 2013  03 12  -21.0141 26015.5 -03503.2 -07.6691 26250.3
 30 10 2013  03 13  -21.0143 26015.4 -03503.1 -07.6691 26250.2
 30 10 2013  03 14  -21.0145 26015.3 -03503.1 -07.6689 26250.1
 30 10 2013  03 15  -21.0147 26015.5 -03503.1 -07.6691 26250.3
 30 10 2013  03 16  -21.0149 26015.4 -03503.1 -07.6691 26250.2
 30 10 2013  03 17  -21.0151 26015.5 -03503.2 -07.6691 26250.3
 30 10 2013  03 18  -21.0153 26015.4 -03503.1 -07.6690 26250.2
 30 10 2013  03 19  -21.0155 26015.3 -03503.0 -07.6688 26250.0
 30 10 2013  03 20  -21.0158 26015.4 -03503.0 -07.6689 26250.1
 30 10 2013  03 21  -21.0162 26015.2 -03503.0 -07.6688 26250.0
 30 10 2013  03 22  -21.0164 26015.2 -03503.0 -07.6688 26250.0
 30 10 2013  03 23  -21.0166 26015.1 -03502.9 -07.6687 26249.9
 30 10 2013  03 24  -21.0169 26015.0 -03502.8 -07.6686 26249.7
 30 10 2013  03 25  -21.0173 26014.9 -03502.8 -07.6684 26249.6
 30 10 2013  03 26  -21.0176 26014.9 -03502.8 -07.6685 26249.6
 30 10 2013  03 27  -21.0177 26014.7 -03502.6 -07.6682 26249.4
 30 10 2013  03 28  -21.0179 26014.8 -03502.7 -07.6683 26249.5
 30 10 2013  03 29  -21.0180 26014.6 -03502.6 -07.6682 26249.3
 30 10 2013  03 30  -21.0184 26014.5 -03502.6 -07.6681 26249.3
 30 10 2013  03 31  -21.0189 26014.8 -03502.7 -07.6684 26249.6
 30 10 2013  03 32  -21.0190 26014.9 -03502.8 -07.6684 26249.6
 30 10 2013  03 33  -21.0193 26014.9 -03502.8 -07.6684 26249.7
 30 10 2013  03 34  -21.0195 26015.0 -03502.8 -07.6685 26249.8
 30 10 2013  03 35  -21.0197 26015.4 -03502.9 -07.6686 26250.1
 30 10 2013  03 36  -21.0200 26015.5 -03503.0 -07.6688 26250.3
 30 10 2013  03 37  -21.0203 26015.7 -03503.1 -07.6688 26250.5
 30 10 2013  03 38  -21.0208 26016.0 -03503.1 -07.6689 26250.8
 30 10 2013  03 39  -21.0211 26016.3 -03503.3 -07.6691 26251.1
 30 10 2013  03 40  -21.0214 26016.4 -03503.3 -07.6692 26251.3
 30 10 2013  03 41  -21.0218 26016.6 -03503.4 -07.6692 26251.5
 30 10 2013  03 42  -21.0219 26016.8 -03503.4 -07.6692 26251.6
 30 10 2013  03 43  -21.0220 26016.8 -03503.3 -07.6691 26251.7
 30 10 2013  03 44  -21.0221 26017.0 -03503.3 -07.6690 26251.8
 30 10 2013  03 45  -21.0222 26017.1 -03503.3 -07.6689 26251.9
 30 10 2013  03 46  -21.0225 26017.1 -03503.3 -07.6688 26251.9
 30 10 2013  03 47  -21.0226 26017.3 -03503.2 -07.6688 26252.1
 30 10 2013  03 48  -21.0228 26017.4 -03503.2 -07.6687 26252.2
 30 10 2013  03 49  -21.0230 26017.5 -03503.2 -07.6686 26252.3
 30 10 2013  03 50  -21.0231 26017.6 -03503.2 -07.6686 26252.4
 30 10 2013  03 51  -21.0232 26017.6 -03503.2 -07.6685 26252.4
 30 10 2013  03 52  -21.0231 26017.5 -03503.0 -07.6682 26252.3
 30 10 2013  03 53  -21.0229 26017.5 -03502.9 -07.6680 26252.2
 30 10 2013  03 54  -21.0227 26017.4 -03502.8 -07.6678 26252.1
 30 10 2013  03 55  -21.0227 26017.3 -03502.7 -07.6676 26252.0
 30 10 2013  03 56  -21.0225 26017.2 -03502.7 -07.6676 26251.9
 30 10 2013  03 57  -21.0224 26017.1 -03502.6 -07.6674 26251.8
 30 10 2013  03 58  -21.0223 26017.1 -03502.6 -07.6674 26251.8
 30 10 2013  03 59  -21.0221 26017.0 -03502.5 -07.6672 26251.7
 30 10 2013  04 00  -21.0222 26017.0 -03502.5 -07.6671 26251.7
 30 10 2013  04 01  -21.0221 26017.0 -03502.4 -07.6671 26251.7
 30 10 2013  04 02  -21.0220 26017.1 -03502.5 -07.6671 26251.8
 30 10 2013  04 03  -21.0220 26017.1 -03502.4 -07.6670 26251.8
 30 10 2013  04 04  -21.0221 26017.2 -03502.5 -07.6671 26251.9
 30 10 2013  04 05  -21.0222 26017.2 -03502.5 -07.6671 26251.9
 30 10 2013  04 06  -21.0223 26017.2 -03502.4 -07.6670 26251.9
 30 10 2013  04 07  -21.0224 26017.3 -03502.4 -07.6670 26252.0
 30 10 2013  04 08  -21.0224 26017.4 -03502.4 -07.6670 26252.1
 30 10 2013  04 09  -21.0224 26017.6 -03502.5 -07.6671 26252.2
 30 10 2013  04 10  -21.0224 26017.7 -03502.5 -07.6671 26252.4
 30 10 2013  04 11  -21.0224 26017.8 -03502.5 -07.6671 26252.5
 30 10 2013  04 12  -21.0226 26018.0 -03502.6 -07.6672 26252.8
 30 10 2013  04 13  -21.0227 26018.2 -03502.7 -07.6672 26253.0
 30 10 2013  04 14  -21.0228 26018.4 -03502.7 -07.6672 26253.1
 30 10 2013  04 15  -21.0229 26018.7 -03502.8 -07.6673 26253.4
 30 10 2013  04 16  -21.0229 26018.8 -03502.8 -07.6673 26253.5
 30 10 2013  04 17  -21.0229 26019.1 -03502.9 -07.6674 26253.8
 30 10 2013  04 18  -21.0229 26019.3 -03502.9 -07.6675 26254.1
 30 10 2013  04 19  -21.0230 26019.6 -03503.0 -07.6677 26254.3
 30 10 2013  04 20  -21.0228 26019.7 -03503.0 -07.6676 26254.5
 30 10 2013  04 21  -21.0229 26020.0 -03503.1 -07.6677 26254.8
 30 10 2013  04 22  -21.0227 26020.1 -03503.1 -07.6677 26254.9
 30 10 2013  04 23  -21.0228 26020.3 -03503.2 -07.6678 26255.1
 30 10 2013  04 24  -21.0228 26020.3 -03503.1 -07.6677 26255.1
 30 10 2013  04 25  -21.0228 26020.4 -03503.2 -07.6677 26255.2
 30 10 2013  04 26  -21.0229 26020.5 -03503.2 -07.6677 26255.3
 30 10 2013  04 27  -21.0229 26020.6 -03503.1 -07.6676 26255.3
 30 10 2013  04 28  -21.0229 26020.6 -03503.1 -07.6676 26255.4
 30 10 2013  04 29  -21.0228 26020.7 -03503.1 -07.6674 26255.4
 30 10 2013  04 30  -21.0227 26020.9 -03503.1 -07.6674 26255.6
 30 10 2013  04 31  -21.0227 26021.0 -03503.2 -07.6675 26255.8
 30 10 2013  04 32  -21.0228 26021.1 -03503.2 -07.6675 26255.8
 30 10 2013  04 33  -21.0228 26021.2 -03503.2 -07.6674 26256.0
 30 10 2013  04 34  -21.0227 26021.2 -03503.1 -07.6674 26255.9
 30 10 2013  04 35  -21.0225 26021.2 -03503.1 -07.6673 26255.9
 30 10 2013  04 36  -21.0224 26021.2 -03503.0 -07.6671 26255.9
 30 10 2013  04 37  -21.0224 26021.3 -03503.0 -07.6671 26256.0
 30 10 2013  04 38  -21.0223 26021.4 -03503.0 -07.6671 26256.1
 30 10 2013  04 39  -21.0221 26021.4 -03503.0 -07.6670 26256.1
 30 10 2013  04 40  -21.0221 26021.4 -03503.0 -07.6669 26256.2
 30 10 2013  04 41  -21.0220 26021.5 -03503.0 -07.6669 26256.3
 30 10 2013  04 42  -21.0221 26021.6 -03503.0 -07.6669 26256.4
 30 10 2013  04 43  -21.0221 26021.7 -03503.0 -07.6669 26256.4
 30 10 2013  04 44  -21.0221 26021.7 -03503.0 -07.6669 26256.4
 30 10 2013  04 45  -21.0221 26021.8 -03502.9 -07.6667 26256.5
 30 10 2013  04 46  -21.0221 26021.8 -03502.9 -07.6666 26256.5
 30 10 2013  04 47  -21.0221 26021.7 -03502.8 -07.6665 26256.4
 30 10 2013  04 48  -21.0220 26021.5 -03502.6 -07.6662 26256.2
 30 10 2013  04 49  -21.0219 26021.4 -03502.5 -07.6660 26256.1
 30 10 2013  04 50  -21.0218 26021.3 -03502.4 -07.6658 26256.0
 30 10 2013  04 51  -21.0216 26021.3 -03502.4 -07.6657 26255.9
 30 10 2013  04 52  -21.0214 26021.3 -03502.3 -07.6656 26256.0
 30 10 2013  04 53  -21.0212 26021.4 -03502.3 -07.6656 26256.1
 30 10 2013  04 54  -21.0214 26021.7 -03502.5 -07.6658 26256.4
 30 10 2013  04 55  -21.0216 26022.2 -03502.7 -07.6662 26256.9
 30 10 2013  04 56  -21.0220 26022.4 -03502.9 -07.6665 26257.1
 30 10 2013  04 57  -21.0221 26022.8 -03503.0 -07.6666 26257.6
 30 10 2013  04 58  -21.0219 26023.1 -03503.0 -07.6666 26257.8
 30 10 2013  04 59  -21.0218 26023.3 -03503.0 -07.6666 26258.0
 30 10 2013  05 00  -21.0215 26023.5 -03503.1 -07.6666 26258.3
 30 10 2013  05 01  -21.0214 26023.7 -03503.1 -07.6666 26258.4
 30 10 2013  05 02  -21.0215 26023.9 -03503.1 -07.6666 26258.6
 30 10 2013  05 03  -21.0212 26024.2 -03503.2 -07.6667 26258.9
 30 10 2013  05 04  -21.0208 26024.0 -03503.1 -07.6664 26258.7
 30 10 2013  05 05  -21.0206 26024.0 -03503.0 -07.6663 26258.7
 30 10 2013  05 06  -21.0202 26024.1 -03503.0 -07.6662 26258.8
 30 10 2013  05 07  -21.0200 26024.2 -03503.0 -07.6662 26258.9
 30 10 2013  05 08  -21.0199 26024.2 -03503.0 -07.6661 26258.9
 30 10 2013  05 09  -21.0197 26024.4 -03503.0 -07.6662 26259.1
 30 10 2013  05 10  -21.0196 26024.5 -03503.0 -07.6662 26259.2
 30 10 2013  05 11  -21.0192 26024.5 -03503.0 -07.6661 26259.2
 30 10 2013  05 12  -21.0190 26024.4 -03502.9 -07.6660 26259.1
 30 10 2013  05 13  -21.0188 26024.4 -03502.9 -07.6659 26259.1
 30 10 2013  05 14  -21.0187 26024.4 -03502.9 -07.6659 26259.1
 30 10 2013  05 15  -21.0187 26024.4 -03502.9 -07.6659 26259.1
 30 10 2013  05 16  -21.0188 26024.6 -03502.9 -07.6659 26259.3
 30 10 2013  05 17  -21.0187 26024.8 -03503.0 -07.6660 26259.5
 30 10 2013  05 18  -21.0186 26024.5 -03502.8 -07.6658 26259.2
 30 10 2013  05 19  -21.0187 26024.4 -03502.7 -07.6655 26259.0
 30 10 2013  05 20  -21.0189 26024.6 -03502.8 -07.6657 26259.3
 30 10 2013  05 21  -21.0191 26024.6 -03502.9 -07.6658 26259.3
 30 10 2013  05 22  -21.0192 26024.6 -03502.8 -07.6657 26259.3
 30 10 2013  05 23  -21.0193 26024.6 -03502.7 -07.6656 26259.3
 30 10 2013  05 24  -21.0194 26024.6 -03502.7 -07.6655 26259.3
 30 10 2013  05 25  -21.0194 26024.9 -03502.8 -07.6656 26259.6
 30 10 2013  05 26  -21.0193 26024.9 -03502.8 -07.6656 26259.6
 30 10 2013  05 27  -21.0195 26025.2 -03502.9 -07.6657 26259.8
 30 10 2013  05 28  -21.0196 26025.2 -03502.9 -07.6658 26259.9
 30 10 2013  05 29  -21.0198 26025.2 -03502.9 -07.6656 26259.8
 30 10 2013  05 30  -21.0200 26025.6 -03503.0 -07.6659 26260.3
 30 10 2013  05 31  -21.0201 26026.1 -03503.3 -07.6663 26260.8
 30 10 2013  05 32  -21.0199 26026.6 -03503.5 -07.6666 26261.4
 30 10 2013  05 33  -21.0198 26027.0 -03503.7 -07.6670 26261.7
 30 10 2013  05 34  -21.0195 26027.4 -03503.8 -07.6671 26262.2
 30 10 2013  05 35  -21.0193 26027.8 -03504.0 -07.6674 26262.6
 30 10 2013  05 36  -21.0192 26028.0 -03504.1 -07.6675 26262.8
 30 10 2013  05 37  -21.0192 26028.2 -03504.2 -07.6676 26263.0
 30 10 2013  05 38  -21.0191 26028.4 -03504.2 -07.6676 26263.2
 30 10 2013  05 39  -21.0192 26028.6 -03504.2 -07.6676 26263.5
 30 10 2013  05 40  -21.0190 26028.7 -03504.2 -07.6675 26263.5
 30 10 2013  05 41  -21.0189 26028.8 -03504.2 -07.6674 26263.6
 30 10 2013  05 42  -21.0187 26028.7 -03504.0 -07.6672 26263.5
 30 10 2013  05 43  -21.0186 26028.6 -03503.9 -07.6670 26263.4
 30 10 2013  05 44  -21.0185 26028.6 -03503.9 -07.6669 26263.4
 30 10 2013  05 45  -21.0183 26028.6 -03503.8 -07.6668 26263.3
 30 10 2013  05 46  -21.0182 26028.5 -03503.8 -07.6666 26263.2
 30 10 2013  05 47  -21.0181 26028.4 -03503.7 -07.6665 26263.2
 30 10 2013  05 48  -21.0180 26028.2 -03503.6 -07.6663 26263.0
 30 10 2013  05 49  -21.0180 26028.0 -03503.5 -07.6662 26262.8
 30 10 2013  05 50  -21.0179 26027.7 -03503.2 -07.6657 26262.4
 30 10 2013  05 51  -21.0181 26027.6 -03503.2 -07.6656 26262.3
 30 10 2013  05 52  -21.0180 26027.4 -03503.1 -07.6654 26262.0
 30 10 2013  05 53  -21.0182 26027.3 -03503.0 -07.6653 26261.9
 30 10 2013  05 54  -21.0184 26027.2 -03503.0 -07.6653 26261.9
 30 10 2013  05 55  -21.0186 26027.1 -03502.9 -07.6653 26261.8
 30 10 2013  05 56  -21.0187 26027.0 -03502.9 -07.6651 26261.7
 30 10 2013  05 57  -21.0189 26026.6 -03502.7 -07.6648 26261.3
 30 10 2013  05 58  -21.0191 26026.4 -03502.5 -07.6645 26261.0
 30 10 2013  05 59  -21.0191 26026.0 -03502.3 -07.6643 26260.6
 30 10 2013  06 00  -21.0192 26025.8 -03502.2 -07.6641 26260.3
 30 10 2013  06 01  -21.0194 26025.5 -03502.1 -07.6638 26260.0
 30 10 2013  06 02  -21.0195 26025.3 -03502.0 -07.6638 26259.9
 30 10 2013  06 03  -21.0194 26025.3 -03502.1 -07.6639 26259.9
 30 10 2013  06 04  -21.0194 26025.3 -03502.1 -07.6640 26259.9
 30 10 2013  06 05  -21.0195 26025.4 -03502.2 -07.6641 26260.0
 30 10 2013  06 06  -21.0194 26025.4 -03502.3 -07.6643 26260.0
 30 10 2013  06 07  -21.0194 26025.4 -03502.3 -07.6643 26260.0
 30 10 2013  06 08  -21.0194 26025.5 -03502.4 -07.6645 26260.1
 30 10 2013  06 09  -21.0193 26025.5 -03502.4 -07.6646 26260.1
 30 10 2013  06 10  -21.0191 26025.5 -03502.4 -07.6645 26260.1
 30 10 2013  06 11  -21.0190 26025.5 -03502.4 -07.6646 26260.2
 30 10 2013  06 12  -21.0188 26025.5 -03502.5 -07.6648 26260.1
 30 10 2013  06 13  -21.0186 26025.5 -03502.5 -07.6648 26260.2
 30 10 2013  06 14  -21.0185 26025.7 -03502.6 -07.6650 26260.4
 30 10 2013  06 15  -21.0187 26025.9 -03502.8 -07.6653 26260.6
 30 10 2013  06 16  -21.0187 26026.2 -03502.9 -07.6655 26260.8
 30 10 2013  06 17  -21.0186 26026.3 -03503.1 -07.6657 26261.0
 30 10 2013  06 18  -21.0186 26026.4 -03503.1 -07.6658 26261.1
 30 10 2013  06 19  -21.0187 26026.3 -03503.1 -07.6658 26261.0
 30 10 2013  06 20  -21.0186 26026.2 -03503.0 -07.6656 26260.9
 30 10 2013  06 21  -21.0186 26025.9 -03502.8 -07.6653 26260.6
 30 10 2013  06 22  -21.0184 26025.5 -03502.6 -07.6650 26260.1
 30 10 2013  06 23  -21.0181 26025.1 -03502.3 -07.6645 26259.7
 30 10 2013  06 24  -21.0181 26024.7 -03502.1 -07.6641 26259.3
 30 10 2013  06 25  -21.0182 26024.4 -03501.9 -07.6639 26259.0
 30 10 2013  06 26  -21.0184 26024.1 -03501.8 -07.6636 26258.6
 30 10 2013  06 27  -21.0185 26023.8 -03501.6 -07.6634 26258.3
 30 10 2013  06 28  -21.0189 26023.4 -03501.5 -07.6632 26258.0
 30 10 2013  06 29  -21.0192 26023.1 -03501.4 -07.6631 26257.6
 30 10 2013  06 30  -21.0195 26022.7 -03501.2 -07.6628 26257.2
 30 10 2013  06 31  -21.0199 26022.5 -03501.1 -07.6626 26256.9
 30 10 2013  06 32  -21.0200 26022.2 -03501.0 -07.6624 26256.6
 30 10 2013  06 33  -21.0204 26022.1 -03501.0 -07.6624 26256.5
 30 10 2013  06 34  -21.0209 26022.1 -03501.0 -07.6625 26256.6
 30 10 2013  06 35  -21.0215 26022.3 -03501.1 -07.6628 26256.7
 30 10 2013  06 36  -21.0216 26022.2 -03501.2 -07.6628 26256.7
 30 10 2013  06 37  -21.0218 26022.1 -03501.1 -07.6627 26256.5
 30 10 2013  06 38  -21.0221 26022.0 -03501.1 -07.6627 26256.5
 30 10 2013  06 39  -21.0223 26022.1 -03501.1 -07.6627 26256.6
 30 10 2013  06 40  -21.0227 26022.1 -03501.1 -07.6628 26256.6
 30 10 2013  06 41  -21.0232 26022.1 -03501.1 -07.6628 26256.6
 30 10 2013  06 42  -21.0236 26021.9 -03501.1 -07.6627 26256.4
 30 10 2013  06 43  -21.0240 26021.6 -03500.8 -07.6623 26256.0
 30 10 2013  06 44  -21.0238 26021.2 -03500.5 -07.6618 26255.6
 30 10 2013  06 45  -21.0239 26020.9 -03500.3 -07.6614 26255.2
 30 10 2013  06 46  -21.0243 26020.8 -03500.3 -07.6614 26255.2
 30 10 2013  06 47  -21.0246 26020.7 -03500.3 -07.6614 26255.1
 30 10 2013  06 48  -21.0250 26021.1 -03500.6 -07.6618 26255.5
 30 10 2013  06 49  -21.0250 26021.5 -03500.8 -07.6624 26255.9
 30 10 2013  06 50  -21.0249 26021.8 -03501.0 -07.6626 26256.2
 30 10 2013  06 51  -21.0250 26021.9 -03501.1 -07.6628 26256.4
 30 10 2013  06 52  -21.0247 26022.3 -03501.2 -07.6629 26256.8
 30 10 2013  06 53  -21.0256 26022.6 -03501.5 -07.6634 26257.2
 30 10 2013  06 54  -21.0257 26023.0 -03501.7 -07.6638 26257.6
 30 10 2013  06 55  -21.0256 26022.8 -03501.6 -07.6637 26257.3
 30 10 2013  06 56  -21.0258 26022.6 -03501.5 -07.6634 26257.1
 30 10 2013  06 57  -21.0262 26022.7 -03501.5 -07.6634 26257.2
 30 10 2013  06 58  -21.0262 26022.6 -03501.5 -07.6633 26257.2
 30 10 2013  06 59  -21.0262 26022.8 -03501.5 -07.6634 26257.3
 30 10 2013  07 00  -21.0260 26022.6 -03501.4 -07.6632 26257.1
 30 10 2013  07 01  -21.0261 26022.3 -03501.2 -07.6628 26256.7
 30 10 2013  07 02  -21.0258 26022.2 -03501.1 -07.6627 26256.7
 30 10 2013  07 03  -21.0259 26022.2 -03501.1 -07.6628 26256.7
 30 10 2013  07 04  -21.0256 26022.4 -03501.2 -07.6629 26256.9
 30 10 2013  07 05  -21.0261 26022.3 -03501.2 -07.6629 26256.8
 30 10 2013  07 06  -21.0259 26022.3 -03501.2 -07.6629 26256.8
 30 10 2013  07 07  -21.0260 26022.2 -03501.1 -07.6628 26256.7
 30 10 2013  07 08  -21.0257 26021.9 -03501.0 -07.6626 26256.4
 30 10 2013  07 09  -21.0256 26021.8 -03500.9 -07.6623 26256.3
 30 10 2013  07 10  -21.0259 26022.6 -03501.2 -07.6629 26257.1
 30 10 2013  07 11  -21.0270 26022.5 -03501.3 -07.6631 26257.0
 30 10 2013  07 12  -21.0273 26022.6 -03501.3 -07.6630 26257.1
 30 10 2013  07 13  -21.0274 26023.3 -03501.6 -07.6636 26257.8
 30 10 2013  07 14  -21.0283 26022.8 -03501.5 -07.6634 26257.3
 30 10 2013  07 15  -21.0276 26023.2 -03501.5 -07.6632 26257.7
 30 10 2013  07 16  -21.0278 26023.3 -03501.6 -07.6634 26257.8
 30 10 2013  07 17  -21.0278 26023.3 -03501.4 -07.6631 26257.8
 30 10 2013  07 18  -21.0278 26024.1 -03501.8 -07.6637 26258.7
 30 10 2013  07 19  -21.0281 26023.9 -03501.7 -07.6636 26258.5
 30 10 2013  07 20  -21.0281 26024.6 -03501.9 -07.6637 26259.2
 30 10 2013  07 21  -21.0290 26024.9 -03502.1 -07.6640 26259.5
 30 10 2013  07 22  -21.0295 26024.9 -03501.9 -07.6636 26259.5
 30 10 2013  07 23  -21.0292 26025.8 -03502.1 -07.6639 26260.4
 30 10 2013  07 24  -21.0289 26025.3 -03501.7 -07.6631 26259.8
 30 10 2013  07 25  -21.0288 26025.9 -03501.8 -07.6632 26260.4
 30 10 2013  07 26  -21.0287 26025.3 -03501.6 -07.6629 26259.9
 30 10 2013  07 27  -21.0270 26025.0 -03501.0 -07.6617 26259.4
 30 10 2013  07 28  -21.0269 26024.5 -03500.7 -07.6612 26258.9
 30 10 2013  07 29  -21.0263 26023.4 -03499.9 -07.6597 26257.7
 30 10 2013  07 30  -21.0270 26023.3 -03499.7 -07.6594 26257.6
 30 10 2013  07 31  -21.0273 26023.0 -03499.5 -07.6590 26257.3
 30 10 2013  07 32  -21.0272 26023.3 -03499.6 -07.6592 26257.5
 30 10 2013  07 33  -21.0278 26022.9 -03499.5 -07.6591 26257.1
 30 10 2013  07 34  -21.0284 26022.8 -03499.5 -07.6590 26257.0
 30 10 2013  07 35  -21.0293 26023.0 -03499.8 -07.6596 26257.3
 30 10 2013  07 36  -21.0290 26022.8 -03499.7 -07.6594 26257.1
 30 10 2013  07 37  -21.0291 26022.8 -03499.7 -07.6595 26257.0
 30 10 2013  07 38  -21.0289 26022.9 -03499.8 -07.6596 26257.1
 30 10 2013  07 39  -21.0286 26022.7 -03499.8 -07.6597 26257.0
 30 10 2013  07 40  -21.0286 26022.5 -03499.8 -07.6597 26256.8
 30 10 2013  07 41  -21.0283 26022.7 -03499.9 -07.6599 26257.0
 30 10 2013  07 42  -21.0278 26022.9 -03500.0 -07.6602 26257.2
 30 10 2013  07 43  -21.0278 26023.1 -03500.2 -07.6605 26257.4
 30 10 2013  07 44  -21.0274 26023.1 -03500.3 -07.6608 26257.5
 30 10 2013  07 45  -21.0270 26022.9 -03500.3 -07.6607 26257.3
 30 10 2013  07 46  -21.0263 26022.9 -03500.3 -07.6607 26257.2
 30 10 2013  07 47  -21.0256 26022.9 -03500.4 -07.6609 26257.2
 30 10 2013  07 48  -21.0249 26023.0 -03500.5 -07.6611 26257.3
 30 10 2013  07 49  -21.0240 26023.0 -03500.6 -07.6613 26257.4
 30 10 2013  07 50  -21.0233 26023.0 -03500.6 -07.6614 26257.4
 30 10 2013  07 51  -21.0228 26022.9 -03500.6 -07.6615 26257.3
 30 10 2013  07 52  -21.0222 26023.1 -03500.7 -07.6617 26257.5
 30 10 2013  07 53  -21.0218 26023.1 -03500.8 -07.6618 26257.5
 30 10 2013  07 54  -21.0217 26023.2 -03500.9 -07.6621 26257.6
 30 10 2013  07 55  -21.0217 26023.5 -03501.2 -07.6625 26258.0
 30 10 2013  07 56  -21.0218 26023.6 -03501.3 -07.6627 26258.1
 30 10 2013  07 57  -21.0218 26023.5 -03501.2 -07.6625 26257.9
 30 10 2013  07 58  -21.0219 26023.5 -03501.3 -07.6627 26258.0
 30 10 2013  07 59  -21.0221 26023.2 -03501.1 -07.6625 26257.6
 30 10 2013  08 00  -21.0226 26023.2 -03501.2 -07.6627 26257.7
 30 10 2013  08 01  -21.0226 26023.2 -03501.3 -07.6628 26257.7
 30 10 2013  08 02  -21.0231 26023.1 -03501.2 -07.6628 26257.5
 30 10 2013  08 03  -21.0234 26023.2 -03501.4 -07.6630 26257.7
 30 10 2013  08 04  -21.0232 26023.4 -03501.5 -07.6633 26258.0
 30 10 2013  08 05  -21.0233 26023.7 -03501.7 -07.6635 26258.3
 30 10 2013  08 06  -21.0237 26024.2 -03501.9 -07.6639 26258.8
 30 10 2013  08 07  -21.0239 26024.5 -03502.1 -07.6642 26259.0
 30 10 2013  08 08  -21.0236 26024.5 -03502.1 -07.6641 26259.1
 30 10 2013  08 09  -21.0236 26024.3 -03501.9 -07.6639 26258.8
 30 10 2013  08 10  -21.0233 26024.3 -03501.8 -07.6637 26258.8
 30 10 2013  08 11  -21.0230 26024.3 -03501.8 -07.6637 26258.9
 30 10 2013  08 12  -21.0228 26024.4 -03501.8 -07.6636 26258.9
 30 10 2013  08 13  -21.0227 26024.3 -03501.8 -07.6636 26258.9
 30 10 2013  08 14  -21.0223 26024.4 -03501.8 -07.6636 26258.9
 30 10 2013  08 15  -21.0224 26024.5 -03501.9 -07.6637 26259.0
 30 10 2013  08 16  -21.0226 26024.6 -03501.9 -07.6638 26259.2
 30 10 2013  08 17  -21.0227 26024.7 -03501.9 -07.6638 26259.3
 30 10 2013  08 18  -21.0226 26024.8 -03502.0 -07.6638 26259.4
 30 10 2013  08 19  -21.0225 26025.0 -03502.0 -07.6638 26259.5
 30 10 2013  08 20  -21.0223 26024.9 -03501.9 -07.6637 26259.5
 30 10 2013  08 21  -21.0220 26025.0 -03501.8 -07.6635 26259.5
 30 10 2013  08 22  -21.0215 26024.9 -03501.8 -07.6634 26259.4
 30 10 2013  08 23  -21.0210 26024.9 -03501.7 -07.6633 26259.5
 30 10 2013  08 24  -21.0209 26025.0 -03501.8 -07.6634 26259.5
 30 10 2013  08 25  -21.0205 26024.8 -03501.7 -07.6633 26259.4
 30 10 2013  08 26  -21.0203 26024.5 -03501.6 -07.6631 26259.0
 30 10 2013  08 27  -21.0200 26024.1 -03501.4 -07.6629 26258.6
 30 10 2013  08 28  -21.0197 26023.9 -03501.4 -07.6628 26258.4
 30 10 2013  08 29  -21.0193 26023.6 -03501.3 -07.6628 26258.1
 30 10 2013  08 30  -21.0190 26023.3 -03501.2 -07.6626 26257.8
 30 10 2013  08 31  -21.0192 26023.6 -03501.5 -07.6632 26258.1
 30 10 2013  08 32  -21.0193 26023.5 -03501.6 -07.6635 26258.0
 30 10 2013  08 33  -21.0193 26023.2 -03501.6 -07.6635 26257.8
 30 10 2013  08 34  -21.0196 26023.1 -03501.7 -07.6637 26257.6
 30 10 2013  08 35  -21.0195 26023.2 -03501.8 -07.6639 26257.7
 30 10 2013  08 36  -21.0192 26023.1 -03501.9 -07.6643 26257.7
 30 10 2013  08 37  -21.0192 26023.0 -03501.9 -07.6643 26257.6
 30 10 2013  08 38  -21.0189 26022.9 -03502.0 -07.6644 26257.5
 30 10 2013  08 39  -21.0187 26022.7 -03502.0 -07.6644 26257.3
 30 10 2013  08 40  -21.0191 26022.9 -03502.2 -07.6649 26257.5
 30 10 2013  08 41  -21.0192 26022.6 -03502.1 -07.6648 26257.2
 30 10 2013  08 42  -21.0192 26022.3 -03502.0 -07.6646 26256.9
 30 10 2013  08 43  -21.0191 26021.9 -03501.9 -07.6645 26256.4
 30 10 2013  08 44  -21.0186 26021.1 -03501.6 -07.6641 26255.6
 30 10 2013  08 45  -21.0181 26020.5 -03501.5 -07.6640 26255.1
 30 10 2013  08 46  -21.0179 26019.8 -03501.3 -07.6639 26254.3
 30 10 2013  08 47  -21.0176 26019.3 -03501.3 -07.6639 26253.8
 30 10 2013  08 48  -21.0178 26019.3 -03501.3 -07.6640 26253.8
 30 10 2013  08 49  -21.0182 26019.2 -03501.6 -07.6647 26253.8
 30 10 2013  08 50  -21.0189 26019.2 -03501.7 -07.6650 26253.8
 30 10 2013  08 51  -21.0202 26019.5 -03502.0 -07.6654 26254.1
 30 10 2013  08 52  -21.0210 26019.7 -03502.2 -07.6658 26254.3
 30 10 2013  08 53  -21.0215 26019.7 -03502.2 -07.6658 26254.4
 30 10 2013  08 54  -21.0222 26020.1 -03502.4 -07.6661 26254.7
 30 10 2013  08 55  -21.0228 26020.1 -03502.4 -07.6661 26254.8
 30 10 2013  08 56  -21.0232 26019.9 -03502.3 -07.6659 26254.6
 30 10 2013  08 57  -21.0232 26020.0 -03502.2 -07.6658 26254.6
 30 10 2013  08 58  -21.0236 26020.5 -03502.4 -07.6661 26255.2
 30 10 2013  08 59  -21.0243 26021.1 -03502.7 -07.6666 26255.8
 30 10 2013  09 00  -21.0251 26021.4 -03502.9 -07.6667 26256.2
 30 10 2013  09 01  -21.0257 26021.8 -03502.9 -07.6668 26256.5
 30 10 2013  09 02  -21.0262 26022.1 -03502.9 -07.6667 26256.9
 30 10 2013  09 03  -21.0262 26022.2 -03502.8 -07.6664 26256.9
 30 10 2013  09 04  -21.0262 26022.1 -03502.7 -07.6662 26256.8
 30 10 2013  09 05  -21.0266 26022.1 -03502.7 -07.6662 26256.7
 30 10 2013  09 06  -21.0269 26022.2 -03502.8 -07.6663 26256.9
 30 10 2013  09 07  -21.0270 26022.2 -03502.8 -07.6664 26256.9
 30 10 2013  09 08  -21.0269 26022.1 -03502.8 -07.6664 26256.8
 30 10 2013  09 09  -21.0265 26021.8 -03502.7 -07.6664 26256.5
 30 10 2013  09 10  -21.0262 26021.6 -03502.6 -07.6662 26256.3
 30 10 2013  09 11  -21.0255 26021.5 -03502.6 -07.6662 26256.2
 30 10 2013  09 12  -21.0256 26021.4 -03502.6 -07.6662 26256.1
 30 10 2013  09 13  -21.0262 26021.7 -03502.8 -07.6666 26256.4
 30 10 2013  09 14  -21.0267 26021.9 -03502.9 -07.6668 26256.6
 30 10 2013  09 15  -21.0266 26022.2 -03503.1 -07.6670 26257.0
 30 10 2013  09 16  -21.0268 26022.6 -03503.3 -07.6673 26257.3
 30 10 2013  09 17  -21.0264 26022.8 -03503.2 -07.6670 26257.6
 30 10 2013  09 18  -21.0265 26023.0 -03503.4 -07.6675 26257.8
 30 10 2013  09 19  -21.0267 26023.4 -03503.5 -07.6675 26258.2
 30 10 2013  09 20  -21.0271 26024.1 -03503.8 -07.6679 26258.9
 30 10 2013  09 21  -21.0267 26024.5 -03503.8 -07.6678 26259.3
 30 10 2013  09 22  -21.0264 26024.4 -03503.6 -07.6674 26259.2
 30 10 2013  09 23  -21.0254 26023.9 -03503.2 -07.6667 26258.6
 30 10 2013  09 24  -21.0248 26023.6 -03502.9 -07.6662 26258.3
 30 10 2013  09 25  -21.0253 26023.6 -03502.8 -07.6660 26258.3
 30 10 2013  09 26  -21.0255 26023.5 -03502.8 -07.6659 26258.2
 30 10 2013  09 27  -21.0256 26023.4 -03502.7 -07.6658 26258.1
 30 10 2013  09 28  -21.0258 26023.2 -03502.5 -07.6655 26257.8
 30 10 2013  09 29  -21.0266 26023.2 -03502.6 -07.6657 26257.8
 30 10 2013  09 30  -21.0267 26022.6 -03502.4 -07.6654 26257.3
 30 10 2013  09 31  -21.0269 26022.6 -03502.4 -07.6655 26257.2
 30 10 2013  09 32  -21.0272 26022.2 -03502.5 -07.6656 26256.9
 30 10 2013  09 33  -21.0266 26022.2 -03502.5 -07.6658 26256.9
 30 10 2013  09 34  -21.0263 26022.1 -03502.5 -07.6659 26256.7
 30 10 2013  09 35  -21.0265 26022.2 -03502.7 -07.6662 26256.9
 30 10 2013  09 36  -21.0262 26022.0 -03502.7 -07.6663 26256.7
 30 10 2013  09 37  -21.0261 26022.1 -03502.8 -07.6664 26256.8
 30 10 2013  09 38  -21.0270 26022.4 -03503.0 -07.6667 26257.1
 30 10 2013  09 39  -21.0272 26022.8 -03503.2 -07.6670 26257.5
 30 10 2013  09 40  -21.0268 26022.6 -03503.1 -07.6670 26257.3
 30 10 2013  09 41  -21.0259 26022.0 -03502.9 -07.6667 26256.8
 30 10 2013  09 42  -21.0254 26021.4 -03502.8 -07.6666 26256.0
 30 10 2013  09 43  -21.0246 26021.1 -03502.7 -07.6664 26255.8
 30 10 2013  09 44  -21.0252 26021.0 -03502.7 -07.6666 26255.7
 30 10 2013  09 45  -21.0262 26021.5 -03503.1 -07.6672 26256.3
 30 10 2013  09 46  -21.0258 26021.6 -03503.2 -07.6674 26256.4
 30 10 2013  09 47  -21.0260 26020.9 -03502.9 -07.6670 26255.6
 30 10 2013  09 48  -21.0266 26020.8 -03503.0 -07.6671 26255.5
 30 10 2013  09 49  -21.0262 26020.9 -03503.1 -07.6673 26255.7
 30 10 2013  09 50  -21.0256 26021.1 -03503.2 -07.6675 26255.9
 30 10 2013  09 51  -21.0245 26020.4 -03503.0 -07.6672 26255.2
 30 10 2013  09 52  -21.0245 26020.2 -03503.0 -07.6674 26255.0
 30 10 2013  09 53  -21.0232 26020.3 -03503.3 -07.6681 26255.0
 30 10 2013  09 54  -21.0216 26020.3 -03503.5 -07.6684 26255.1
 30 10 2013  09 55  -21.0229 26020.8 -03503.7 -07.6688 26255.7
 30 10 2013  09 56  -21.0235 26021.1 -03503.8 -07.6688 26255.9
 30 10 2013  09 57  -21.0226 26020.9 -03503.6 -07.6685 26255.8
 30 10 2013  09 58  -21.0225 26020.7 -03503.5 -07.6684 26255.5
 30 10 2013  09 59  -21.0222 26020.7 -03503.6 -07.6686 26255.5
 30 10 2013  10 00  -21.0219 26020.8 -03503.8 -07.6689 26255.6
 30 10 2013  10 01  -21.0208 26020.2 -03503.6 -07.6687 26255.0
 30 10 2013  10 02  -21.0205 26020.0 -03503.7 -07.6689 26254.9
 30 10 2013  10 03  -21.0216 26020.7 -03504.1 -07.6696 26255.6
 30 10 2013  10 04  -21.0221 26021.3 -03504.4 -07.6700 26256.2
 30 10 2013  10 05  -21.0222 26021.3 -03504.3 -07.6699 26256.2
 30 10 2013  10 06  -21.0217 26020.9 -03504.2 -07.6697 26255.8
 30 10 2013  10 07  -21.0213 26020.0 -03504.0 -07.6696 26254.9
 30 10 2013  10 08  -21.0201 26019.4 -03503.9 -07.6696 26254.3
 30 10 2013  10 09  -21.0190 26019.4 -03504.1 -07.6699 26254.3
 30 10 2013  10 10  -21.0194 26019.4 -03504.4 -07.6706 26254.3
 30 10 2013  10 11  -21.0197 26019.3 -03504.6 -07.6711 26254.3
 30 10 2013  10 12  -21.0178 26019.5 -03504.8 -07.6715 26254.4
 30 10 2013  10 13  -21.0163 26019.4 -03504.9 -07.6718 26254.4
 30 10 2013  10 14  -21.0163 26019.9 -03505.4 -07.6727 26254.9
 30 10 2013  10 15  -21.0156 26020.2 -03505.8 -07.6734 26255.3
 30 10 2013  10 16  -21.0148 26020.7 -03506.2 -07.6741 26255.9
 30 10 2013  10 17  -21.0143 26021.2 -03506.6 -07.6750 26256.4
 30 10 2013  10 18  -21.0141 26021.2 -03506.9 -07.6754 26256.4
 30 10 2013  10 19  -21.0147 26021.2 -03507.1 -07.6759 26256.5
 30 10 2013  10 20  -21.0146 26021.2 -03507.1 -07.6760 26256.4
 30 10 2013  10 21  -21.0152 26020.8 -03507.0 -07.6760 26256.0
 30 10 2013  10 22  -21.0163 26020.1 -03506.8 -07.6756 26255.3
 30 10 2013  10 23  -21.0171 26019.3 -03506.5 -07.6753 26254.5
 30 10 2013  10 24  -21.0172 26018.3 -03506.4 -07.6752 26253.5
 30 10 2013  10 25  -21.0168 26017.4 -03506.5 -07.6758 26252.7
 30 10 2013  10 26  -21.0154 26016.7 -03506.7 -07.6763 26251.9
 30 10 2013  10 27  -21.0148 26016.4 -03507.1 -07.6773 26251.7
 30 10 2013  10 28  -21.0145 26016.5 -03507.6 -07.6785 26251.9
 30 10 2013  10 29  -21.0145 26016.7 -03508.1 -07.6795 26252.1
 30 10 2013  10 30  -21.0153 26016.8 -03508.5 -07.6803 26252.3
 30 10 2013  10 31  -21.0162 26016.7 -03508.8 -07.6810 26252.2
 30 10 2013  10 32  -21.0162 26016.5 -03509.1 -07.6816 26252.1
 30 10 2013  10 33  -21.0160 26016.3 -03509.3 -07.6821 26251.9
 30 10 2013  10 34  -21.0158 26016.3 -03509.5 -07.6826 26252.0
 30 10 2013  10 35  -21.0163 26016.2 -03509.7 -07.6831 26251.9
 30 10 2013  10 36  -21.0163 26016.0 -03509.9 -07.6835 26251.7
 30 10 2013  10 37  -21.0158 26015.9 -03510.1 -07.6840 26251.6
 30 10 2013  10 38  -21.0154 26015.7 -03510.3 -07.6844 26251.5
 30 10 2013  10 39  -21.0148 26015.5 -03510.4 -07.6848 26251.3
 30 10 2013  10 40  -21.0147 26015.5 -03510.6 -07.6853 26251.3
 30 10 2013  10 41  -21.0151 26015.4 -03510.9 -07.6858 26251.3
 30 10 2013  10 42  -21.0158 26015.6 -03511.2 -07.6864 26251.4
 30 10 2013  10 43  -21.0163 26015.8 -03511.5 -07.6870 26251.7
 30 10 2013  10 44  -21.0156 26015.7 -03511.5 -07.6872 26251.7
 30 10 2013  10 45  -21.0150 26016.0 -03511.8 -07.6876 26251.9
 30 10 2013  10 46  -21.0147 26016.2 -03511.9 -07.6879 26252.1
 30 10 2013  10 47  -21.0146 26016.4 -03512.2 -07.6883 26252.4
 30 10 2013  10 48  -21.0148 26016.9 -03512.5 -07.6889 26252.9
 30 10 2013  10 49  -21.0139 26017.2 -03512.7 -07.6892 26253.3
 30 10 2013  10 50  -21.0127 26017.5 -03512.9 -07.6895 26253.6
 30 10 2013  10 51  -21.0120 26018.1 -03513.1 -07.6898 26254.2
 30 10 2013  10 52  -21.0122 26019.1 -03513.4 -07.6902 26255.3
 30 10 2013  10 53  -21.0125 26020.1 -03513.6 -07.6903 26256.3
 30 10 2013  10 54  -21.0123 26020.5 -03513.4 -07.6899 26256.6
 30 10 2013  10 55  -21.0125 26021.0 -03513.3 -07.6895 26257.1
 30 10 2013  10 56  -21.0124 26021.2 -03513.2 -07.6891 26257.3
 30 10 2013  10 57  -21.0120 26021.0 -03512.8 -07.6884 26257.0
 30 10 2013  10 58  -21.0117 26021.2 -03512.8 -07.6882 26257.2
 30 10 2013  10 59  -21.0120 26021.4 -03512.7 -07.6881 26257.4
 30 10 2013  11 00  -21.0123 26021.2 -03512.5 -07.6877 26257.2
 30 10 2013  11 01  -21.0131 26021.2 -03512.4 -07.6875 26257.2
 30 10 2013  11 02  -21.0137 26021.5 -03512.5 -07.6876 26257.5
 30 10 2013  11 03  -21.0136 26021.6 -03512.5 -07.6875 26257.6
 30 10 2013  11 04  -21.0136 26021.5 -03512.4 -07.6873 26257.5
 30 10 2013  11 05  -21.0132 26021.1 -03512.2 -07.6870 26257.1
 30 10 2013  11 06  -21.0125 26021.1 -03512.2 -07.6870 26257.0
 30 10 2013  11 07  -21.0122 26021.8 -03512.5 -07.6875 26257.8
 30 10 2013  11 08  -21.0117 26022.1 -03512.5 -07.6874 26258.1
 30 10 2013  11 09  -21.0113 26022.3 -03512.5 -07.6873 26258.3
 30 10 2013  11 10  -21.0106 26022.4 -03512.4 -07.6872 26258.4
 30 10 2013  11 11  -21.0100 26022.6 -03512.5 -07.6872 26258.6
 30 10 2013  11 12  -21.0098 26022.9 -03512.5 -07.6872 26258.9
 30 10 2013  11 13  -21.0092 26022.9 -03512.4 -07.6870 26258.9
 30 10 2013  11 14  -21.0088 26023.2 -03512.4 -07.6869 26259.2
 30 10 2013  11 15  -21.0087 26023.3 -03512.5 -07.6869 26259.3
 30 10 2013  11 16  -21.0077 26023.4 -03512.4 -07.6869 26259.4
 30 10 2013  11 17  -21.0065 26023.5 -03512.4 -07.6867 26259.4
 30 10 2013  11 18  -21.0059 26023.7 -03512.5 -07.6868 26259.7
 30 10 2013  11 19  -21.0057 26023.9 -03512.4 -07.6867 26259.8
 30 10 2013  11 20  -21.0056 26023.9 -03512.4 -07.6866 26259.9
 30 10 2013  11 21  -21.0054 26024.2 -03512.4 -07.6866 26260.2
 30 10 2013  11 22  -21.0055 26024.1 -03512.4 -07.6865 26260.0
 30 10 2013  11 23  -21.0057 26023.6 -03512.2 -07.6862 26259.6
 30 10 2013  11 24  -21.0057 26023.2 -03512.1 -07.6862 26259.1
 30 10 2013  11 25  -21.0054 26022.7 -03512.0 -07.6862 26258.6
 30 10 2013  11 26  -21.0050 26022.5 -03512.2 -07.6865 26258.4
 30 10 2013  11 27  -21.0046 26022.2 -03512.3 -07.6869 26258.1
 30 10 2013  11 28  -21.0044 26022.2 -03512.6 -07.6875 26258.2
 30 10 2013  11 29  -21.0041 26022.2 -03512.8 -07.6880 26258.2
 30 10 2013  11 30  -21.0033 26021.9 -03512.8 -07.6882 26257.9
 30 10 2013  11 31  -21.0032 26022.2 -03513.1 -07.6887 26258.2
 30 10 2013  11 32  -21.0035 26022.6 -03513.5 -07.6895 26258.7
 30 10 2013  11 33  -21.0041 26022.8 -03513.8 -07.6899 26258.9
 30 10 2013  11 34  -21.0052 26022.8 -03513.8 -07.6899 26259.0
 30 10 2013  11 35  -21.0065 26022.9 -03513.8 -07.6901 26259.1
 30 10 2013  11 36  -21.0070 26023.0 -03514.1 -07.6905 26259.2
 30 10 2013  11 37  -21.0068 26023.2 -03514.3 -07.6909 26259.4
 30 10 2013  11 38  -21.0067 26023.6 -03514.5 -07.6913 26259.9
 30 10 2013  11 39  -21.0066 26023.8 -03514.6 -07.6915 26260.1
 30 10 2013  11 40  -21.0070 26024.0 -03514.7 -07.6916 26260.3
 30 10 2013  11 41  -21.0077 26024.3 -03514.8 -07.6917 26260.6
 30 10 2013  11 42  -21.0078 26024.8 -03514.9 -07.6919 26261.1
 30 10 2013  11 43  -21.0083 26025.3 -03515.0 -07.6919 26261.6
 30 10 2013  11 44  -21.0089 26025.9 -03515.2 -07.6921 26262.2
 30 10 2013  11 45  -21.0093 26026.2 -03515.0 -07.6917 26262.5
 30 10 2013  11 46  -21.0101 26026.8 -03515.1 -07.6916 26263.1
 30 10 2013  11 47  -21.0106 26028.3 -03515.5 -07.6920 26264.6
 30 10 2013  11 48  -21.0112 26029.4 -03515.6 -07.6920 26265.8
 30 10 2013  11 49  -21.0120 26030.4 -03515.6 -07.6916 26266.8
 30 10 2013  11 50  -21.0118 26031.2 -03515.4 -07.6910 26267.5
 30 10 2013  11 51  -21.0113 26032.2 -03515.3 -07.6905 26268.5
 30 10 2013  11 52  -21.0117 26032.8 -03515.0 -07.6897 26269.0
 30 10 2013  11 53  -21.0124 26033.3 -03514.6 -07.6887 26269.5
 30 10 2013  11 54  -21.0132 26032.9 -03513.9 -07.6873 26269.0
 30 10 2013  11 55  -21.0135 26032.0 -03513.2 -07.6860 26268.0
 30 10 2013  11 56  -21.0135 26031.2 -03512.8 -07.6854 26267.2
 30 10 2013  11 57  -21.0138 26030.8 -03512.7 -07.6854 26266.8
 30 10 2013  11 58  -21.0137 26031.1 -03512.9 -07.6856 26267.1
 30 10 2013  11 59  -21.0148 26030.8 -03512.6 -07.6851 26266.7
 30 10 2013  12 00  -21.0172 26030.0 -03512.3 -07.6846 26265.9
 30 10 2013  12 01  -21.0182 26030.6 -03512.7 -07.6853 26266.5
 30 10 2013  12 02  -21.0166 26031.3 -03513.1 -07.6860 26267.3
 30 10 2013  12 03  -21.0153 26033.0 -03513.7 -07.6867 26269.0
 30 10 2013  12 04  -21.0147 26035.2 -03514.2 -07.6873 26271.3
 30 10 2013  12 05  -21.0145 26036.9 -03514.3 -07.6870 26273.0
 30 10 2013  12 06  -21.0143 26038.3 -03514.1 -07.6862 26274.4
 30 10 2013  12 07  -21.0145 26038.8 -03513.5 -07.6847 26274.8
 30 10 2013  12 08  -21.0147 26038.8 -03512.7 -07.6830 26274.7
 30 10 2013  12 09  -21.0145 26038.0 -03511.7 -07.6811 26273.7
 30 10 2013  12 10  -21.0141 26037.6 -03511.2 -07.6800 26273.3
 30 10 2013  12 11  -21.0145 26036.9 -03510.7 -07.6791 26272.5
 30 10 2013  12 12  -21.0151 26035.1 -03509.9 -07.6780 26270.6
 30 10 2013  12 13  -21.0153 26034.0 -03509.6 -07.6776 26269.5
 30 10 2013  12 14  -21.0164 26033.1 -03509.6 -07.6779 26268.6
 30 10 2013  12 15  -21.0179 26032.3 -03509.6 -07.6781 26267.8
 30 10 2013  12 16  -21.0195 26031.9 -03509.8 -07.6786 26267.4
 30 10 2013  12 17  -21.0209 26031.0 -03509.5 -07.6784 26266.5
 30 10 2013  12 18  -21.0218 26029.8 -03509.2 -07.6781 26265.3
 30 10 2013  12 19  -21.0221 26028.2 -03509.0 -07.6780 26263.7
 30 10 2013  12 20  -21.0216 26026.8 -03508.8 -07.6781 26262.2
 30 10 2013  12 21  -21.0211 26025.4 -03508.8 -07.6784 26260.9
 30 10 2013  12 22  -21.0218 26025.3 -03509.4 -07.6798 26260.8
 30 10 2013  12 23  -21.0230 26025.9 -03510.2 -07.6813 26261.6
 30 10 2013  12 24  -21.0234 26026.5 -03510.8 -07.6824 26262.2
 30 10 2013  12 25  -21.0236 26026.7 -03511.1 -07.6829 26262.5
 30 10 2013  12 26  -21.0241 26027.4 -03511.4 -07.6835 26263.2
 30 10 2013  12 27  -21.0253 26027.7 -03511.7 -07.6841 26263.5
 30 10 2013  12 28  -21.0263 26028.2 -03512.0 -07.6845 26264.0
 30 10 2013  12 29  -21.0271 26029.0 -03512.2 -07.6848 26264.9
 30 10 2013  12 30  -21.0280 26029.5 -03512.3 -07.6848 26265.4
 30 10 2013  12 31  -21.0289 26029.3 -03512.2 -07.6846 26265.2
 30 10 2013  12 32  -21.0293 26028.7 -03512.0 -07.6843 26264.5
 30 10 2013  12 33  -21.0287 26028.9 -03512.0 -07.6843 26264.8
 30 10 2013  12 34  -21.0290 26029.1 -03512.0 -07.6843 26265.0
 30 10 2013  12 35  -21.0292 26029.1 -03512.0 -07.6842 26264.9
 30 10 2013  12 36  -21.0292 26029.2 -03512.0 -07.6843 26265.1
 30 10 2013  12 37  -21.0288 26029.8 -03512.2 -07.6846 26265.7
 30 10 2013  12 38  -21.0285 26030.6 -03512.5 -07.6849 26266.5
 30 10 2013  12 39  -21.0279 26031.1 -03512.6 -07.6850 26267.0
 30 10 2013  12 40  -21.0271 26032.4 -03513.0 -07.6855 26268.4
 30 10 2013  12 41  -21.0270 26033.9 -03513.4 -07.6858 26269.9
 30 10 2013  12 42  -21.0272 26035.2 -03513.5 -07.6857 26271.2
 30 10 2013  12 43  -21.0281 26035.9 -03513.3 -07.6851 26271.9
 30 10 2013  12 44  -21.0290 26035.9 -03512.8 -07.6840 26271.8
 30 10 2013  12 45  -21.0296 26036.4 -03512.4 -07.6831 26272.2
 30 10 2013  12 46  -21.0300 26037.5 -03512.3 -07.6824 26273.3
 30 10 2013  12 47  -21.0298 26036.4 -03511.3 -07.6806 26272.1
 30 10 2013  12 48  -21.0294 26034.5 -03510.4 -07.6792 26270.1
 30 10 2013  12 49  -21.0292 26033.1 -03509.9 -07.6785 26268.6
 30 10 2013  12 50  -21.0289 26032.8 -03509.9 -07.6786 26268.4
 30 10 2013  12 51  -21.0284 26032.7 -03509.9 -07.6787 26268.3
 30 10 2013  12 52  -21.0278 26032.2 -03509.8 -07.6786 26267.8
 30 10 2013  12 53  -21.0272 26032.6 -03510.0 -07.6789 26268.2
 30 10 2013  12 54  -21.0270 26032.9 -03510.1 -07.6791 26268.4
 30 10 2013  12 55  -21.0270 26033.9 -03510.4 -07.6794 26269.5
 30 10 2013  12 56  -21.0269 26034.0 -03510.2 -07.6790 26269.6
 30 10 2013  12 57  -21.0273 26032.7 -03509.5 -07.6779 26268.2
 30 10 2013  12 58  -21.0274 26032.3 -03509.3 -07.6774 26267.8
 30 10 2013  12 59  -21.0275 26032.5 -03509.2 -07.6773 26268.0
 30 10 2013  13 00  -21.0277 26032.3 -03509.0 -07.6769 26267.8
 30 10 2013  13 01  -21.0282 26032.5 -03509.0 -07.6769 26267.9
 30 10 2013  13 02  -21.0287 26033.3 -03509.2 -07.6769 26268.7
 30 10 2013  13 03  -21.0298 26033.9 -03509.1 -07.6767 26269.3
 30 10 2013  13 04  -21.0304 26033.2 -03508.6 -07.6757 26268.6
 30 10 2013  13 05  -21.0305 26032.8 -03508.2 -07.6750 26268.2
 30 10 2013  13 06  -21.0303 26033.3 -03508.2 -07.6749 26268.6
 30 10 2013  13 07  -21.0300 26034.1 -03508.2 -07.6747 26269.4
 30 10 2013  13 08  -21.0301 26035.0 -03508.3 -07.6745 26270.3
 30 10 2013  13 09  -21.0305 26035.3 -03507.9 -07.6737 26270.6
 30 10 2013  13 10  -21.0311 26035.6 -03507.6 -07.6729 26270.8
 30 10 2013  13 11  -21.0312 26035.8 -03507.3 -07.6722 26271.0
 30 10 2013  13 12  -21.0312 26035.9 -03506.9 -07.6713 26271.0
 30 10 2013  13 13  -21.0310 26036.1 -03506.6 -07.6706 26271.2
 30 10 2013  13 14  -21.0312 26036.5 -03506.4 -07.6700 26271.6
 30 10 2013  13 15  -21.0314 26036.8 -03506.2 -07.6694 26271.8
 30 10 2013  13 16  -21.0316 26037.9 -03506.2 -07.6692 26272.9
 30 10 2013  13 17  -21.0319 26039.7 -03506.4 -07.6692 26274.8
 30 10 2013  13 18  -21.0314 26040.9 -03506.3 -07.6686 26275.9
 30 10 2013  13 19  -21.0309 26042.8 -03506.5 -07.6684 26277.8
 30 10 2013  13 20  -21.0307 26045.3 -03506.8 -07.6683 26280.3
 30 10 2013  13 21  -21.0305 26047.7 -03506.9 -07.6679 26282.7
 30 10 2013  13 22  -21.0303 26049.7 -03506.8 -07.6670 26284.7
 30 10 2013  13 23  -21.0299 26051.0 -03506.3 -07.6656 26285.9
 30 10 2013  13 24  -21.0292 26051.8 -03505.6 -07.6639 26286.6
 30 10 2013  13 25  -21.0288 26052.4 -03505.0 -07.6623 26287.1
 30 10 2013  13 26  -21.0287 26053.2 -03504.4 -07.6609 26287.9
 30 10 2013  13 27  -21.0283 26053.4 -03503.8 -07.6594 26288.0
 30 10 2013  13 28  -21.0278 26053.6 -03503.1 -07.6579 26288.0
 30 10 2013  13 29  -21.0276 26053.8 -03502.6 -07.6567 26288.2
 30 10 2013  13 30  -21.0275 26054.2 -03502.2 -07.6559 26288.5
 30 10 2013  13 31  -21.0273 26053.8 -03501.5 -07.6545 26288.1
 30 10 2013  13 32  -21.0274 26054.1 -03501.2 -07.6537 26288.3
 30 10 2013  13 33  -21.0267 26054.3 -03500.8 -07.6528 26288.4
 30 10 2013  13 34  -21.0262 26054.7 -03500.5 -07.6520 26288.8
 30 10 2013  13 35  -21.0261 26055.4 -03500.3 -07.6514 26289.4
 30 10 2013  13 36  -21.0263 26055.5 -03499.9 -07.6505 26289.5
 30 10 2013  13 37  -21.0254 26054.8 -03499.1 -07.6489 26288.7
 30 10 2013  13 38  -21.0244 26054.8 -03498.7 -07.6480 26288.7
 30 10 2013  13 39  -21.0237 26054.4 -03498.2 -07.6471 26288.2
 30 10 2013  13 40  -21.0233 26054.6 -03498.0 -07.6465 26288.3
 30 10 2013  13 41  -21.0233 26055.1 -03497.9 -07.6463 26288.8
 30 10 2013  13 42  -21.0229 26055.1 -03497.6 -07.6457 26288.8
 30 10 2013  13 43  -21.0223 26055.5 -03497.4 -07.6451 26289.2
 30 10 2013  13 44  -21.0219 26056.2 -03497.3 -07.6447 26289.8
 30 10 2013  13 45  -21.0206 26056.4 -03496.9 -07.6438 26290.0
 30 10 2013  13 46  -21.0198 26056.4 -03496.6 -07.6430 26289.9
 30 10 2013  13 47  -21.0195 26056.9 -03496.5 -07.6426 26290.5
 30 10 2013  13 48  -21.0194 26057.9 -03496.5 -07.6424 26291.5
 30 10 2013  13 49  -21.0193 26058.4 -03496.3 -07.6419 26291.9
 30 10 2013  13 50  -21.0186 26058.2 -03495.8 -07.6407 26291.7
 30 10 2013  13 51  -21.0181 26058.4 -03495.5 -07.6400 26291.8
 30 10 2013  13 52  -21.0172 26057.7 -03494.8 -07.6388 26291.0
 30 10 2013  13 53  -21.0175 26057.5 -03494.6 -07.6384 26290.8
 30 10 2013  13 54  -21.0186 26057.5 -03494.5 -07.6383 26290.8
 30 10 2013  13 55  -21.0188 26056.9 -03494.1 -07.6376 26290.2
 30 10 2013  13 56  -21.0185 26055.9 -03493.7 -07.6369 26289.1
 30 10 2013  13 57  -21.0179 26054.0 -03493.0 -07.6360 26287.2
 30 10 2013  13 58  -21.0176 26052.6 -03492.7 -07.6358 26285.7
 30 10 2013  13 59  -21.0178 26051.9 -03492.9 -07.6363 26285.0
 30 10 2013  14 00  -21.0177 26051.2 -03493.1 -07.6369 26284.4
 30 10 2013  14 01  -21.0183 26050.8 -03493.3 -07.6376 26284.0
 30 10 2013  14 02  -21.0183 26050.6 -03493.5 -07.6381 26283.8
 30 10 2013  14 03  -21.0181 26052.4 -03494.5 -07.6396 26285.7
 30 10 2013  14 04  -21.0176 26053.8 -03494.9 -07.6402 26287.2
 30 10 2013  14 05  -21.0162 26055.1 -03495.1 -07.6401 26288.5
 30 10 2013  14 06  -21.0144 26055.0 -03494.5 -07.6390 26288.3
 30 10 2013  14 07  -21.0131 26054.4 -03493.9 -07.6378 26287.6
 30 10 2013  14 08  -21.0133 26055.0 -03494.0 -07.6378 26288.2
 30 10 2013  14 09  -21.0153 26055.7 -03494.2 -07.6380 26288.9
 30 10 2013  14 10  -21.0163 26055.6 -03493.8 -07.6372 26288.8
 30 10 2013  14 11  -21.0167 26055.6 -03493.4 -07.6364 26288.7
 30 10 2013  14 12  -21.0180 26055.5 -03493.2 -07.6360 26288.6
 30 10 2013  14 13  -21.0189 26055.9 -03493.2 -07.6359 26289.1
 30 10 2013  14 14  -21.0200 26056.8 -03493.3 -07.6358 26289.9
 30 10 2013  14 15  -21.0208 26057.4 -03493.2 -07.6354 26290.5
 30 10 2013  14 16  -21.0214 26058.3 -03493.2 -07.6352 26291.4
 30 10 2013  14 17  -21.0219 26059.0 -03493.1 -07.6346 26292.1
 30 10 2013  14 18  -21.0224 26059.4 -03492.7 -07.6338 26292.4
 30 10 2013  14 19  -21.0229 26059.1 -03492.2 -07.6328 26292.1
 30 10 2013  14 20  -21.0233 26059.2 -03491.8 -07.6319 26292.1
 30 10 2013  14 21  -21.0238 26058.9 -03491.4 -07.6310 26291.7
 30 10 2013  14 22  -21.0236 26058.5 -03490.9 -07.6301 26291.3
 30 10 2013  14 23  -21.0236 26058.5 -03490.6 -07.6295 26291.2
 30 10 2013  14 24  -21.0232 26058.6 -03490.4 -07.6290 26291.3
 30 10 2013  14 25  -21.0232 26058.6 -03490.2 -07.6286 26291.3
 30 10 2013  14 26  -21.0228 26057.8 -03489.7 -07.6278 26290.5
 30 10 2013  14 27  -21.0229 26057.1 -03489.3 -07.6272 26289.7
 30 10 2013  14 28  -21.0231 26057.1 -03489.3 -07.6270 26289.6
 30 10 2013  14 29  -21.0230 26057.2 -03489.2 -07.6268 26289.8
 30 10 2013  14 30  -21.0234 26057.1 -03489.1 -07.6266 26289.7
 30 10 2013  14 31  -21.0234 26056.1 -03488.6 -07.6258 26288.6
 30 10 2013  14 32  -21.0232 26056.0 -03488.5 -07.6257 26288.5
 30 10 2013  14 33  -21.0233 26057.0 -03488.9 -07.6263 26289.5
 30 10 2013  14 34  -21.0234 26057.3 -03488.9 -07.6261 26289.8
 30 10 2013  14 35  -21.0233 26057.4 -03488.7 -07.6257 26289.9
 30 10 2013  14 36  -21.0235 26057.7 -03488.7 -07.6256 26290.2
 30 10 2013  14 37  -21.0242 26057.8 -03488.6 -07.6253 26290.3
 30 10 2013  14 38  -21.0242 26058.3 -03488.6 -07.6253 26290.8
 30 10 2013  14 39  -21.0239 26057.7 -03488.2 -07.6245 26290.1
 30 10 2013  14 40  -21.0242 26056.8 -03487.7 -07.6238 26289.2
 30 10 2013  14 41  -21.0238 26056.1 -03487.4 -07.6233 26288.5
 30 10 2013  14 42  -21.0237 26055.8 -03487.4 -07.6234 26288.1
 30 10 2013  14 43  -21.0235 26055.5 -03487.4 -07.6234 26287.8
 30 10 2013  14 44  -21.0240 26055.9 -03487.8 -07.6241 26288.3
 30 10 2013  14 45  -21.0241 26056.0 -03487.9 -07.6243 26288.4
 30 10 2013  14 46  -21.0249 26055.7 -03487.8 -07.6242 26288.1
 30 10 2013  14 47  -21.0256 26055.9 -03487.9 -07.6244 26288.3
 30 10 2013  14 48  -21.0255 26055.6 -03487.8 -07.6242 26288.0
 30 10 2013  14 49  -21.0251 26055.3 -03487.6 -07.6239 26287.7
 30 10 2013  14 50  -21.0252 26054.4 -03487.3 -07.6235 26286.7
 30 10 2013  14 51  -21.0245 26053.5 -03486.9 -07.6230 26285.8
 30 10 2013  14 52  -21.0242 26052.9 -03486.8 -07.6228 26285.2
 30 10 2013  14 53  -21.0240 26052.4 -03486.7 -07.6229 26284.7
 30 10 2013  14 54  -21.0235 26051.8 -03486.6 -07.6228 26284.0
 30 10 2013  14 55  -21.0241 26051.8 -03486.9 -07.6235 26284.1
 30 10 2013  14 56  -21.0242 26051.3 -03486.9 -07.6235 26283.6
 30 10 2013  14 57  -21.0250 26051.0 -03487.0 -07.6238 26283.3
 30 10 2013  14 58  -21.0251 26051.4 -03487.3 -07.6244 26283.8
 30 10 2013  14 59  -21.0244 26050.7 -03487.0 -07.6240 26283.1
 30 10 2013  15 00  -21.0246 26049.5 -03486.7 -07.6236 26281.9
 30 10 2013  15 01  -21.0253 26049.1 -03486.7 -07.6237 26281.4
 30 10 2013  15 02  -21.0255 26047.9 -03486.3 -07.6233 26280.2
 30 10 2013  15 03  -21.0254 26047.5 -03486.3 -07.6233 26279.7
 30 10 2013  15 04  -21.0252 26047.6 -03486.4 -07.6237 26279.9
 30 10 2013  15 05  -21.0250 26047.5 -03486.6 -07.6239 26279.9
 30 10 2013  15 06  -21.0246 26046.2 -03486.1 -07.6233 26278.5
 30 10 2013  15 07  -21.0248 26046.1 -03486.3 -07.6238 26278.3
 30 10 2013  15 08  -21.0248 26045.8 -03486.4 -07.6241 26278.1
 30 10 2013  15 09  -21.0244 26045.5 -03486.4 -07.6241 26277.8
 30 10 2013  15 10  -21.0245 26046.2 -03486.7 -07.6247 26278.6
 30 10 2013  15 11  -21.0241 26045.9 -03486.6 -07.6245 26278.2
 30 10 2013  15 12  -21.0236 26045.4 -03486.4 -07.6242 26277.7
 30 10 2013  15 13  -21.0246 26044.8 -03486.3 -07.6241 26277.1
 30 10 2013  15 14  -21.0255 26045.5 -03486.7 -07.6249 26277.9
 30 10 2013  15 15  -21.0266 26045.8 -03486.8 -07.6250 26278.1
 30 10 2013  15 16  -21.0258 26046.2 -03486.8 -07.6248 26278.5
 30 10 2013  15 17  -21.0256 26046.3 -03486.7 -07.6246 26278.6
 30 10 2013  15 18  -21.0254 26046.4 -03486.7 -07.6245 26278.7
 30 10 2013  15 19  -21.0254 26046.1 -03486.3 -07.6238 26278.4
 30 10 2013  15 20  -21.0246 26044.5 -03485.6 -07.6226 26276.7
 30 10 2013  15 21  -21.0238 26043.5 -03485.3 -07.6224 26275.7
 30 10 2013  15 22  -21.0243 26043.5 -03485.5 -07.6227 26275.7
 30 10 2013  15 23  -21.0246 26042.9 -03485.4 -07.6227 26275.1
 30 10 2013  15 24  -21.0248 26042.9 -03485.5 -07.6229 26275.1
 30 10 2013  15 25  -21.0246 26042.4 -03485.4 -07.6229 26274.6
 30 10 2013  15 26  -21.0245 26042.1 -03485.5 -07.6231 26274.3
 30 10 2013  15 27  -21.0238 26041.3 -03485.3 -07.6229 26273.5
 30 10 2013  15 28  -21.0237 26041.0 -03485.4 -07.6233 26273.2
 30 10 2013  15 29  -21.0230 26040.5 -03485.5 -07.6236 26272.8
 30 10 2013  15 30  -21.0225 26040.2 -03485.7 -07.6242 26272.5
 30 10 2013  15 31  -21.0217 26040.0 -03485.9 -07.6248 26272.3
 30 10 2013  15 32  -21.0209 26039.5 -03486.1 -07.6252 26271.8
 30 10 2013  15 33  -21.0214 26039.3 -03486.6 -07.6263 26271.7
 30 10 2013  15 34  -21.0218 26039.0 -03486.9 -07.6271 26271.5
 30 10 2013  15 35  -21.0226 26039.2 -03487.5 -07.6283 26271.7
 30 10 2013  15 36  -21.0230 26038.6 -03487.6 -07.6288 26271.1
 30 10 2013  15 37  -21.0233 26038.3 -03488.0 -07.6296 26270.8
 30 10 2013  15 38  -21.0226 26037.8 -03488.1 -07.6300 26270.4
 30 10 2013  15 39  -21.0218 26037.4 -03488.3 -07.6306 26270.1
 30 10 2013  15 40  -21.0211 26036.4 -03488.4 -07.6310 26269.1
 30 10 2013  15 41  -21.0208 26035.4 -03488.5 -07.6317 26268.1
 30 10 2013  15 42  -21.0206 26034.3 -03488.7 -07.6324 26267.0
 30 10 2013  15 43  -21.0209 26033.5 -03489.1 -07.6336 26266.3
 30 10 2013  15 44  -21.0214 26033.3 -03489.7 -07.6348 26266.2
 30 10 2013  15 45  -21.0220 26033.3 -03490.3 -07.6361 26266.2
 30 10 2013  15 46  -21.0229 26034.2 -03491.1 -07.6376 26267.2
 30 10 2013  15 47  -21.0250 26034.9 -03491.7 -07.6387 26268.0
 30 10 2013  15 48  -21.0272 26035.7 -03492.0 -07.6392 26268.8
 30 10 2013  15 49  -21.0280 26035.8 -03492.0 -07.6391 26268.9
 30 10 2013  15 50  -21.0281 26035.8 -03491.9 -07.6389 26268.9
 30 10 2013  15 51  -21.0290 26036.2 -03492.0 -07.6390 26269.3
 30 10 2013  15 52  -21.0294 26036.3 -03492.0 -07.6389 26269.5
 30 10 2013  15 53  -21.0295 26036.2 -03491.8 -07.6385 26269.3
 30 10 2013  15 54  -21.0295 26036.1 -03491.7 -07.6383 26269.2
 30 10 2013  15 55  -21.0294 26035.8 -03491.5 -07.6380 26268.8
 30 10 2013  15 56  -21.0290 26035.2 -03491.3 -07.6377 26268.2
 30 10 2013  15 57  -21.0285 26034.8 -03491.3 -07.6377 26267.9
 30 10 2013  15 58  -21.0279 26034.2 -03491.2 -07.6378 26267.2
 30 10 2013  15 59  -21.0274 26033.2 -03490.9 -07.6375 26266.3
 30 10 2013  16 00  -21.0268 26032.3 -03490.8 -07.6376 26265.3
 30 10 2013  16 01  -21.0266 26031.6 -03490.9 -07.6378 26264.6
 30 10 2013  16 02  -21.0271 26031.5 -03491.2 -07.6386 26264.6
 30 10 2013  16 03  -21.0277 26031.8 -03491.7 -07.6396 26264.9
 30 10 2013  16 04  -21.0277 26031.9 -03492.0 -07.6403 26265.1
 30 10 2013  16 05  -21.0273 26031.8 -03492.3 -07.6408 26265.0
 30 10 2013  16 06  -21.0270 26031.9 -03492.7 -07.6416 26265.2
 30 10 2013  16 07  -21.0268 26032.0 -03493.0 -07.6424 26265.3
 30 10 2013  16 08  -21.0264 26032.0 -03493.4 -07.6432 26265.3
 30 10 2013  16 09  -21.0270 26032.4 -03493.9 -07.6443 26265.8
 30 10 2013  16 10  -21.0280 26033.2 -03494.6 -07.6455 26266.7
 30 10 2013  16 11  -21.0289 26033.7 -03495.0 -07.6462 26267.3
 30 10 2013  16 12  -21.0294 26034.0 -03495.3 -07.6467 26267.6
 30 10 2013  16 13  -21.0298 26034.1 -03495.4 -07.6470 26267.7
 30 10 2013  16 14  -21.0300 26033.7 -03495.5 -07.6472 26267.3
 30 10 2013  16 15  -21.0305 26033.2 -03495.5 -07.6474 26266.8
 30 10 2013  16 16  -21.0307 26032.4 -03495.4 -07.6474 26266.0
 30 10 2013  16 17  -21.0308 26032.1 -03495.5 -07.6476 26265.7
 30 10 2013  16 18  -21.0311 26032.2 -03495.7 -07.6482 26265.8
 30 10 2013  16 19  -21.0313 26032.2 -03495.9 -07.6485 26265.9
 30 10 2013  16 20  -21.0316 26032.2 -03496.0 -07.6487 26265.9
 30 10 2013  16 21  -21.0323 26032.8 -03496.4 -07.6494 26266.6
 30 10 2013  16 22  -21.0331 26034.0 -03496.8 -07.6501 26267.8
 30 10 2013  16 23  -21.0336 26034.5 -03497.0 -07.6502 26268.3
 30 10 2013  16 24  -21.0341 26034.8 -03496.9 -07.6499 26268.6
 30 10 2013  16 25  -21.0346 26035.2 -03496.7 -07.6495 26268.9
 30 10 2013  16 26  -21.0358 26036.2 -03496.9 -07.6496 26270.0
 30 10 2013  16 27  -21.0366 26036.9 -03496.8 -07.6492 26270.7
 30 10 2013  16 28  -21.0373 26037.7 -03496.8 -07.6489 26271.4
 30 10 2013  16 29  -21.0383 26038.3 -03496.8 -07.6487 26272.1
 30 10 2013  16 30  -21.0384 26038.9 -03496.7 -07.6483 26272.7
 30 10 2013  16 31  -21.0386 26039.6 -03496.6 -07.6478 26273.3
 30 10 2013  16 32  -21.0389 26040.7 -03496.6 -07.6476 26274.4
 30 10 2013  16 33  -21.0395 26041.4 -03496.4 -07.6470 26275.0
 30 10 2013  16 34  -21.0398 26041.7 -03496.0 -07.6461 26275.3
 30 10 2013  16 35  -21.0401 26042.3 -03495.8 -07.6454 26275.8
 30 10 2013  16 36  -21.0400 26042.4 -03495.4 -07.6445 26275.9
 30 10 2013  16 37  -21.0403 26042.6 -03495.2 -07.6439 26276.1
 30 10 2013  16 38  -21.0402 26042.4 -03494.7 -07.6430 26275.9
 30 10 2013  16 39  -21.0402 26042.5 -03494.4 -07.6424 26275.9
 30 10 2013  16 40  -21.0398 26042.5 -03494.1 -07.6418 26275.9
 30 10 2013  16 41  -21.0388 26042.0 -03493.6 -07.6408 26275.3
 30 10 2013  16 42  -21.0381 26041.1 -03493.1 -07.6398 26274.3
 30 10 2013  16 43  -21.0376 26040.5 -03492.8 -07.6394 26273.7
 30 10 2013  16 44  -21.0378 26039.7 -03492.5 -07.6390 26272.8
 30 10 2013  16 45  -21.0381 26038.9 -03492.2 -07.6387 26272.0
 30 10 2013  16 46  -21.0392 26038.4 -03492.1 -07.6386 26271.6
 30 10 2013  16 47  -21.0396 26037.9 -03491.9 -07.6383 26271.0
 30 10 2013  16 48  -21.0385 26037.0 -03491.5 -07.6375 26270.0
 30 10 2013  16 49  -21.0377 26036.0 -03491.1 -07.6371 26269.0
 30 10 2013  16 50  -21.0376 26035.5 -03491.1 -07.6373 26268.6
 30 10 2013  16 51  -21.0376 26035.2 -03491.2 -07.6374 26268.2
 30 10 2013  16 52  -21.0387 26035.2 -03491.3 -07.6378 26268.3
 30 10 2013  16 53  -21.0397 26035.3 -03491.4 -07.6380 26268.4
 30 10 2013  16 54  -21.0411 26035.2 -03491.5 -07.6381 26268.3
 30 10 2013  16 55  -21.0406 26034.3 -03491.1 -07.6375 26267.4
 30 10 2013  16 56  -21.0394 26033.4 -03490.7 -07.6370 26266.3
 30 10 2013  16 57  -21.0394 26032.8 -03490.7 -07.6371 26265.8
 30 10 2013  16 58  -21.0399 26032.6 -03490.9 -07.6377 26265.7
 30 10 2013  16 59  -21.0411 26033.2 -03491.4 -07.6385 26266.3
 30 10 2013  17 00  -21.0416 26034.1 -03491.9 -07.6393 26267.3
 30 10 2013  17 01  -21.0414 26035.2 -03492.4 -07.6400 26268.4
 30 10 2013  17 02  -21.0413 26035.5 -03492.5 -07.6402 26268.7
 30 10 2013  17 03  -21.0413 26035.3 -03492.5 -07.6403 26268.5
 30 10 2013  17 04  -21.0413 26035.1 -03492.6 -07.6405 26268.3
 30 10 2013  17 05  -21.0416 26035.1 -03492.7 -07.6407 26268.3
 30 10 2013  17 06  -21.0422 26034.7 -03492.6 -07.6407 26267.9
 30 10 2013  17 07  -21.0427 26034.4 -03492.5 -07.6406 26267.6
 30 10 2013  17 08  -21.0434 26034.2 -03492.6 -07.6408 26267.4
 30 10 2013  17 09  -21.0439 26034.1 -03492.6 -07.6410 26267.3
 30 10 2013  17 10  -21.0439 26033.8 -03492.5 -07.6407 26267.1
 30 10 2013  17 11  -21.0443 26033.9 -03492.5 -07.6408 26267.1
 30 10 2013  17 12  -21.0450 26034.2 -03492.6 -07.6409 26267.4
 30 10 2013  17 13  -21.0459 26034.4 -03492.7 -07.6409 26267.6
 30 10 2013  17 14  -21.0452 26033.8 -03492.3 -07.6403 26267.0
 30 10 2013  17 15  -21.0452 26033.3 -03492.0 -07.6399 26266.5
 30 10 2013  17 16  -21.0456 26032.8 -03491.8 -07.6396 26266.0
 30 10 2013  17 17  -21.0459 26032.1 -03491.5 -07.6391 26265.2
 30 10 2013  17 18  -21.0458 26031.1 -03491.0 -07.6384 26264.1
 30 10 2013  17 19  -21.0451 26030.2 -03490.6 -07.6378 26263.2
 30 10 2013  17 20  -21.0437 26029.1 -03490.2 -07.6372 26262.1
 30 10 2013  17 21  -21.0439 26029.2 -03490.5 -07.6378 26262.2
 30 10 2013  17 22  -21.0449 26030.2 -03491.3 -07.6391 26263.3
 30 10 2013  17 23  -21.0457 26031.6 -03492.1 -07.6405 26264.8
 30 10 2013  17 24  -21.0455 26032.4 -03492.7 -07.6415 26265.7
 30 10 2013  17 25  -21.0452 26032.6 -03492.8 -07.6418 26265.9
 30 10 2013  17 26  -21.0445 26032.6 -03492.9 -07.6420 26265.8
 30 10 2013  17 27  -21.0439 26032.4 -03492.9 -07.6420 26265.7
 30 10 2013  17 28  -21.0438 26032.1 -03492.9 -07.6420 26265.4
 30 10 2013  17 29  -21.0439 26031.6 -03492.8 -07.6419 26264.9
 30 10 2013  17 30  -21.0437 26031.0 -03492.6 -07.6417 26264.2
 30 10 2013  17 31  -21.0437 26030.5 -03492.4 -07.6415 26263.7
 30 10 2013  17 32  -21.0434 26030.1 -03492.3 -07.6414 26263.3
 30 10 2013  17 33  -21.0428 26029.9 -03492.3 -07.6415 26263.2
 30 10 2013  17 34  -21.0421 26029.2 -03492.2 -07.6414 26262.4
 30 10 2013  17 35  -21.0424 26028.7 -03492.2 -07.6416 26262.0
 30 10 2013  17 36  -21.0432 26028.8 -03492.4 -07.6420 26262.1
 30 10 2013  17 37  -21.0438 26028.8 -03492.5 -07.6422 26262.0
 30 10 2013  17 38  -21.0439 26028.8 -03492.5 -07.6422 26262.1
 30 10 2013  17 39  -21.0442 26028.9 -03492.5 -07.6423 26262.1
 30 10 2013  17 40  -21.0450 26028.4 -03492.4 -07.6421 26261.6
 30 10 2013  17 41  -21.0462 26028.2 -03492.3 -07.6420 26261.4
 30 10 2013  17 42  -21.0471 26027.8 -03492.2 -07.6418 26261.1
 30 10 2013  17 43  -21.0477 26028.0 -03492.2 -07.6419 26261.2
 30 10 2013  17 44  -21.0488 26028.2 -03492.4 -07.6421 26261.5
 30 10 2013  17 45  -21.0500 26028.0 -03492.4 -07.6422 26261.2
 30 10 2013  17 46  -21.0502 26027.4 -03492.2 -07.6419 26260.6
 30 10 2013  17 47  -21.0504 26027.1 -03492.1 -07.6418 26260.3
 30 10 2013  17 48  -21.0511 26027.4 -03492.3 -07.6421 26260.7
 30 10 2013  17 49  -21.0529 26028.2 -03492.7 -07.6427 26261.5
 30 10 2013  17 50  -21.0535 26028.5 -03492.6 -07.6424 26261.7
 30 10 2013  17 51  -21.0534 26028.4 -03492.3 -07.6418 26261.6
 30 10 2013  17 52  -21.0532 26028.1 -03491.9 -07.6412 26261.3
 30 10 2013  17 53  -21.0530 26027.8 -03491.6 -07.6406 26260.9
 30 10 2013  17 54  -21.0534 26027.2 -03491.2 -07.6400 26260.3
 30 10 2013  17 55  -21.0540 26026.9 -03491.1 -07.6396 26259.9
 30 10 2013  17 56  -21.0545 26026.5 -03490.8 -07.6393 26259.6
 30 10 2013  17 57  -21.0551 26026.2 -03490.8 -07.6392 26259.3
 30 10 2013  17 58  -21.0550 26025.6 -03490.5 -07.6388 26258.7
 30 10 2013  17 59  -21.0550 26025.6 -03490.5 -07.6388 26258.6
 30 10 2013  18 00  -21.0557 26025.5 -03490.5 -07.6387 26258.5
 30 10 2013  18 01  -21.0562 26025.1 -03490.3 -07.6384 26258.1
 30 10 2013  18 02  -21.0563 26025.0 -03490.2 -07.6383 26258.0
 30 10 2013  18 03  -21.0571 26025.0 -03490.3 -07.6385 26258.0
 30 10 2013  18 04  -21.0579 26024.7 -03490.2 -07.6384 26257.7
 30 10 2013  18 05  -21.0586 26024.4 -03490.1 -07.6382 26257.4
 30 10 2013  18 06  -21.0594 26024.4 -03490.0 -07.6382 26257.4
 30 10 2013  18 07  -21.0607 26024.3 -03490.0 -07.6382 26257.3
 30 10 2013  18 08  -21.0617 26024.3 -03489.9 -07.6379 26257.2
 30 10 2013  18 09  -21.0623 26024.2 -03489.9 -07.6378 26257.2
 30 10 2013  18 10  -21.0632 26024.2 -03489.8 -07.6376 26257.2
 30 10 2013  18 11  -21.0642 26024.1 -03489.7 -07.6374 26257.0
 30 10 2013  18 12  -21.0652 26023.9 -03489.5 -07.6371 26256.8
 30 10 2013  18 13  -21.0657 26023.8 -03489.4 -07.6369 26256.7
 30 10 2013  18 14  -21.0659 26023.6 -03489.3 -07.6367 26256.4
 30 10 2013  18 15  -21.0662 26023.6 -03489.3 -07.6368 26256.5
 30 10 2013  18 16  -21.0666 26023.7 -03489.3 -07.6368 26256.5
 30 10 2013  18 17  -21.0674 26024.0 -03489.4 -07.6369 26256.9
 30 10 2013  18 18  -21.0680 26023.9 -03489.3 -07.6366 26256.7
 30 10 2013  18 19  -21.0680 26023.2 -03488.8 -07.6359 26256.0
 30 10 2013  18 20  -21.0677 26022.4 -03488.5 -07.6353 26255.2
 30 10 2013  18 21  -21.0680 26021.9 -03488.3 -07.6351 26254.6
 30 10 2013  18 22  -21.0684 26021.3 -03488.1 -07.6349 26254.1
 30 10 2013  18 23  -21.0686 26021.0 -03488.1 -07.6349 26253.8
 30 10 2013  18 24  -21.0686 26020.8 -03488.0 -07.6348 26253.5
 30 10 2013  18 25  -21.0684 26020.2 -03487.7 -07.6344 26253.0
 30 10 2013  18 26  -21.0682 26019.7 -03487.5 -07.6341 26252.4
 30 10 2013  18 27  -21.0681 26019.4 -03487.4 -07.6339 26252.1
 30 10 2013  18 28  -21.0683 26019.3 -03487.4 -07.6339 26251.9
 30 10 2013  18 29  -21.0675 26019.2 -03487.3 -07.6337 26251.9
 30 10 2013  18 30  -21.0672 26019.0 -03487.2 -07.6336 26251.7
 30 10 2013  18 31  -21.0672 26018.8 -03487.1 -07.6334 26251.5
 30 10 2013  18 32  -21.0671 26018.8 -03487.0 -07.6331 26251.4
 30 10 2013  18 33  -21.0669 26018.8 -03486.9 -07.6331 26251.5
 30 10 2013  18 34  -21.0666 26018.7 -03486.9 -07.6331 26251.3
 30 10 2013  18 35  -21.0667 26018.4 -03486.8 -07.6329 26251.0
 30 10 2013  18 36  -21.0664 26018.1 -03486.5 -07.6324 26250.6
 30 10 2013  18 37  -21.0662 26017.4 -03486.2 -07.6319 26250.0
 30 10 2013  18 38  -21.0664 26016.8 -03485.9 -07.6314 26249.3
 30 10 2013  18 39  -21.0667 26016.3 -03485.7 -07.6312 26248.8
 30 10 2013  18 40  -21.0671 26016.0 -03485.6 -07.6309 26248.5
 30 10 2013  18 41  -21.0675 26015.8 -03485.5 -07.6307 26248.2
 30 10 2013  18 42  -21.0677 26015.5 -03485.3 -07.6304 26247.9
 30 10 2013  18 43  -21.0672 26015.2 -03485.1 -07.6301 26247.6
 30 10 2013  18 44  -21.0669 26015.1 -03485.1 -07.6301 26247.5
 30 10 2013  18 45  -21.0669 26015.1 -03485.1 -07.6301 26247.5
 30 10 2013  18 46  -21.0666 26015.1 -03485.2 -07.6303 26247.5
 30 10 2013  18 47  -21.0659 26015.1 -03485.1 -07.6301 26247.5
 30 10 2013  18 48  -21.0654 26014.6 -03484.9 -07.6298 26246.9
 30 10 2013  18 49  -21.0649 26014.2 -03484.7 -07.6296 26246.6
 30 10 2013  18 50  -21.0647 26013.8 -03484.6 -07.6294 26246.1
 30 10 2013  18 51  -21.0645 26013.5 -03484.5 -07.6293 26245.8
 30 10 2013  18 52  -21.0644 26013.1 -03484.4 -07.6292 26245.4
 30 10 2013  18 53  -21.0640 26012.9 -03484.4 -07.6293 26245.3
 30 10 2013  18 54  -21.0640 26013.1 -03484.6 -07.6296 26245.5
 30 10 2013  18 55  -21.0640 26012.9 -03484.5 -07.6296 26245.3
 30 10 2013  18 56  -21.0636 26012.4 -03484.3 -07.6293 26244.7
 30 10 2013  18 57  -21.0633 26011.5 -03484.0 -07.6288 26243.8
 30 10 2013  18 58  -21.0631 26011.0 -03483.8 -07.6286 26243.2
 30 10 2013  18 59  -21.0630 26010.6 -03483.7 -07.6285 26242.9
 30 10 2013  19 00  -21.0629 26010.3 -03483.6 -07.6284 26242.5
 30 10 2013  19 01  -21.0629 26010.1 -03483.6 -07.6284 26242.3
 30 10 2013  19 02  -21.0630 26009.8 -03483.6 -07.6285 26242.1
 30 10 2013  19 03  -21.0630 26009.3 -03483.5 -07.6284 26241.6
 30 10 2013  19 04  -21.0634 26008.9 -03483.4 -07.6284 26241.2
 30 10 2013  19 05  -21.0639 26008.6 -03483.4 -07.6284 26240.8
 30 10 2013  19 06  -21.0640 26008.2 -03483.3 -07.6283 26240.4
 30 10 2013  19 07  -21.0641 26008.0 -03483.3 -07.6284 26240.3
 30 10 2013  19 08  -21.0638 26008.0 -03483.5 -07.6287 26240.3
 30 10 2013  19 09  -21.0637 26007.9 -03483.5 -07.6289 26240.2
 30 10 2013  19 10  -21.0632 26007.9 -03483.7 -07.6292 26240.2
 30 10 2013  19 11  -21.0632 26008.2 -03483.9 -07.6297 26240.5
 30 10 2013  19 12  -21.0630 26008.2 -03484.1 -07.6300 26240.6
 30 10 2013  19 13  -21.0631 26008.0 -03484.2 -07.6302 26240.4
 30 10 2013  19 14  -21.0638 26008.1 -03484.4 -07.6307 26240.5
 30 10 2013  19 15  -21.0643 26007.9 -03484.4 -07.6308 26240.3
 30 10 2013  19 16  -21.0651 26007.4 -03484.3 -07.6307 26239.8
 30 10 2013  19 17  -21.0658 26007.1 -03484.2 -07.6306 26239.4
 30 10 2013  19 18  -21.0668 26006.8 -03484.1 -07.6304 26239.1
 30 10 2013  19 19  -21.0673 26006.3 -03483.9 -07.6302 26238.7
 30 10 2013  19 20  -21.0673 26005.8 -03483.7 -07.6298 26238.1
 30 10 2013  19 21  -21.0673 26005.0 -03483.4 -07.6293 26237.2
 30 10 2013  19 22  -21.0668 26004.2 -03483.1 -07.6289 26236.4
 30 10 2013  19 23  -21.0664 26003.8 -03483.0 -07.6289 26236.0
 30 10 2013  19 24  -21.0660 26003.6 -03483.1 -07.6292 26235.9
 30 10 2013  19 25  -21.0659 26003.3 -03483.2 -07.6293 26235.6
 30 10 2013  19 26  -21.0656 26003.3 -03483.4 -07.6298 26235.6
 30 10 2013  19 27  -21.0652 26003.3 -03483.5 -07.6302 26235.6
 30 10 2013  19 28  -21.0647 26003.2 -03483.6 -07.6304 26235.5
 30 10 2013  19 29  -21.0643 26002.9 -03483.7 -07.6307 26235.3
 30 10 2013  19 30  -21.0635 26002.8 -03483.8 -07.6310 26235.1
 30 10 2013  19 31  -21.0626 26002.8 -03484.0 -07.6314 26235.2
 30 10 2013  19 32  -21.0616 26002.8 -03484.3 -07.6319 26235.2
 30 10 2013  19 33  -21.0608 26003.0 -03484.6 -07.6326 26235.4
 30 10 2013  19 34  -21.0603 26003.1 -03484.9 -07.6331 26235.5
 30 10 2013  19 35  -21.0599 26002.8 -03484.9 -07.6334 26235.3
 30 10 2013  19 36  -21.0595 26002.3 -03484.9 -07.6334 26234.8
 30 10 2013  19 37  -21.0589 26001.4 -03484.6 -07.6330 26233.8
 30 10 2013  19 38  -21.0583 26000.2 -03484.2 -07.6324 26232.6
 30 10 2013  19 39  -21.0579 25999.1 -03483.8 -07.6320 26231.5
 30 10 2013  19 40  -21.0590 25998.1 -03483.5 -07.6317 26230.5
 30 10 2013  19 41  -21.0588 25997.6 -03483.6 -07.6320 26230.0
 30 10 2013  19 42  -21.0598 25997.4 -03483.8 -07.6324 26229.8
 30 10 2013  19 43  -21.0603 25997.6 -03484.1 -07.6331 26230.0
 30 10 2013  19 44  -21.0593 25997.8 -03484.5 -07.6338 26230.3
 30 10 2013  19 45  -21.0587 25998.1 -03484.9 -07.6346 26230.7
 30 10 2013  19 46  -21.0583 25998.6 -03485.3 -07.6355 26231.2
 30 10 2013  19 47  -21.0555 25999.1 -03485.7 -07.6362 26231.7
 30 10 2013  19 48  -21.0547 25999.6 -03486.2 -07.6369 26232.3
 30 10 2013  19 49  -21.0536 26000.2 -03486.6 -07.6378 26232.9
 30 10 2013  19 50  -21.0532 26000.6 -03487.0 -07.6385 26233.4
 30 10 2013  19 51  -21.0530 26000.9 -03487.3 -07.6391 26233.8
 30 10 2013  19 52  -21.0527 26001.1 -03487.5 -07.6393 26234.0
 30 10 2013  19 53  -21.0528 26001.4 -03487.7 -07.6398 26234.3
 30 10 2013  19 54  -21.0528 26001.7 -03488.0 -07.6402 26234.6
 30 10 2013  19 55  -21.0526 26001.8 -03488.1 -07.6404 26234.8
 30 10 2013  19 56  -21.0524 26002.0 -03488.2 -07.6408 26234.9
 30 10 2013  19 57  -21.0522 26002.1 -03488.4 -07.6410 26235.1
 30 10 2013  19 58  -21.0521 26002.3 -03488.6 -07.6414 26235.2
 30 10 2013  19 59  -21.0522 26002.4 -03488.7 -07.6417 26235.4
 30 10 2013  20 00  -21.0520 26002.5 -03488.8 -07.6419 26235.5
 30 10 2013  20 01  -21.0518 26002.2 -03488.8 -07.6420 26235.2
 30 10 2013  20 02  -21.0516 26002.0 -03488.9 -07.6421 26235.0
 30 10 2013  20 03  -21.0513 26001.9 -03488.9 -07.6422 26234.9
 30 10 2013  20 04  -21.0513 26001.7 -03489.0 -07.6424 26234.8
 30 10 2013  20 05  -21.0512 26001.5 -03489.0 -07.6426 26234.6
 30 10 2013  20 06  -21.0512 26001.4 -03489.1 -07.6428 26234.5
 30 10 2013  20 07  -21.0513 26001.2 -03489.2 -07.6430 26234.3
 30 10 2013  20 08  -21.0511 26000.9 -03489.2 -07.6431 26234.0
 30 10 2013  20 09  -21.0509 26000.6 -03489.2 -07.6431 26233.7
 30 10 2013  20 10  -21.0505 26000.3 -03489.2 -07.6433 26233.4
 30 10 2013  20 11  -21.0503 25999.6 -03489.0 -07.6431 26232.7
 30 10 2013  20 12  -21.0502 25999.1 -03489.0 -07.6432 26232.2
 30 10 2013  20 13  -21.0501 25998.7 -03489.0 -07.6434 26231.7
 30 10 2013  20 14  -21.0500 25998.2 -03489.0 -07.6435 26231.3
 30 10 2013  20 15  -21.0498 25997.8 -03489.0 -07.6436 26230.8
 30 10 2013  20 16  -21.0497 25997.3 -03489.0 -07.6438 26230.4
 30 10 2013  20 17  -21.0494 25997.0 -03489.1 -07.6440 26230.1
 30 10 2013  20 18  -21.0493 25996.7 -03489.2 -07.6443 26229.8
 30 10 2013  20 19  -21.0492 25996.4 -03489.3 -07.6446 26229.5
 30 10 2013  20 20  -21.0492 25996.2 -03489.5 -07.6451 26229.4
 30 10 2013  20 21  -21.0493 25996.0 -03489.6 -07.6454 26229.2
 30 10 2013  20 22  -21.0496 25995.8 -03489.7 -07.6458 26229.0
 30 10 2013  20 23  -21.0497 25995.6 -03489.8 -07.6460 26228.8
 30 10 2013  20 24  -21.0499 25995.4 -03490.0 -07.6464 26228.6
 30 10 2013  20 25  -21.0500 25995.1 -03490.0 -07.6466 26228.3
 30 10 2013  20 26  -21.0500 25995.0 -03490.2 -07.6470 26228.3
 30 10 2013  20 27  -21.0503 25994.6 -03490.2 -07.6472 26227.8
 30 10 2013  20 28  -21.0501 25994.0 -03490.1 -07.6471 26227.3
 30 10 2013  20 29  -21.0498 25993.5 -03490.1 -07.6472 26226.8
 30 10 2013  20 30  -21.0496 25993.0 -03490.0 -07.6472 26226.2
 30 10 2013  20 31  -21.0496 25992.4 -03489.9 -07.6472 26225.6
 30 10 2013  20 32  -21.0496 25991.9 -03490.0 -07.6474 26225.2
 30 10 2013  20 33  -21.0494 25991.4 -03489.9 -07.6474 26224.6
 30 10 2013  20 34  -21.0492 25991.0 -03489.9 -07.6476 26224.3
 30 10 2013  20 35  -21.0489 25990.6 -03489.8 -07.6475 26223.9
 30 10 2013  20 36  -21.0489 25990.3 -03490.1 -07.6481 26223.5
 30 10 2013  20 37  -21.0489 25989.9 -03490.2 -07.6484 26223.2
 30 10 2013  20 38  -21.0488 25989.7 -03490.3 -07.6488 26223.0
 30 10 2013  20 39  -21.0485 25989.2 -03490.3 -07.6489 26222.5
 30 10 2013  20 40  -21.0487 25988.7 -03490.3 -07.6490 26222.0
 30 10 2013  20 41  -21.0486 25988.2 -03490.3 -07.6491 26221.5
 30 10 2013  20 42  -21.0483 25987.8 -03490.3 -07.6492 26221.1
 30 10 2013  20 43  -21.0481 25987.2 -03490.2 -07.6493 26220.6
 30 10 2013  20 44  -21.0481 25986.8 -03490.2 -07.6494 26220.1
 30 10 2013  20 45  -21.0486 25986.1 -03490.1 -07.6495 26219.4
 30 10 2013  20 46  -21.0488 25985.4 -03490.1 -07.6495 26218.7
 30 10 2013  20 47  -21.0489 25985.0 -03490.1 -07.6497 26218.3
 30 10 2013  20 48  -21.0490 25984.7 -03490.2 -07.6500 26218.0
 30 10 2013  20 49  -21.0490 25983.9 -03490.1 -07.6500 26217.3
 30 10 2013  20 50  -21.0490 25983.2 -03490.0 -07.6500 26216.5
 30 10 2013  20 51  -21.0490 25982.5 -03489.9 -07.6501 26215.8
 30 10 2013  20 52  -21.0490 25981.9 -03489.9 -07.6502 26215.2
 30 10 2013  20 53  -21.0488 25981.3 -03489.9 -07.6504 26214.7
 30 10 2013  20 54  -21.0489 25980.7 -03489.9 -07.6506 26214.0
 30 10 2013  20 55  -21.0489 25980.1 -03490.0 -07.6509 26213.4
 30 10 2013  20 56  -21.0493 25979.5 -03490.0 -07.6512 26212.8
 30 10 2013  20 57  -21.0495 25978.9 -03490.1 -07.6515 26212.3
 30 10 2013  20 58  -21.0501 25978.5 -03490.3 -07.6520 26212.0
 30 10 2013  20 59  -21.0506 25978.1 -03490.4 -07.6524 26211.5
 30 10 2013  21 00  -21.0509 25977.6 -03490.5 -07.6526 26211.0
 30 10 2013  21 01  -21.0513 25976.9 -03490.5 -07.6529 26210.4
 30 10 2013  21 02  -21.0515 25976.3 -03490.5 -07.6531 26209.7
 30 10 2013  21 03  -21.0516 25975.8 -03490.5 -07.6533 26209.2
 30 10 2013  21 04  -21.0518 25975.5 -03490.6 -07.6537 26209.0
 30 10 2013  21 05  -21.0521 25975.3 -03490.8 -07.6541 26208.8
 30 10 2013  21 06  -21.0525 25975.2 -03491.0 -07.6546 26208.7
 30 10 2013  21 07  -21.0530 25975.0 -03491.2 -07.6551 26208.6
 30 10 2013  21 08  -21.0535 25974.8 -03491.4 -07.6554 26208.4
 30 10 2013  21 09  -21.0542 25974.7 -03491.5 -07.6558 26208.3
 30 10 2013  21 10  -21.0548 25974.6 -03491.6 -07.6560 26208.3
 30 10 2013  21 11  -21.0552 25974.5 -03491.8 -07.6564 26208.2
 30 10 2013  21 12  -21.0555 25974.4 -03491.9 -07.6567 26208.1
 30 10 2013  21 13  -21.0558 25974.4 -03492.0 -07.6569 26208.1
 30 10 2013  21 14  -21.0563 25974.5 -03492.2 -07.6573 26208.2
 30 10 2013  21 15  -21.0568 25974.3 -03492.3 -07.6576 26208.0
 30 10 2013  21 16  -21.0572 25974.1 -03492.4 -07.6578 26207.9
 30 10 2013  21 17  -21.0576 25974.1 -03492.4 -07.6579 26207.8
 30 10 2013  21 18  -21.0582 25974.0 -03492.5 -07.6582 26207.7
 30 10 2013  21 19  -21.0586 25973.9 -03492.6 -07.6585 26207.7
 30 10 2013  21 20  -21.0587 25973.8 -03492.7 -07.6586 26207.5
 30 10 2013  21 21  -21.0587 25973.6 -03492.8 -07.6588 26207.4
 30 10 2013  21 22  -21.0591 25973.5 -03492.8 -07.6589 26207.2
 30 10 2013  21 23  -21.0593 25973.6 -03493.0 -07.6592 26207.4
 30 10 2013  21 24  -21.0592 25973.8 -03493.2 -07.6597 26207.6
 30 10 2013  21 25  -21.0584 25974.8 -03493.8 -07.6606 26208.7
 30 10 2013  21 26  -21.0581 25975.0 -03494.1 -07.6613 26208.9
 30 10 2013  21 27  -21.0577 25975.5 -03494.4 -07.6618 26209.5
 30 10 2013  21 28  -21.0566 25976.4 -03494.9 -07.6626 26210.4
 30 10 2013  21 29  -21.0555 25976.9 -03495.2 -07.6632 26211.0
 30 10 2013  21 30  -21.0555 25977.8 -03495.7 -07.6640 26212.0
 30 10 2013  21 31  -21.0547 25978.8 -03496.3 -07.6650 26213.1
 30 10 2013  21 32  -21.0544 25978.0 -03496.0 -07.6645 26212.2
 30 10 2013  21 33  -21.0541 25977.1 -03495.6 -07.6639 26211.3
 30 10 2013  21 34  -21.0544 25976.7 -03495.4 -07.6635 26210.9
 30 10 2013  21 35  -21.0549 25976.7 -03495.5 -07.6638 26210.8
 30 10 2013  21 36  -21.0554 25976.3 -03495.4 -07.6637 26210.4
 30 10 2013  21 37  -21.0558 25976.4 -03495.5 -07.6640 26210.5
 30 10 2013  21 38  -21.0560 25976.1 -03495.5 -07.6641 26210.2
 30 10 2013  21 39  -21.0559 25975.9 -03495.5 -07.6640 26210.0
 30 10 2013  21 40  -21.0560 25975.7 -03495.5 -07.6641 26209.8
 30 10 2013  21 41  -21.0564 25975.7 -03495.6 -07.6644 26209.8
 30 10 2013  21 42  -21.0563 25975.7 -03495.7 -07.6645 26209.9
 30 10 2013  21 43  -21.0564 25975.4 -03495.6 -07.6645 26209.6
 30 10 2013  21 44  -21.0564 25975.6 -03495.8 -07.6648 26209.8
 30 10 2013  21 45  -21.0565 25975.6 -03495.9 -07.6651 26209.8
 30 10 2013  21 46  -21.0563 25975.0 -03495.7 -07.6647 26209.2
 30 10 2013  21 47  -21.0560 25974.7 -03495.5 -07.6645 26208.9
 30 10 2013  21 48  -21.0559 25974.6 -03495.5 -07.6645 26208.7
 30 10 2013  21 49  -21.0564 25974.8 -03495.8 -07.6649 26208.9
 30 10 2013  21 50  -21.0570 25975.0 -03496.0 -07.6655 26209.2
 30 10 2013  21 51  -21.0578 25974.9 -03496.1 -07.6657 26209.2
 30 10 2013  21 52  -21.0585 25974.6 -03496.0 -07.6656 26208.8
 30 10 2013  21 53  -21.0591 25973.8 -03495.7 -07.6651 26208.0
 30 10 2013  21 54  -21.0599 25973.2 -03495.4 -07.6646 26207.4
 30 10 2013  21 55  -21.0602 25972.7 -03495.1 -07.6642 26206.8
 30 10 2013  21 56  -21.0601 25972.2 -03494.9 -07.6639 26206.3
 30 10 2013  21 57  -21.0597 25971.7 -03494.7 -07.6636 26205.8
 30 10 2013  21 58  -21.0595 25971.3 -03494.6 -07.6634 26205.3
 30 10 2013  21 59  -21.0590 25970.8 -03494.4 -07.6632 26204.8
 30 10 2013  22 00  -21.0586 25970.5 -03494.4 -07.6633 26204.6
 30 10 2013  22 01  -21.0587 25970.6 -03494.7 -07.6638 26204.7
 30 10 2013  22 02  -21.0587 25970.7 -03494.9 -07.6642 26204.8
 30 10 2013  22 03  -21.0592 25970.9 -03495.1 -07.6648 26205.0
 30 10 2013  22 04  -21.0600 25970.9 -03495.3 -07.6652 26205.0
 30 10 2013  22 05  -21.0598 25970.5 -03495.2 -07.6651 26204.6
 30 10 2013  22 06  -21.0598 25970.0 -03495.0 -07.6648 26204.1
 30 10 2013  22 07  -21.0601 25969.5 -03494.9 -07.6646 26203.6
 30 10 2013  22 08  -21.0601 25969.1 -03494.7 -07.6644 26203.2
 30 10 2013  22 09  -21.0601 25968.6 -03494.6 -07.6642 26202.7
 30 10 2013  22 10  -21.0609 25968.1 -03494.4 -07.6641 26202.2
 30 10 2013  22 11  -21.0616 25967.5 -03494.3 -07.6639 26201.6
 30 10 2013  22 12  -21.0622 25966.8 -03494.0 -07.6636 26200.8
 30 10 2013  22 13  -21.0625 25966.1 -03493.8 -07.6632 26200.1
 30 10 2013  22 14  -21.0629 25965.6 -03493.6 -07.6630 26199.6
 30 10 2013  22 15  -21.0636 25965.3 -03493.6 -07.6630 26199.2
 30 10 2013  22 16  -21.0645 25964.7 -03493.5 -07.6629 26198.6
 30 10 2013  22 17  -21.0646 25963.9 -03493.2 -07.6625 26197.9
 30 10 2013  22 18  -21.0647 25963.3 -03492.9 -07.6622 26197.2
 30 10 2013  22 19  -21.0651 25962.7 -03492.8 -07.6620 26196.6
 30 10 2013  22 20  -21.0659 25962.3 -03492.8 -07.6621 26196.2
 30 10 2013  22 21  -21.0669 25961.9 -03492.7 -07.6622 26195.8
 30 10 2013  22 22  -21.0680 25961.5 -03492.7 -07.6623 26195.4
 30 10 2013  22 23  -21.0686 25961.2 -03492.7 -07.6623 26195.1
 30 10 2013  22 24  -21.0690 25960.8 -03492.6 -07.6622 26194.7
 30 10 2013  22 25  -21.0695 25960.4 -03492.5 -07.6622 26194.3
 30 10 2013  22 26  -21.0698 25959.9 -03492.4 -07.6621 26193.7
 30 10 2013  22 27  -21.0703 25959.4 -03492.3 -07.6620 26193.2
 30 10 2013  22 28  -21.0710 25959.0 -03492.3 -07.6620 26192.9
 30 10 2013  22 29  -21.0714 25958.6 -03492.2 -07.6621 26192.5
 30 10 2013  22 30  -21.0718 25958.2 -03492.2 -07.6621 26192.1
 30 10 2013  22 31  -21.0720 25957.8 -03492.1 -07.6619 26191.6
 30 10 2013  22 32  -21.0724 25957.6 -03492.1 -07.6621 26191.4
 30 10 2013  22 33  -21.0728 25957.3 -03492.1 -07.6622 26191.2
 30 10 2013  22 34  -21.0730 25957.0 -03492.2 -07.6624 26190.9
 30 10 2013  22 35  -21.0728 25956.8 -03492.2 -07.6624 26190.7
 30 10 2013  22 36  -21.0729 25956.7 -03492.3 -07.6626 26190.6
 30 10 2013  22 37  -21.0733 25956.8 -03492.5 -07.6631 26190.7
 30 10 2013  22 38  -21.0740 25956.9 -03492.7 -07.6635 26190.8
 30 10 2013  22 39  -21.0743 25956.9 -03492.8 -07.6639 26190.8
 30 10 2013  22 40  -21.0740 25956.8 -03492.9 -07.6640 26190.7
 30 10 2013  22 41  -21.0735 25956.7 -03492.9 -07.6640 26190.7
 30 10 2013  22 42  -21.0731 25956.7 -03493.0 -07.6643 26190.7
 30 10 2013  22 43  -21.0729 25956.7 -03493.1 -07.6645 26190.7
 30 10 2013  22 44  -21.0726 25956.7 -03493.3 -07.6648 26190.7
 30 10 2013  22 45  -21.0723 25956.7 -03493.4 -07.6651 26190.8
 30 10 2013  22 46  -21.0722 25956.9 -03493.6 -07.6654 26190.9
 30 10 2013  22 47  -21.0720 25957.0 -03493.7 -07.6657 26191.0
 30 10 2013  22 48  -21.0721 25957.2 -03493.9 -07.6661 26191.3
 30 10 2013  22 49  -21.0722 25957.4 -03494.1 -07.6665 26191.5
 30 10 2013  22 50  -21.0720 25957.7 -03494.3 -07.6668 26191.8
 30 10 2013  22 51  -21.0715 25957.7 -03494.4 -07.6670 26191.9
 30 10 2013  22 52  -21.0711 25957.9 -03494.5 -07.6672 26192.1
 30 10 2013  22 53  -21.0708 25958.0 -03494.6 -07.6673 26192.2
 30 10 2013  22 54  -21.0706 25958.3 -03494.8 -07.6676 26192.4
 30 10 2013  22 55  -21.0705 25958.4 -03495.0 -07.6680 26192.7
 30 10 2013  22 56  -21.0705 25958.6 -03495.1 -07.6683 26192.9
 30 10 2013  22 57  -21.0704 25958.8 -03495.2 -07.6684 26193.0
 30 10 2013  22 58  -21.0701 25958.9 -03495.3 -07.6685 26193.1
 30 10 2013  22 59  -21.0698 25959.0 -03495.4 -07.6687 26193.3
 30 10 2013  23 00  -21.0696 25959.3 -03495.5 -07.6690 26193.6
 30 10 2013  23 01  -21.0697 25959.5 -03495.7 -07.6693 26193.8
 30 10 2013  23 02  -21.0700 25959.8 -03495.9 -07.6695 26194.1
 30 10 2013  23 03  -21.0703 25959.9 -03496.0 -07.6697 26194.3
 30 10 2013  23 04  -21.0703 25959.9 -03495.9 -07.6697 26194.2
 30 10 2013  23 05  -21.0701 25959.9 -03495.9 -07.6695 26194.3
 30 10 2013  23 06  -21.0698 25959.8 -03495.8 -07.6693 26194.1
 30 10 2013  23 07  -21.0696 25959.8 -03495.8 -07.6693 26194.1
 30 10 2013  23 08  -21.0701 25959.9 -03495.9 -07.6695 26194.2
 30 10 2013  23 09  -21.0705 25960.0 -03496.0 -07.6697 26194.3
 30 10 2013  23 10  -21.0703 25960.0 -03495.9 -07.6696 26194.3
 30 10 2013  23 11  -21.0697 25959.8 -03495.7 -07.6693 26194.1
 30 10 2013  23 12  -21.0691 25959.6 -03495.7 -07.6691 26193.9
 30 10 2013  23 13  -21.0687 25959.7 -03495.6 -07.6691 26194.0
 30 10 2013  23 14  -21.0687 25959.6 -03495.7 -07.6693 26194.0
 30 10 2013  23 15  -21.0687 25959.7 -03495.8 -07.6695 26194.0
 30 10 2013  23 16  -21.0688 25959.6 -03495.8 -07.6696 26194.0
 30 10 2013  23 17  -21.0685 25959.6 -03495.8 -07.6695 26193.9
 30 10 2013  23 18  -21.0680 25959.5 -03495.8 -07.6694 26193.8
 30 10 2013  23 19  -21.0670 25959.4 -03495.7 -07.6694 26193.8
 30 10 2013  23 20  -21.0662 25959.4 -03495.8 -07.6694 26193.8
 30 10 2013  23 21  -21.0654 25959.4 -03495.8 -07.6695 26193.8
 30 10 2013  23 22  -21.0649 25959.6 -03496.0 -07.6698 26193.9
 30 10 2013  23 23  -21.0641 25959.8 -03496.1 -07.6701 26194.1
 30 10 2013  23 24  -21.0632 25959.9 -03496.2 -07.6703 26194.3
 30 10 2013  23 25  -21.0624 25960.0 -03496.4 -07.6706 26194.4
 30 10 2013  23 26  -21.0614 25960.2 -03496.5 -07.6709 26194.6
 30 10 2013  23 27  -21.0607 25960.3 -03496.6 -07.6710 26194.7
 30 10 2013  23 28  -21.0600 25960.5 -03496.8 -07.6715 26195.0
 30 10 2013  23 29  -21.0592 25960.5 -03496.9 -07.6716 26195.0
 30 10 2013  23 30  -21.0583 25960.9 -03497.1 -07.6720 26195.4
 30 10 2013  23 31  -21.0574 25961.3 -03497.3 -07.6723 26195.8
 30 10 2013  23 32  -21.0567 25961.5 -03497.6 -07.6728 26196.0
 30 10 2013  23 33  -21.0562 25961.8 -03497.8 -07.6731 26196.4
 30 10 2013  23 34  -21.0559 25962.0 -03498.0 -07.6735 26196.6
 30 10 2013  23 35  -21.0553 25962.2 -03498.1 -07.6736 26196.8
 30 10 2013  23 36  -21.0548 25962.2 -03498.1 -07.6737 26196.9
 30 10 2013  23 37  -21.0541 25962.4 -03498.2 -07.6739 26197.0
 30 10 2013  23 38  -21.0535 25962.4 -03498.3 -07.6740 26197.1
 30 10 2013  23 39  -21.0529 25962.4 -03498.3 -07.6741 26197.1
 30 10 2013  23 40  -21.0523 25962.4 -03498.3 -07.6741 26197.1
 30 10 2013  23 41  -21.0516 25962.4 -03498.3 -07.6741 26197.0
 30 10 2013  23 42  -21.0508 25962.5 -03498.4 -07.6743 26197.1
 30 10 2013  23 43  -21.0503 25962.7 -03498.6 -07.6746 26197.4
 30 10 2013  23 44  -21.0499 25963.0 -03498.8 -07.6750 26197.7
 30 10 2013  23 45  -21.0494 25963.3 -03499.0 -07.6753 26198.0
 30 10 2013  23 46  -21.0489 25963.6 -03499.2 -07.6756 26198.3
 30 10 2013  23 47  -21.0487 25963.9 -03499.4 -07.6760 26198.7
 30 10 2013  23 48  -21.0485 25964.2 -03499.6 -07.6763 26199.0
 30 10 2013  23 49  -21.0483 25964.5 -03499.8 -07.6766 26199.3
 30 10 2013  23 50  -21.0481 25964.9 -03499.9 -07.6769 26199.7
 30 10 2013  23 51  -21.0478 25965.1 -03500.1 -07.6771 26200.0
 30 10 2013  23 52  -21.0471 25965.3 -03500.1 -07.6771 26200.1
 30 10 2013  23 53  -21.0464 25965.3 -03500.1 -07.6772 26200.2
 30 10 2013  23 54  -21.0457 25965.6 -03500.2 -07.6772 26200.4
 30 10 2013  23 55  -21.0453 25965.8 -03500.3 -07.6775 26200.6
 30 10 2013  23 56  -21.0451 25966.2 -03500.6 -07.6779 26201.1
 30 10 2013  23 57  -21.0450 25966.7 -03500.8 -07.6783 26201.6
