SAO LUIS EMBRACE-03 <181> 1 Min. Reported data

 DD MM YYYY  HH MM   D(Deg)  H(nT)   Z(nT)   I(Deg)   F(nT)

 30 06 2013  00 00  -21.0717 25992.4 -03456.9 -07.5757 26221.2
 30 06 2013  00 01  -21.0718 25992.9 -03457.2 -07.5761 26221.8
 30 06 2013  00 02  -21.0721 25993.2 -03457.3 -07.5764 26222.1
 30 06 2013  00 03  -21.0726 25993.6 -03457.5 -07.5766 26222.6
 30 06 2013  00 04  -21.0731 25994.1 -03457.7 -07.5769 26223.1
 30 06 2013  00 05  -21.0733 25994.2 -03457.7 -07.5768 26223.2
 30 06 2013  00 06  -21.0738 25994.3 -03457.6 -07.5767 26223.3
 30 06 2013  00 07  -21.0745 25994.3 -03457.5 -07.5765 26223.2
 30 06 2013  00 08  -21.0757 25993.9 -03457.4 -07.5762 26222.8
 30 06 2013  00 09  -21.0768 25993.2 -03456.9 -07.5755 26222.0
 30 06 2013  00 10  -21.0770 25993.1 -03456.8 -07.5752 26222.0
 30 06 2013  00 11  -21.0775 25992.4 -03456.4 -07.5745 26221.2
 30 06 2013  00 12  -21.0784 25991.3 -03455.8 -07.5736 26220.0
 30 06 2013  00 13  -21.0790 25990.5 -03455.3 -07.5729 26219.2
 30 06 2013  00 14  -21.0790 25990.1 -03455.1 -07.5724 26218.8
 30 06 2013  00 15  -21.0784 25990.1 -03455.0 -07.5722 26218.8
 30 06 2013  00 16  -21.0781 25989.7 -03454.8 -07.5719 26218.3
 30 06 2013  00 17  -21.0775 25989.7 -03454.8 -07.5720 26218.3
 30 06 2013  00 18  -21.0768 25989.9 -03455.0 -07.5722 26218.6
 30 06 2013  00 19  -21.0769 25989.6 -03454.9 -07.5722 26218.2
 30 06 2013  00 20  -21.0772 25988.7 -03454.6 -07.5718 26217.3
 30 06 2013  00 21  -21.0773 25988.0 -03454.3 -07.5713 26216.6
 30 06 2013  00 22  -21.0774 25987.0 -03453.9 -07.5707 26215.6
 30 06 2013  00 23  -21.0772 25986.7 -03453.8 -07.5705 26215.2
 30 06 2013  00 24  -21.0768 25986.6 -03453.7 -07.5705 26215.1
 30 06 2013  00 25  -21.0763 25987.1 -03454.0 -07.5709 26215.7
 30 06 2013  00 26  -21.0762 25987.7 -03454.4 -07.5717 26216.3
 30 06 2013  00 27  -21.0762 25987.9 -03454.7 -07.5722 26216.5
 30 06 2013  00 28  -21.0765 25987.8 -03454.7 -07.5723 26216.5
 30 06 2013  00 29  -21.0768 25987.6 -03454.7 -07.5722 26216.3
 30 06 2013  00 30  -21.0771 25987.4 -03454.6 -07.5722 26216.0
 30 06 2013  00 31  -21.0774 25987.0 -03454.4 -07.5719 26215.6
 30 06 2013  00 32  -21.0775 25986.7 -03454.3 -07.5717 26215.3
 30 06 2013  00 33  -21.0776 25986.4 -03454.2 -07.5715 26215.0
 30 06 2013  00 34  -21.0777 25986.0 -03454.0 -07.5712 26214.5
 30 06 2013  00 35  -21.0781 25985.5 -03453.8 -07.5709 26214.0
 30 06 2013  00 36  -21.0781 25984.8 -03453.5 -07.5704 26213.3
 30 06 2013  00 37  -21.0781 25984.1 -03453.2 -07.5700 26212.5
 30 06 2013  00 38  -21.0779 25983.4 -03452.9 -07.5696 26211.8
 30 06 2013  00 39  -21.0782 25982.4 -03452.6 -07.5691 26210.8
 30 06 2013  00 40  -21.0790 25981.7 -03452.3 -07.5688 26210.1
 30 06 2013  00 41  -21.0791 25981.2 -03452.1 -07.5686 26209.5
 30 06 2013  00 42  -21.0789 25980.7 -03452.0 -07.5684 26209.0
 30 06 2013  00 43  -21.0788 25980.4 -03452.0 -07.5685 26208.7
 30 06 2013  00 44  -21.0788 25980.4 -03452.1 -07.5687 26208.7
 30 06 2013  00 45  -21.0787 25980.0 -03452.0 -07.5687 26208.3
 30 06 2013  00 46  -21.0782 25979.8 -03452.0 -07.5687 26208.2
 30 06 2013  00 47  -21.0779 25980.0 -03452.2 -07.5691 26208.4
 30 06 2013  00 48  -21.0775 25980.0 -03452.4 -07.5694 26208.4
 30 06 2013  00 49  -21.0771 25980.1 -03452.5 -07.5698 26208.5
 30 06 2013  00 50  -21.0769 25980.5 -03452.9 -07.5704 26209.0
 30 06 2013  00 51  -21.0767 25981.4 -03453.4 -07.5713 26209.9
 30 06 2013  00 52  -21.0767 25981.8 -03453.8 -07.5720 26210.3
 30 06 2013  00 53  -21.0767 25982.3 -03454.2 -07.5727 26210.9
 30 06 2013  00 54  -21.0768 25982.7 -03454.4 -07.5732 26211.3
 30 06 2013  00 55  -21.0768 25983.0 -03454.6 -07.5735 26211.7
 30 06 2013  00 56  -21.0762 25983.2 -03454.7 -07.5735 26211.8
 30 06 2013  00 57  -21.0757 25983.4 -03454.8 -07.5737 26212.0
 30 06 2013  00 58  -21.0753 25983.6 -03454.9 -07.5738 26212.3
 30 06 2013  00 59  -21.0747 25984.1 -03455.0 -07.5740 26212.8
 30 06 2013  01 00  -21.0743 25984.6 -03455.2 -07.5743 26213.3
 30 06 2013  01 01  -21.0746 25985.2 -03455.6 -07.5748 26213.9
 30 06 2013  01 02  -21.0750 25985.8 -03455.9 -07.5753 26214.5
 30 06 2013  01 03  -21.0753 25986.2 -03456.0 -07.5756 26215.1
 30 06 2013  01 04  -21.0754 25986.6 -03456.2 -07.5757 26215.4
 30 06 2013  01 05  -21.0751 25987.0 -03456.2 -07.5757 26215.8
 30 06 2013  01 06  -21.0750 25987.2 -03456.2 -07.5757 26216.1
 30 06 2013  01 07  -21.0751 25987.6 -03456.4 -07.5759 26216.4
 30 06 2013  01 08  -21.0755 25988.5 -03456.7 -07.5764 26217.4
 30 06 2013  01 09  -21.0763 25989.1 -03457.1 -07.5770 26218.0
 30 06 2013  01 10  -21.0770 25989.2 -03457.1 -07.5771 26218.1
 30 06 2013  01 11  -21.0775 25988.8 -03456.9 -07.5767 26217.7
 30 06 2013  01 12  -21.0781 25988.4 -03456.6 -07.5761 26217.2
 30 06 2013  01 13  -21.0786 25988.1 -03456.3 -07.5756 26216.9
 30 06 2013  01 14  -21.0791 25987.8 -03456.1 -07.5752 26216.6
 30 06 2013  01 15  -21.0796 25987.7 -03456.0 -07.5750 26216.5
 30 06 2013  01 16  -21.0801 25987.7 -03455.9 -07.5749 26216.5
 30 06 2013  01 17  -21.0804 25987.9 -03456.0 -07.5750 26216.7
 30 06 2013  01 18  -21.0802 25988.3 -03456.1 -07.5750 26217.1
 30 06 2013  01 19  -21.0799 25988.7 -03456.1 -07.5751 26217.5
 30 06 2013  01 20  -21.0796 25989.0 -03456.3 -07.5752 26217.8
 30 06 2013  01 21  -21.0796 25989.2 -03456.4 -07.5754 26218.1
 30 06 2013  01 22  -21.0798 25989.4 -03456.4 -07.5755 26218.2
 30 06 2013  01 23  -21.0805 25989.6 -03456.5 -07.5756 26218.4
 30 06 2013  01 24  -21.0812 25989.7 -03456.5 -07.5757 26218.6
 30 06 2013  01 25  -21.0818 25989.8 -03456.5 -07.5756 26218.6
 30 06 2013  01 26  -21.0825 25989.7 -03456.4 -07.5755 26218.6
 30 06 2013  01 27  -21.0829 25989.8 -03456.4 -07.5753 26218.6
 30 06 2013  01 28  -21.0832 25989.9 -03456.4 -07.5753 26218.7
 30 06 2013  01 29  -21.0832 25990.3 -03456.5 -07.5753 26219.1
 30 06 2013  01 30  -21.0829 25991.1 -03456.8 -07.5758 26219.9
 30 06 2013  01 31  -21.0831 25991.6 -03457.0 -07.5762 26220.5
 30 06 2013  01 32  -21.0837 25992.1 -03457.2 -07.5765 26221.0
 30 06 2013  01 33  -21.0846 25992.5 -03457.3 -07.5766 26221.4
 30 06 2013  01 34  -21.0859 25992.6 -03457.3 -07.5766 26221.5
 30 06 2013  01 35  -21.0872 25992.3 -03457.2 -07.5762 26221.2
 30 06 2013  01 36  -21.0879 25991.7 -03456.7 -07.5754 26220.6
 30 06 2013  01 37  -21.0881 25991.1 -03456.2 -07.5745 26219.8
 30 06 2013  01 38  -21.0880 25990.3 -03455.7 -07.5736 26219.0
 30 06 2013  01 39  -21.0875 25989.7 -03455.2 -07.5728 26218.4
 30 06 2013  01 40  -21.0870 25989.4 -03455.0 -07.5724 26218.1
 30 06 2013  01 41  -21.0866 25989.2 -03454.8 -07.5721 26217.8
 30 06 2013  01 42  -21.0867 25989.1 -03454.8 -07.5721 26217.7
 30 06 2013  01 43  -21.0870 25989.2 -03454.9 -07.5723 26217.9
 30 06 2013  01 44  -21.0870 25989.2 -03454.9 -07.5724 26217.8
 30 06 2013  01 45  -21.0863 25988.9 -03454.7 -07.5720 26217.5
 30 06 2013  01 46  -21.0856 25988.5 -03454.5 -07.5716 26217.1
 30 06 2013  01 47  -21.0850 25988.2 -03454.3 -07.5713 26216.8
 30 06 2013  01 48  -21.0842 25988.3 -03454.4 -07.5714 26216.9
 30 06 2013  01 49  -21.0833 25988.6 -03454.5 -07.5716 26217.2
 30 06 2013  01 50  -21.0822 25988.8 -03454.7 -07.5718 26217.4
 30 06 2013  01 51  -21.0812 25988.8 -03454.7 -07.5720 26217.4
 30 06 2013  01 52  -21.0809 25989.1 -03454.9 -07.5723 26217.7
 30 06 2013  01 53  -21.0813 25989.7 -03455.3 -07.5730 26218.4
 30 06 2013  01 54  -21.0816 25990.2 -03455.7 -07.5736 26219.0
 30 06 2013  01 55  -21.0813 25991.0 -03456.1 -07.5742 26219.8
 30 06 2013  01 56  -21.0803 25992.5 -03456.7 -07.5752 26221.3
 30 06 2013  01 57  -21.0793 25993.7 -03457.3 -07.5761 26222.6
 30 06 2013  01 58  -21.0784 25994.9 -03457.8 -07.5770 26223.8
 30 06 2013  01 59  -21.0778 25995.5 -03458.1 -07.5774 26224.5
 30 06 2013  02 00  -21.0776 25996.0 -03458.3 -07.5777 26225.0
 30 06 2013  02 01  -21.0774 25996.0 -03458.2 -07.5775 26225.0
 30 06 2013  02 02  -21.0767 25995.7 -03458.0 -07.5771 26224.7
 30 06 2013  02 03  -21.0757 25995.4 -03457.7 -07.5766 26224.4
 30 06 2013  02 04  -21.0744 25995.3 -03457.5 -07.5762 26224.3
 30 06 2013  02 05  -21.0727 25995.4 -03457.5 -07.5760 26224.3
 30 06 2013  02 06  -21.0705 25995.8 -03457.5 -07.5761 26224.7
 30 06 2013  02 07  -21.0689 25996.1 -03457.8 -07.5765 26225.0
 30 06 2013  02 08  -21.0674 25996.6 -03458.1 -07.5770 26225.6
 30 06 2013  02 09  -21.0660 25997.0 -03458.3 -07.5774 26226.0
 30 06 2013  02 10  -21.0650 25997.3 -03458.5 -07.5777 26226.3
 30 06 2013  02 11  -21.0639 25997.8 -03458.8 -07.5782 26226.9
 30 06 2013  02 12  -21.0627 25997.9 -03458.9 -07.5784 26226.9
 30 06 2013  02 13  -21.0616 25997.8 -03458.9 -07.5784 26226.8
 30 06 2013  02 14  -21.0610 25997.7 -03458.8 -07.5784 26226.7
 30 06 2013  02 15  -21.0603 25997.7 -03458.9 -07.5784 26226.8
 30 06 2013  02 16  -21.0597 25997.7 -03458.9 -07.5786 26226.8
 30 06 2013  02 17  -21.0588 25997.3 -03458.8 -07.5783 26226.4
 30 06 2013  02 18  -21.0579 25997.2 -03458.7 -07.5783 26226.2
 30 06 2013  02 19  -21.0569 25997.2 -03458.8 -07.5784 26226.3
 30 06 2013  02 20  -21.0557 25997.5 -03458.9 -07.5786 26226.6
 30 06 2013  02 21  -21.0551 25997.4 -03459.0 -07.5788 26226.5
 30 06 2013  02 22  -21.0550 25997.4 -03459.1 -07.5789 26226.5
 30 06 2013  02 23  -21.0552 25997.3 -03459.1 -07.5791 26226.4
 30 06 2013  02 24  -21.0560 25997.4 -03459.3 -07.5794 26226.6
 30 06 2013  02 25  -21.0565 25997.3 -03459.4 -07.5796 26226.5
 30 06 2013  02 26  -21.0573 25997.3 -03459.4 -07.5796 26226.4
 30 06 2013  02 27  -21.0579 25997.3 -03459.4 -07.5796 26226.5
 30 06 2013  02 28  -21.0579 25997.4 -03459.4 -07.5796 26226.6
 30 06 2013  02 29  -21.0578 25997.3 -03459.3 -07.5795 26226.5
 30 06 2013  02 30  -21.0579 25997.4 -03459.3 -07.5795 26226.6
 30 06 2013  02 31  -21.0583 25997.5 -03459.4 -07.5796 26226.7
 30 06 2013  02 32  -21.0587 25997.6 -03459.4 -07.5796 26226.7
 30 06 2013  02 33  -21.0594 25997.8 -03459.5 -07.5798 26227.0
 30 06 2013  02 34  -21.0607 25998.0 -03459.7 -07.5800 26227.2
 30 06 2013  02 35  -21.0623 25998.3 -03459.8 -07.5802 26227.5
 30 06 2013  02 36  -21.0635 25998.4 -03459.9 -07.5803 26227.6
 30 06 2013  02 37  -21.0639 25998.5 -03459.7 -07.5800 26227.7
 30 06 2013  02 38  -21.0637 25999.0 -03459.8 -07.5801 26228.2
 30 06 2013  02 39  -21.0637 25999.3 -03459.8 -07.5801 26228.5
 30 06 2013  02 40  -21.0636 25999.6 -03459.9 -07.5802 26228.8
 30 06 2013  02 41  -21.0632 26000.2 -03460.1 -07.5804 26229.5
 30 06 2013  02 42  -21.0627 26000.6 -03460.2 -07.5805 26229.9
 30 06 2013  02 43  -21.0622 26001.1 -03460.3 -07.5806 26230.4
 30 06 2013  02 44  -21.0621 26001.6 -03460.5 -07.5807 26230.8
 30 06 2013  02 45  -21.0623 26001.6 -03460.4 -07.5806 26230.9
 30 06 2013  02 46  -21.0631 26001.7 -03460.4 -07.5805 26231.0
 30 06 2013  02 47  -21.0638 26001.8 -03460.3 -07.5804 26231.0
 30 06 2013  02 48  -21.0646 26001.4 -03460.1 -07.5800 26230.6
 30 06 2013  02 49  -21.0652 26000.9 -03459.7 -07.5792 26230.0
 30 06 2013  02 50  -21.0651 26000.6 -03459.3 -07.5786 26229.7
 30 06 2013  02 51  -21.0646 26000.9 -03459.3 -07.5785 26230.0
 30 06 2013  02 52  -21.0637 26001.3 -03459.4 -07.5785 26230.4
 30 06 2013  02 53  -21.0630 26001.8 -03459.6 -07.5788 26230.9
 30 06 2013  02 54  -21.0627 26002.2 -03459.8 -07.5791 26231.4
 30 06 2013  02 55  -21.0625 26002.6 -03459.9 -07.5793 26231.8
 30 06 2013  02 56  -21.0622 26002.9 -03460.0 -07.5794 26232.1
 30 06 2013  02 57  -21.0622 26003.3 -03460.2 -07.5796 26232.5
 30 06 2013  02 58  -21.0625 26003.7 -03460.3 -07.5798 26233.0
 30 06 2013  02 59  -21.0631 26003.9 -03460.3 -07.5798 26233.1
 30 06 2013  03 00  -21.0635 26003.9 -03460.3 -07.5797 26233.1
 30 06 2013  03 01  -21.0639 26004.0 -03460.2 -07.5794 26233.2
 30 06 2013  03 02  -21.0644 26003.9 -03460.0 -07.5791 26233.1
 30 06 2013  03 03  -21.0647 26003.6 -03459.8 -07.5786 26232.7
 30 06 2013  03 04  -21.0646 26003.3 -03459.5 -07.5781 26232.4
 30 06 2013  03 05  -21.0644 26003.1 -03459.3 -07.5778 26232.2
 30 06 2013  03 06  -21.0642 26003.0 -03459.2 -07.5775 26232.1
 30 06 2013  03 07  -21.0638 26002.9 -03459.1 -07.5773 26232.0
 30 06 2013  03 08  -21.0634 26003.0 -03459.1 -07.5774 26232.1
 30 06 2013  03 09  -21.0629 26003.0 -03459.1 -07.5774 26232.1
 30 06 2013  03 10  -21.0625 26003.3 -03459.2 -07.5775 26232.4
 30 06 2013  03 11  -21.0621 26003.7 -03459.4 -07.5778 26232.8
 30 06 2013  03 12  -21.0621 26003.8 -03459.5 -07.5779 26232.9
 30 06 2013  03 13  -21.0618 26004.4 -03459.7 -07.5783 26233.5
 30 06 2013  03 14  -21.0616 26004.4 -03459.7 -07.5784 26233.6
 30 06 2013  03 15  -21.0614 26004.7 -03459.8 -07.5784 26233.8
 30 06 2013  03 16  -21.0609 26004.8 -03459.8 -07.5784 26234.0
 30 06 2013  03 17  -21.0605 26005.2 -03459.9 -07.5786 26234.3
 30 06 2013  03 18  -21.0605 26005.5 -03460.1 -07.5789 26234.7
 30 06 2013  03 19  -21.0604 26005.7 -03460.2 -07.5790 26234.9
 30 06 2013  03 20  -21.0604 26005.8 -03460.2 -07.5790 26235.0
 30 06 2013  03 21  -21.0603 26005.9 -03460.2 -07.5789 26235.1
 30 06 2013  03 22  -21.0604 26006.1 -03460.2 -07.5789 26235.3
 30 06 2013  03 23  -21.0603 26006.3 -03460.2 -07.5789 26235.5
 30 06 2013  03 24  -21.0602 26006.6 -03460.3 -07.5790 26235.8
 30 06 2013  03 25  -21.0598 26006.9 -03460.4 -07.5791 26236.1
 30 06 2013  03 26  -21.0594 26007.2 -03460.5 -07.5792 26236.5
 30 06 2013  03 27  -21.0592 26007.7 -03460.7 -07.5794 26236.9
 30 06 2013  03 28  -21.0592 26008.0 -03460.8 -07.5795 26237.2
 30 06 2013  03 29  -21.0588 26008.3 -03460.9 -07.5796 26237.6
 30 06 2013  03 30  -21.0581 26008.4 -03460.8 -07.5795 26237.6
 30 06 2013  03 31  -21.0578 26008.3 -03460.7 -07.5793 26237.5
 30 06 2013  03 32  -21.0576 26008.5 -03460.7 -07.5793 26237.7
 30 06 2013  03 33  -21.0576 26008.5 -03460.7 -07.5792 26237.7
 30 06 2013  03 34  -21.0575 26008.2 -03460.5 -07.5790 26237.4
 30 06 2013  03 35  -21.0576 26008.1 -03460.4 -07.5787 26237.3
 30 06 2013  03 36  -21.0575 26008.0 -03460.3 -07.5785 26237.2
 30 06 2013  03 37  -21.0576 26008.1 -03460.3 -07.5786 26237.3
 30 06 2013  03 38  -21.0581 26008.1 -03460.4 -07.5787 26237.3
 30 06 2013  03 39  -21.0587 26008.2 -03460.4 -07.5787 26237.4
 30 06 2013  03 40  -21.0592 26008.3 -03460.4 -07.5787 26237.5
 30 06 2013  03 41  -21.0597 26008.5 -03460.5 -07.5787 26237.7
 30 06 2013  03 42  -21.0601 26008.7 -03460.5 -07.5788 26237.9
 30 06 2013  03 43  -21.0607 26008.8 -03460.5 -07.5788 26238.0
 30 06 2013  03 44  -21.0613 26009.0 -03460.5 -07.5787 26238.2
 30 06 2013  03 45  -21.0620 26009.1 -03460.5 -07.5787 26238.3
 30 06 2013  03 46  -21.0626 26009.1 -03460.4 -07.5785 26238.3
 30 06 2013  03 47  -21.0631 26009.1 -03460.4 -07.5783 26238.3
 30 06 2013  03 48  -21.0632 26009.1 -03460.2 -07.5781 26238.3
 30 06 2013  03 49  -21.0635 26009.1 -03460.1 -07.5778 26238.2
 30 06 2013  03 50  -21.0637 26009.1 -03460.0 -07.5775 26238.2
 30 06 2013  03 51  -21.0639 26008.9 -03459.9 -07.5774 26238.1
 30 06 2013  03 52  -21.0642 26008.8 -03459.8 -07.5772 26237.9
 30 06 2013  03 53  -21.0645 26008.5 -03459.6 -07.5768 26237.5
 30 06 2013  03 54  -21.0644 26008.2 -03459.3 -07.5764 26237.2
 30 06 2013  03 55  -21.0642 26008.0 -03459.2 -07.5761 26237.0
 30 06 2013  03 56  -21.0640 26007.6 -03459.0 -07.5758 26236.6
 30 06 2013  03 57  -21.0642 26007.5 -03458.9 -07.5757 26236.5
 30 06 2013  03 58  -21.0643 26007.3 -03458.8 -07.5755 26236.3
 30 06 2013  03 59  -21.0641 26007.0 -03458.6 -07.5752 26235.9
 30 06 2013  04 00  -21.0639 26006.8 -03458.5 -07.5750 26235.8
 30 06 2013  04 01  -21.0640 26006.6 -03458.4 -07.5749 26235.5
 30 06 2013  04 02  -21.0641 26006.3 -03458.3 -07.5747 26235.2
 30 06 2013  04 03  -21.0643 26005.9 -03458.2 -07.5746 26234.8
 30 06 2013  04 04  -21.0645 26005.4 -03458.0 -07.5743 26234.3
 30 06 2013  04 05  -21.0648 26005.0 -03457.8 -07.5741 26233.9
 30 06 2013  04 06  -21.0650 26004.8 -03457.8 -07.5740 26233.7
 30 06 2013  04 07  -21.0655 26004.4 -03457.6 -07.5738 26233.3
 30 06 2013  04 08  -21.0657 26004.2 -03457.6 -07.5737 26233.1
 30 06 2013  04 09  -21.0657 26004.1 -03457.5 -07.5736 26232.9
 30 06 2013  04 10  -21.0656 26004.1 -03457.5 -07.5737 26232.9
 30 06 2013  04 11  -21.0655 26004.0 -03457.6 -07.5738 26232.9
 30 06 2013  04 12  -21.0652 26004.0 -03457.6 -07.5738 26232.9
 30 06 2013  04 13  -21.0647 26004.0 -03457.6 -07.5739 26232.9
 30 06 2013  04 14  -21.0641 26003.9 -03457.6 -07.5738 26232.8
 30 06 2013  04 15  -21.0637 26003.8 -03457.6 -07.5738 26232.7
 30 06 2013  04 16  -21.0634 26003.7 -03457.6 -07.5738 26232.6
 30 06 2013  04 17  -21.0630 26003.7 -03457.6 -07.5739 26232.6
 30 06 2013  04 18  -21.0627 26004.0 -03457.8 -07.5742 26232.9
 30 06 2013  04 19  -21.0623 26004.2 -03457.9 -07.5744 26233.1
 30 06 2013  04 20  -21.0620 26004.6 -03458.1 -07.5748 26233.5
 30 06 2013  04 21  -21.0621 26004.7 -03458.3 -07.5751 26233.7
 30 06 2013  04 22  -21.0622 26005.0 -03458.4 -07.5753 26233.9
 30 06 2013  04 23  -21.0621 26005.1 -03458.5 -07.5754 26234.1
 30 06 2013  04 24  -21.0620 26005.1 -03458.5 -07.5754 26234.1
 30 06 2013  04 25  -21.0620 26005.3 -03458.5 -07.5755 26234.3
 30 06 2013  04 26  -21.0620 26005.6 -03458.6 -07.5756 26234.6
 30 06 2013  04 27  -21.0619 26006.0 -03458.8 -07.5759 26235.0
 30 06 2013  04 28  -21.0618 26006.3 -03458.9 -07.5761 26235.3
 30 06 2013  04 29  -21.0615 26006.5 -03459.0 -07.5762 26235.5
 30 06 2013  04 30  -21.0613 26006.6 -03459.0 -07.5761 26235.6
 30 06 2013  04 31  -21.0613 26006.8 -03459.1 -07.5762 26235.9
 30 06 2013  04 32  -21.0614 26006.9 -03459.1 -07.5763 26235.9
 30 06 2013  04 33  -21.0612 26007.1 -03459.2 -07.5763 26236.2
 30 06 2013  04 34  -21.0613 26007.4 -03459.3 -07.5765 26236.5
 30 06 2013  04 35  -21.0616 26007.7 -03459.4 -07.5767 26236.8
 30 06 2013  04 36  -21.0620 26008.2 -03459.6 -07.5769 26237.3
 30 06 2013  04 37  -21.0621 26008.5 -03459.7 -07.5770 26237.6
 30 06 2013  04 38  -21.0618 26008.6 -03459.6 -07.5768 26237.6
 30 06 2013  04 39  -21.0613 26008.6 -03459.5 -07.5765 26237.7
 30 06 2013  04 40  -21.0608 26008.7 -03459.4 -07.5764 26237.7
 30 06 2013  04 41  -21.0602 26008.8 -03459.4 -07.5763 26237.8
 30 06 2013  04 42  -21.0596 26008.8 -03459.3 -07.5762 26237.8
 30 06 2013  04 43  -21.0594 26008.9 -03459.3 -07.5762 26237.9
 30 06 2013  04 44  -21.0592 26009.0 -03459.4 -07.5763 26238.0
 30 06 2013  04 45  -21.0587 26009.1 -03459.4 -07.5762 26238.2
 30 06 2013  04 46  -21.0579 26009.2 -03459.4 -07.5762 26238.2
 30 06 2013  04 47  -21.0571 26009.1 -03459.3 -07.5761 26238.2
 30 06 2013  04 48  -21.0565 26008.9 -03459.2 -07.5759 26238.0
 30 06 2013  04 49  -21.0559 26008.6 -03459.0 -07.5756 26237.6
 30 06 2013  04 50  -21.0555 26008.2 -03458.9 -07.5753 26237.2
 30 06 2013  04 51  -21.0549 26008.0 -03458.8 -07.5752 26237.0
 30 06 2013  04 52  -21.0550 26007.7 -03458.7 -07.5751 26236.7
 30 06 2013  04 53  -21.0551 26007.6 -03458.7 -07.5751 26236.5
 30 06 2013  04 54  -21.0550 26007.5 -03458.7 -07.5752 26236.5
 30 06 2013  04 55  -21.0549 26007.7 -03458.8 -07.5755 26236.7
 30 06 2013  04 56  -21.0545 26007.8 -03458.9 -07.5756 26236.8
 30 06 2013  04 57  -21.0540 26008.2 -03459.1 -07.5759 26237.2
 30 06 2013  04 58  -21.0534 26008.6 -03459.3 -07.5763 26237.7
 30 06 2013  04 59  -21.0533 26008.8 -03459.5 -07.5765 26237.8
 30 06 2013  05 00  -21.0535 26008.9 -03459.5 -07.5766 26237.9
 30 06 2013  05 01  -21.0541 26008.8 -03459.5 -07.5765 26237.8
 30 06 2013  05 02  -21.0548 26008.7 -03459.4 -07.5763 26237.7
 30 06 2013  05 03  -21.0550 26008.4 -03459.2 -07.5760 26237.5
 30 06 2013  05 04  -21.0552 26008.3 -03459.1 -07.5758 26237.3
 30 06 2013  05 05  -21.0552 26008.2 -03459.0 -07.5756 26237.2
 30 06 2013  05 06  -21.0554 26008.2 -03459.0 -07.5756 26237.2
 30 06 2013  05 07  -21.0554 26008.3 -03458.9 -07.5755 26237.3
 30 06 2013  05 08  -21.0553 26008.2 -03458.9 -07.5755 26237.2
 30 06 2013  05 09  -21.0552 26008.2 -03458.8 -07.5753 26237.1
 30 06 2013  05 10  -21.0551 26008.1 -03458.8 -07.5753 26237.1
 30 06 2013  05 11  -21.0550 26008.1 -03458.8 -07.5752 26237.1
 30 06 2013  05 12  -21.0551 26008.2 -03458.8 -07.5752 26237.2
 30 06 2013  05 13  -21.0551 26008.2 -03458.8 -07.5752 26237.2
 30 06 2013  05 14  -21.0554 26008.1 -03458.7 -07.5751 26237.1
 30 06 2013  05 15  -21.0553 26008.0 -03458.6 -07.5749 26237.0
 30 06 2013  05 16  -21.0552 26008.0 -03458.6 -07.5748 26236.9
 30 06 2013  05 17  -21.0552 26007.9 -03458.5 -07.5747 26236.8
 30 06 2013  05 18  -21.0552 26007.9 -03458.4 -07.5746 26236.8
 30 06 2013  05 19  -21.0554 26007.8 -03458.4 -07.5745 26236.8
 30 06 2013  05 20  -21.0556 26007.6 -03458.3 -07.5744 26236.5
 30 06 2013  05 21  -21.0557 26007.5 -03458.2 -07.5742 26236.4
 30 06 2013  05 22  -21.0556 26007.6 -03458.3 -07.5742 26236.5
 30 06 2013  05 23  -21.0555 26007.8 -03458.4 -07.5744 26236.8
 30 06 2013  05 24  -21.0556 26008.0 -03458.5 -07.5745 26236.9
 30 06 2013  05 25  -21.0556 26007.9 -03458.4 -07.5745 26236.8
 30 06 2013  05 26  -21.0556 26007.8 -03458.3 -07.5743 26236.7
 30 06 2013  05 27  -21.0555 26007.6 -03458.2 -07.5741 26236.5
 30 06 2013  05 28  -21.0553 26007.4 -03458.0 -07.5738 26236.3
 30 06 2013  05 29  -21.0552 26007.2 -03457.9 -07.5736 26236.0
 30 06 2013  05 30  -21.0550 26007.0 -03457.8 -07.5734 26235.9
 30 06 2013  05 31  -21.0546 26007.0 -03457.8 -07.5734 26235.9
 30 06 2013  05 32  -21.0544 26007.0 -03457.8 -07.5735 26235.9
 30 06 2013  05 33  -21.0542 26007.0 -03457.8 -07.5735 26235.9
 30 06 2013  05 34  -21.0540 26007.0 -03457.9 -07.5736 26235.9
 30 06 2013  05 35  -21.0537 26007.1 -03457.9 -07.5737 26236.0
 30 06 2013  05 36  -21.0535 26007.2 -03458.0 -07.5737 26236.1
 30 06 2013  05 37  -21.0533 26007.3 -03458.0 -07.5738 26236.2
 30 06 2013  05 38  -21.0531 26007.3 -03458.1 -07.5739 26236.2
 30 06 2013  05 39  -21.0529 26007.4 -03458.1 -07.5740 26236.3
 30 06 2013  05 40  -21.0528 26007.4 -03458.1 -07.5739 26236.2
 30 06 2013  05 41  -21.0527 26007.2 -03458.0 -07.5738 26236.1
 30 06 2013  05 42  -21.0525 26007.0 -03457.9 -07.5736 26235.9
 30 06 2013  05 43  -21.0523 26006.7 -03457.7 -07.5734 26235.6
 30 06 2013  05 44  -21.0522 26006.5 -03457.6 -07.5732 26235.3
 30 06 2013  05 45  -21.0522 26006.3 -03457.6 -07.5731 26235.2
 30 06 2013  05 46  -21.0522 26006.3 -03457.5 -07.5731 26235.1
 30 06 2013  05 47  -21.0520 26006.2 -03457.5 -07.5731 26235.1
 30 06 2013  05 48  -21.0517 26006.3 -03457.6 -07.5731 26235.1
 30 06 2013  05 49  -21.0515 26006.4 -03457.7 -07.5734 26235.3
 30 06 2013  05 50  -21.0512 26006.5 -03457.8 -07.5735 26235.4
 30 06 2013  05 51  -21.0512 26006.6 -03457.8 -07.5735 26235.4
 30 06 2013  05 52  -21.0511 26006.6 -03457.8 -07.5736 26235.5
 30 06 2013  05 53  -21.0511 26006.5 -03457.8 -07.5736 26235.4
 30 06 2013  05 54  -21.0512 26006.4 -03457.8 -07.5735 26235.3
 30 06 2013  05 55  -21.0515 26006.3 -03457.7 -07.5734 26235.2
 30 06 2013  05 56  -21.0516 26006.4 -03457.7 -07.5734 26235.2
 30 06 2013  05 57  -21.0517 26006.5 -03457.8 -07.5735 26235.3
 30 06 2013  05 58  -21.0517 26006.7 -03457.8 -07.5736 26235.6
 30 06 2013  05 59  -21.0516 26006.8 -03457.9 -07.5736 26235.6
 30 06 2013  06 00  -21.0517 26006.8 -03457.9 -07.5737 26235.7
 30 06 2013  06 01  -21.0516 26006.7 -03457.8 -07.5735 26235.6
 30 06 2013  06 02  -21.0515 26006.8 -03457.8 -07.5735 26235.6
 30 06 2013  06 03  -21.0514 26006.8 -03457.8 -07.5735 26235.6
 30 06 2013  06 04  -21.0513 26006.9 -03457.8 -07.5735 26235.7
 30 06 2013  06 05  -21.0512 26006.8 -03457.8 -07.5735 26235.7
 30 06 2013  06 06  -21.0511 26006.7 -03457.7 -07.5734 26235.6
 30 06 2013  06 07  -21.0511 26006.5 -03457.7 -07.5733 26235.4
 30 06 2013  06 08  -21.0510 26006.4 -03457.6 -07.5731 26235.2
 30 06 2013  06 09  -21.0508 26006.4 -03457.6 -07.5731 26235.3
 30 06 2013  06 10  -21.0506 26006.5 -03457.6 -07.5732 26235.3
 30 06 2013  06 11  -21.0504 26006.6 -03457.7 -07.5734 26235.5
 30 06 2013  06 12  -21.0502 26006.8 -03457.8 -07.5736 26235.6
 30 06 2013  06 13  -21.0499 26007.0 -03457.9 -07.5737 26235.8
 30 06 2013  06 14  -21.0498 26007.0 -03458.0 -07.5739 26235.9
 30 06 2013  06 15  -21.0497 26007.0 -03458.0 -07.5738 26235.9
 30 06 2013  06 16  -21.0497 26006.8 -03457.9 -07.5737 26235.7
 30 06 2013  06 17  -21.0497 26006.7 -03457.8 -07.5735 26235.5
 30 06 2013  06 18  -21.0499 26006.4 -03457.7 -07.5733 26235.3
 30 06 2013  06 19  -21.0499 26006.3 -03457.6 -07.5733 26235.1
 30 06 2013  06 20  -21.0500 26006.3 -03457.6 -07.5732 26235.1
 30 06 2013  06 21  -21.0500 26006.3 -03457.6 -07.5733 26235.1
 30 06 2013  06 22  -21.0500 26006.3 -03457.7 -07.5734 26235.2
 30 06 2013  06 23  -21.0500 26006.3 -03457.7 -07.5735 26235.1
 30 06 2013  06 24  -21.0500 26006.2 -03457.7 -07.5735 26235.1
 30 06 2013  06 25  -21.0500 26006.4 -03457.8 -07.5736 26235.3
 30 06 2013  06 26  -21.0500 26006.6 -03457.9 -07.5737 26235.5
 30 06 2013  06 27  -21.0498 26007.0 -03458.1 -07.5741 26235.9
 30 06 2013  06 28  -21.0497 26007.2 -03458.3 -07.5744 26236.2
 30 06 2013  06 29  -21.0497 26007.4 -03458.4 -07.5745 26236.3
 30 06 2013  06 30  -21.0498 26007.5 -03458.4 -07.5746 26236.4
 30 06 2013  06 31  -21.0499 26007.5 -03458.5 -07.5747 26236.5
 30 06 2013  06 32  -21.0502 26007.6 -03458.6 -07.5749 26236.6
 30 06 2013  06 33  -21.0505 26007.6 -03458.5 -07.5748 26236.5
 30 06 2013  06 34  -21.0507 26007.5 -03458.5 -07.5747 26236.4
 30 06 2013  06 35  -21.0508 26007.5 -03458.4 -07.5746 26236.4
 30 06 2013  06 36  -21.0507 26007.5 -03458.4 -07.5745 26236.4
 30 06 2013  06 37  -21.0504 26007.5 -03458.4 -07.5745 26236.5
 30 06 2013  06 38  -21.0502 26007.6 -03458.4 -07.5746 26236.6
 30 06 2013  06 39  -21.0500 26007.7 -03458.5 -07.5747 26236.7
 30 06 2013  06 40  -21.0497 26007.8 -03458.5 -07.5747 26236.7
 30 06 2013  06 41  -21.0497 26007.8 -03458.5 -07.5748 26236.7
 30 06 2013  06 42  -21.0498 26007.7 -03458.5 -07.5747 26236.7
 30 06 2013  06 43  -21.0500 26007.6 -03458.5 -07.5747 26236.5
 30 06 2013  06 44  -21.0502 26007.4 -03458.4 -07.5747 26236.4
 30 06 2013  06 45  -21.0505 26007.4 -03458.4 -07.5746 26236.3
 30 06 2013  06 46  -21.0507 26007.5 -03458.5 -07.5747 26236.4
 30 06 2013  06 47  -21.0505 26007.7 -03458.6 -07.5749 26236.6
 30 06 2013  06 48  -21.0502 26007.9 -03458.7 -07.5750 26236.9
 30 06 2013  06 49  -21.0500 26008.3 -03458.8 -07.5753 26237.3
 30 06 2013  06 50  -21.0495 26008.5 -03459.0 -07.5755 26237.5
 30 06 2013  06 51  -21.0494 26008.8 -03459.1 -07.5757 26237.9
 30 06 2013  06 52  -21.0493 26009.0 -03459.2 -07.5758 26238.1
 30 06 2013  06 53  -21.0493 26009.1 -03459.2 -07.5758 26238.2
 30 06 2013  06 54  -21.0493 26008.9 -03459.1 -07.5756 26238.0
 30 06 2013  06 55  -21.0490 26008.9 -03459.0 -07.5754 26237.9
 30 06 2013  06 56  -21.0488 26008.7 -03458.9 -07.5753 26237.7
 30 06 2013  06 57  -21.0485 26008.4 -03458.7 -07.5750 26237.4
 30 06 2013  06 58  -21.0481 26008.2 -03458.6 -07.5747 26237.1
 30 06 2013  06 59  -21.0476 26007.9 -03458.5 -07.5746 26236.9
 30 06 2013  07 00  -21.0472 26007.6 -03458.3 -07.5744 26236.5
 30 06 2013  07 01  -21.0465 26007.3 -03458.2 -07.5742 26236.2
 30 06 2013  07 02  -21.0458 26007.1 -03458.1 -07.5741 26236.0
 30 06 2013  07 03  -21.0453 26006.9 -03458.1 -07.5741 26235.8
 30 06 2013  07 04  -21.0448 26006.9 -03458.1 -07.5742 26235.8
 30 06 2013  07 05  -21.0442 26006.8 -03458.2 -07.5743 26235.7
 30 06 2013  07 06  -21.0436 26006.8 -03458.3 -07.5745 26235.7
 30 06 2013  07 07  -21.0432 26006.8 -03458.4 -07.5747 26235.7
 30 06 2013  07 08  -21.0429 26006.9 -03458.5 -07.5750 26235.8
 30 06 2013  07 09  -21.0427 26007.1 -03458.6 -07.5752 26236.0
 30 06 2013  07 10  -21.0425 26007.3 -03458.8 -07.5756 26236.3
 30 06 2013  07 11  -21.0425 26007.5 -03459.0 -07.5758 26236.5
 30 06 2013  07 12  -21.0425 26007.7 -03459.1 -07.5761 26236.7
 30 06 2013  07 13  -21.0423 26007.6 -03459.1 -07.5761 26236.7
 30 06 2013  07 14  -21.0422 26007.4 -03459.0 -07.5759 26236.4
 30 06 2013  07 15  -21.0421 26007.2 -03458.9 -07.5758 26236.2
 30 06 2013  07 16  -21.0420 26007.2 -03458.9 -07.5757 26236.2
 30 06 2013  07 17  -21.0419 26007.3 -03459.0 -07.5759 26236.3
 30 06 2013  07 18  -21.0419 26007.5 -03459.1 -07.5761 26236.5
 30 06 2013  07 19  -21.0418 26007.4 -03459.1 -07.5761 26236.4
 30 06 2013  07 20  -21.0417 26007.3 -03459.0 -07.5760 26236.4
 30 06 2013  07 21  -21.0414 26007.3 -03459.0 -07.5759 26236.3
 30 06 2013  07 22  -21.0411 26007.3 -03459.0 -07.5759 26236.3
 30 06 2013  07 23  -21.0408 26007.4 -03459.0 -07.5760 26236.4
 30 06 2013  07 24  -21.0404 26007.5 -03459.1 -07.5760 26236.5
 30 06 2013  07 25  -21.0401 26007.5 -03459.1 -07.5761 26236.5
 30 06 2013  07 26  -21.0399 26007.6 -03459.2 -07.5762 26236.6
 30 06 2013  07 27  -21.0398 26007.7 -03459.3 -07.5764 26236.7
 30 06 2013  07 28  -21.0396 26007.7 -03459.3 -07.5764 26236.8
 30 06 2013  07 29  -21.0395 26007.8 -03459.3 -07.5764 26236.8
 30 06 2013  07 30  -21.0394 26007.8 -03459.4 -07.5765 26236.9
 30 06 2013  07 31  -21.0394 26008.0 -03459.4 -07.5767 26237.1
 30 06 2013  07 32  -21.0394 26008.1 -03459.5 -07.5767 26237.1
 30 06 2013  07 33  -21.0391 26008.1 -03459.4 -07.5767 26237.1
 30 06 2013  07 34  -21.0388 26008.1 -03459.5 -07.5767 26237.2
 30 06 2013  07 35  -21.0385 26008.2 -03459.5 -07.5768 26237.3
 30 06 2013  07 36  -21.0381 26008.2 -03459.5 -07.5767 26237.3
 30 06 2013  07 37  -21.0376 26008.2 -03459.5 -07.5767 26237.3
 30 06 2013  07 38  -21.0373 26008.1 -03459.4 -07.5766 26237.2
 30 06 2013  07 39  -21.0373 26008.1 -03459.5 -07.5767 26237.2
 30 06 2013  07 40  -21.0371 26008.1 -03459.5 -07.5767 26237.2
 30 06 2013  07 41  -21.0369 26008.0 -03459.4 -07.5766 26237.1
 30 06 2013  07 42  -21.0368 26007.8 -03459.4 -07.5766 26236.9
 30 06 2013  07 43  -21.0369 26007.9 -03459.4 -07.5766 26237.0
 30 06 2013  07 44  -21.0370 26008.0 -03459.5 -07.5768 26237.0
 30 06 2013  07 45  -21.0370 26008.1 -03459.5 -07.5767 26237.1
 30 06 2013  07 46  -21.0371 26008.0 -03459.5 -07.5767 26237.1
 30 06 2013  07 47  -21.0372 26008.0 -03459.4 -07.5767 26237.1
 30 06 2013  07 48  -21.0373 26008.0 -03459.4 -07.5767 26237.1
 30 06 2013  07 49  -21.0375 26008.1 -03459.5 -07.5767 26237.1
 30 06 2013  07 50  -21.0376 26008.1 -03459.5 -07.5767 26237.1
 30 06 2013  07 51  -21.0377 26008.1 -03459.5 -07.5768 26237.2
 30 06 2013  07 52  -21.0378 26008.2 -03459.5 -07.5768 26237.3
 30 06 2013  07 53  -21.0379 26008.4 -03459.6 -07.5769 26237.5
 30 06 2013  07 54  -21.0379 26008.5 -03459.6 -07.5769 26237.6
 30 06 2013  07 55  -21.0379 26008.6 -03459.7 -07.5770 26237.7
 30 06 2013  07 56  -21.0378 26008.7 -03459.7 -07.5770 26237.8
 30 06 2013  07 57  -21.0378 26008.7 -03459.7 -07.5770 26237.8
 30 06 2013  07 58  -21.0376 26008.7 -03459.7 -07.5769 26237.8
 30 06 2013  07 59  -21.0375 26008.8 -03459.7 -07.5769 26237.9
 30 06 2013  08 00  -21.0375 26009.0 -03459.7 -07.5770 26238.1
 30 06 2013  08 01  -21.0373 26009.2 -03459.8 -07.5772 26238.3
 30 06 2013  08 02  -21.0370 26009.2 -03459.8 -07.5772 26238.3
 30 06 2013  08 03  -21.0366 26009.1 -03459.7 -07.5770 26238.2
 30 06 2013  08 04  -21.0360 26009.0 -03459.6 -07.5767 26238.1
 30 06 2013  08 05  -21.0355 26009.0 -03459.6 -07.5767 26238.1
 30 06 2013  08 06  -21.0351 26009.1 -03459.6 -07.5768 26238.2
 30 06 2013  08 07  -21.0348 26009.1 -03459.6 -07.5768 26238.2
 30 06 2013  08 08  -21.0346 26009.2 -03459.7 -07.5769 26238.3
 30 06 2013  08 09  -21.0346 26009.2 -03459.7 -07.5769 26238.3
 30 06 2013  08 10  -21.0346 26009.2 -03459.8 -07.5770 26238.3
 30 06 2013  08 11  -21.0346 26009.4 -03459.8 -07.5771 26238.5
 30 06 2013  08 12  -21.0345 26009.4 -03459.8 -07.5771 26238.5
 30 06 2013  08 13  -21.0342 26009.3 -03459.8 -07.5770 26238.4
 30 06 2013  08 14  -21.0339 26009.4 -03459.8 -07.5770 26238.5
 30 06 2013  08 15  -21.0338 26009.6 -03459.9 -07.5772 26238.7
 30 06 2013  08 16  -21.0336 26009.7 -03459.9 -07.5772 26238.8
 30 06 2013  08 17  -21.0334 26009.8 -03459.9 -07.5771 26238.9
 30 06 2013  08 18  -21.0330 26009.8 -03459.9 -07.5771 26238.9
 30 06 2013  08 19  -21.0327 26009.7 -03459.8 -07.5770 26238.8
 30 06 2013  08 20  -21.0323 26009.6 -03459.7 -07.5767 26238.6
 30 06 2013  08 21  -21.0320 26009.4 -03459.5 -07.5765 26238.5
 30 06 2013  08 22  -21.0317 26009.4 -03459.5 -07.5765 26238.5
 30 06 2013  08 23  -21.0316 26009.5 -03459.5 -07.5764 26238.5
 30 06 2013  08 24  -21.0313 26009.5 -03459.5 -07.5763 26238.5
 30 06 2013  08 25  -21.0311 26009.6 -03459.5 -07.5764 26238.7
 30 06 2013  08 26  -21.0309 26009.7 -03459.5 -07.5764 26238.7
 30 06 2013  08 27  -21.0306 26009.6 -03459.4 -07.5762 26238.7
 30 06 2013  08 28  -21.0301 26009.6 -03459.4 -07.5760 26238.7
 30 06 2013  08 29  -21.0298 26009.5 -03459.3 -07.5759 26238.5
 30 06 2013  08 30  -21.0294 26009.5 -03459.3 -07.5759 26238.6
 30 06 2013  08 31  -21.0290 26009.7 -03459.3 -07.5759 26238.7
 30 06 2013  08 32  -21.0289 26009.8 -03459.3 -07.5759 26238.8
 30 06 2013  08 33  -21.0287 26009.8 -03459.3 -07.5759 26238.8
 30 06 2013  08 34  -21.0286 26009.9 -03459.3 -07.5758 26238.9
 30 06 2013  08 35  -21.0285 26010.0 -03459.3 -07.5759 26239.1
 30 06 2013  08 36  -21.0281 26010.1 -03459.3 -07.5758 26239.2
 30 06 2013  08 37  -21.0277 26010.1 -03459.3 -07.5757 26239.2
 30 06 2013  08 38  -21.0270 26010.1 -03459.2 -07.5755 26239.1
 30 06 2013  08 39  -21.0261 26010.0 -03459.0 -07.5752 26239.0
 30 06 2013  08 40  -21.0255 26010.1 -03459.0 -07.5752 26239.1
 30 06 2013  08 41  -21.0250 26010.3 -03459.1 -07.5753 26239.3
 30 06 2013  08 42  -21.0244 26010.3 -03459.1 -07.5753 26239.3
 30 06 2013  08 43  -21.0237 26010.3 -03459.1 -07.5753 26239.3
 30 06 2013  08 44  -21.0232 26010.3 -03459.1 -07.5752 26239.3
 30 06 2013  08 45  -21.0226 26010.4 -03459.1 -07.5753 26239.4
 30 06 2013  08 46  -21.0216 26010.2 -03459.0 -07.5751 26239.2
 30 06 2013  08 47  -21.0204 26009.9 -03458.9 -07.5749 26238.9
 30 06 2013  08 48  -21.0193 26009.8 -03458.8 -07.5748 26238.8
 30 06 2013  08 49  -21.0182 26009.5 -03458.7 -07.5747 26238.5
 30 06 2013  08 50  -21.0173 26009.4 -03458.8 -07.5748 26238.4
 30 06 2013  08 51  -21.0164 26009.6 -03458.9 -07.5750 26238.6
 30 06 2013  08 52  -21.0160 26010.1 -03459.2 -07.5756 26239.1
 30 06 2013  08 53  -21.0159 26010.4 -03459.5 -07.5762 26239.4
 30 06 2013  08 54  -21.0156 26010.7 -03459.8 -07.5766 26239.8
 30 06 2013  08 55  -21.0146 26010.7 -03459.8 -07.5766 26239.8
 30 06 2013  08 56  -21.0135 26010.4 -03459.6 -07.5763 26239.4
 30 06 2013  08 57  -21.0124 26010.2 -03459.5 -07.5762 26239.3
 30 06 2013  08 58  -21.0114 26009.9 -03459.4 -07.5760 26239.0
 30 06 2013  08 59  -21.0109 26009.9 -03459.4 -07.5761 26238.9
 30 06 2013  09 00  -21.0099 26009.8 -03459.3 -07.5759 26238.8
 30 06 2013  09 01  -21.0093 26009.9 -03459.4 -07.5760 26238.9
 30 06 2013  09 02  -21.0086 26009.9 -03459.4 -07.5761 26239.0
 30 06 2013  09 03  -21.0076 26009.8 -03459.4 -07.5761 26238.8
 30 06 2013  09 04  -21.0071 26009.8 -03459.4 -07.5761 26238.8
 30 06 2013  09 05  -21.0068 26009.8 -03459.5 -07.5763 26238.9
 30 06 2013  09 06  -21.0061 26009.9 -03459.6 -07.5764 26239.0
 30 06 2013  09 07  -21.0052 26009.9 -03459.5 -07.5763 26238.9
 30 06 2013  09 08  -21.0041 26009.9 -03459.5 -07.5763 26239.0
 30 06 2013  09 09  -21.0026 26009.9 -03459.5 -07.5762 26239.0
 30 06 2013  09 10  -21.0013 26010.0 -03459.4 -07.5761 26239.0
 30 06 2013  09 11  -21.0006 26009.9 -03459.5 -07.5762 26239.0
 30 06 2013  09 12  -20.9994 26010.1 -03459.6 -07.5765 26239.2
 30 06 2013  09 13  -20.9982 26010.2 -03459.8 -07.5767 26239.3
 30 06 2013  09 14  -20.9968 26010.4 -03459.9 -07.5769 26239.5
 30 06 2013  09 15  -20.9954 26010.5 -03460.0 -07.5771 26239.6
 30 06 2013  09 16  -20.9940 26010.4 -03460.0 -07.5772 26239.5
 30 06 2013  09 17  -20.9923 26010.6 -03460.1 -07.5774 26239.7
 30 06 2013  09 18  -20.9906 26010.8 -03460.3 -07.5777 26239.9
 30 06 2013  09 19  -20.9902 26010.9 -03460.6 -07.5783 26240.1
 30 06 2013  09 20  -20.9893 26010.9 -03460.8 -07.5787 26240.1
 30 06 2013  09 21  -20.9887 26010.9 -03461.0 -07.5792 26240.1
 30 06 2013  09 22  -20.9875 26011.2 -03461.2 -07.5795 26240.4
 30 06 2013  09 23  -20.9865 26011.1 -03461.3 -07.5799 26240.4
 30 06 2013  09 24  -20.9860 26011.2 -03461.5 -07.5803 26240.5
 30 06 2013  09 25  -20.9854 26011.3 -03461.8 -07.5808 26240.7
 30 06 2013  09 26  -20.9850 26011.3 -03462.0 -07.5812 26240.6
 30 06 2013  09 27  -20.9842 26011.2 -03462.1 -07.5814 26240.6
 30 06 2013  09 28  -20.9841 26011.1 -03462.2 -07.5818 26240.5
 30 06 2013  09 29  -20.9838 26011.1 -03462.4 -07.5822 26240.5
 30 06 2013  09 30  -20.9834 26011.0 -03462.6 -07.5826 26240.4
 30 06 2013  09 31  -20.9826 26010.8 -03462.6 -07.5828 26240.3
 30 06 2013  09 32  -20.9830 26010.9 -03462.9 -07.5833 26240.4
 30 06 2013  09 33  -20.9825 26010.9 -03463.1 -07.5838 26240.5
 30 06 2013  09 34  -20.9817 26010.9 -03463.1 -07.5838 26240.4
 30 06 2013  09 35  -20.9816 26011.1 -03463.5 -07.5846 26240.7
 30 06 2013  09 36  -20.9814 26010.9 -03463.7 -07.5850 26240.5
 30 06 2013  09 37  -20.9821 26011.1 -03464.0 -07.5858 26240.7
 30 06 2013  09 38  -20.9817 26011.2 -03464.3 -07.5862 26240.8
 30 06 2013  09 39  -20.9813 26011.2 -03464.4 -07.5865 26240.9
 30 06 2013  09 40  -20.9812 26011.3 -03464.6 -07.5869 26241.0
 30 06 2013  09 41  -20.9804 26011.4 -03464.7 -07.5871 26241.2
 30 06 2013  09 42  -20.9809 26011.7 -03465.0 -07.5877 26241.4
 30 06 2013  09 43  -20.9807 26012.1 -03465.4 -07.5883 26241.9
 30 06 2013  09 44  -20.9802 26012.5 -03465.6 -07.5888 26242.3
 30 06 2013  09 45  -20.9803 26012.8 -03465.9 -07.5893 26242.7
 30 06 2013  09 46  -20.9807 26012.9 -03466.2 -07.5899 26242.9
 30 06 2013  09 47  -20.9804 26013.1 -03466.4 -07.5903 26243.1
 30 06 2013  09 48  -20.9796 26013.1 -03466.4 -07.5903 26243.1
 30 06 2013  09 49  -20.9788 26013.4 -03466.6 -07.5905 26243.4
 30 06 2013  09 50  -20.9773 26013.8 -03466.7 -07.5908 26243.8
 30 06 2013  09 51  -20.9766 26014.0 -03466.8 -07.5909 26244.0
 30 06 2013  09 52  -20.9764 26014.0 -03466.9 -07.5911 26244.0
 30 06 2013  09 53  -20.9762 26014.0 -03467.1 -07.5915 26244.1
 30 06 2013  09 54  -20.9762 26014.1 -03467.3 -07.5920 26244.2
 30 06 2013  09 55  -20.9760 26014.5 -03467.7 -07.5927 26244.6
 30 06 2013  09 56  -20.9766 26014.6 -03468.0 -07.5932 26244.7
 30 06 2013  09 57  -20.9771 26014.9 -03468.3 -07.5938 26245.0
 30 06 2013  09 58  -20.9769 26015.3 -03468.5 -07.5942 26245.5
 30 06 2013  09 59  -20.9760 26015.7 -03468.6 -07.5944 26245.9
 30 06 2013  10 00  -20.9753 26015.7 -03468.6 -07.5943 26245.9
 30 06 2013  10 01  -20.9752 26015.4 -03468.5 -07.5941 26245.6
 30 06 2013  10 02  -20.9755 26015.2 -03468.5 -07.5942 26245.4
 30 06 2013  10 03  -20.9757 26015.3 -03468.7 -07.5946 26245.5
 30 06 2013  10 04  -20.9759 26015.5 -03468.9 -07.5950 26245.8
 30 06 2013  10 05  -20.9760 26015.5 -03469.0 -07.5953 26245.8
 30 06 2013  10 06  -20.9768 26015.4 -03469.1 -07.5955 26245.7
 30 06 2013  10 07  -20.9779 26015.4 -03469.3 -07.5958 26245.7
 30 06 2013  10 08  -20.9789 26015.3 -03469.4 -07.5960 26245.6
 30 06 2013  10 09  -20.9796 26015.2 -03469.5 -07.5964 26245.6
 30 06 2013  10 10  -20.9798 26015.2 -03469.7 -07.5967 26245.6
 30 06 2013  10 11  -20.9795 26015.1 -03469.6 -07.5967 26245.4
 30 06 2013  10 12  -20.9791 26015.3 -03469.7 -07.5968 26245.6
 30 06 2013  10 13  -20.9782 26015.5 -03469.8 -07.5968 26245.9
 30 06 2013  10 14  -20.9775 26015.8 -03469.8 -07.5968 26246.1
 30 06 2013  10 15  -20.9760 26016.5 -03469.9 -07.5969 26246.8
 30 06 2013  10 16  -20.9767 26016.4 -03469.9 -07.5968 26246.7
 30 06 2013  10 17  -20.9797 26016.0 -03470.0 -07.5972 26246.4
 30 06 2013  10 18  -20.9822 26016.3 -03470.4 -07.5981 26246.7
 30 06 2013  10 19  -20.9828 26016.7 -03470.8 -07.5988 26247.2
 30 06 2013  10 20  -20.9817 26017.5 -03471.3 -07.5995 26248.1
 30 06 2013  10 21  -20.9801 26018.7 -03471.6 -07.6000 26249.3
 30 06 2013  10 22  -20.9781 26019.7 -03471.7 -07.5999 26250.3
 30 06 2013  10 23  -20.9780 26019.9 -03471.5 -07.5993 26250.4
 30 06 2013  10 24  -20.9794 26019.7 -03471.2 -07.5986 26250.2
 30 06 2013  10 25  -20.9804 26019.5 -03471.0 -07.5983 26250.0
 30 06 2013  10 26  -20.9820 26018.9 -03470.8 -07.5980 26249.4
 30 06 2013  10 27  -20.9834 26018.3 -03470.8 -07.5982 26248.8
 30 06 2013  10 28  -20.9842 26018.4 -03471.0 -07.5987 26248.9
 30 06 2013  10 29  -20.9850 26018.8 -03471.4 -07.5994 26249.3
 30 06 2013  10 30  -20.9857 26019.3 -03471.7 -07.6000 26249.9
 30 06 2013  10 31  -20.9856 26020.2 -03472.0 -07.6002 26250.8
 30 06 2013  10 32  -20.9855 26020.6 -03472.0 -07.6001 26251.2
 30 06 2013  10 33  -20.9859 26020.8 -03472.0 -07.6001 26251.4
 30 06 2013  10 34  -20.9867 26020.8 -03472.0 -07.6002 26251.5
 30 06 2013  10 35  -20.9876 26021.0 -03472.1 -07.6004 26251.6
 30 06 2013  10 36  -20.9877 26021.3 -03472.3 -07.6006 26252.0
 30 06 2013  10 37  -20.9883 26021.5 -03472.3 -07.6007 26252.2
 30 06 2013  10 38  -20.9887 26021.7 -03472.3 -07.6006 26252.4
 30 06 2013  10 39  -20.9895 26021.7 -03472.2 -07.6003 26252.3
 30 06 2013  10 40  -20.9903 26021.8 -03472.1 -07.6002 26252.4
 30 06 2013  10 41  -20.9902 26021.9 -03472.0 -07.6000 26252.5
 30 06 2013  10 42  -20.9903 26022.4 -03472.0 -07.5998 26253.0
 30 06 2013  10 43  -20.9926 26022.6 -03472.1 -07.5998 26253.2
 30 06 2013  10 44  -20.9950 26022.5 -03472.0 -07.5997 26253.1
 30 06 2013  10 45  -20.9977 26021.9 -03471.8 -07.5995 26252.5
 30 06 2013  10 46  -20.9990 26021.6 -03471.7 -07.5994 26252.2
 30 06 2013  10 47  -20.9980 26021.7 -03471.7 -07.5993 26252.3
 30 06 2013  10 48  -20.9968 26022.0 -03471.7 -07.5992 26252.6
 30 06 2013  10 49  -20.9973 26022.9 -03471.9 -07.5994 26253.5
 30 06 2013  10 50  -20.9987 26022.6 -03471.7 -07.5989 26253.1
 30 06 2013  10 51  -21.0007 26022.2 -03471.5 -07.5987 26252.7
 30 06 2013  10 52  -21.0001 26022.7 -03471.6 -07.5987 26253.2
 30 06 2013  10 53  -20.9965 26024.6 -03472.0 -07.5991 26255.2
 30 06 2013  10 54  -20.9917 26026.8 -03472.4 -07.5993 26257.4
 30 06 2013  10 55  -20.9895 26028.5 -03472.5 -07.5990 26259.1
 30 06 2013  10 56  -20.9885 26029.8 -03472.3 -07.5983 26260.3
 30 06 2013  10 57  -20.9898 26030.0 -03471.9 -07.5973 26260.6
 30 06 2013  10 58  -20.9934 26029.1 -03471.3 -07.5963 26259.6
 30 06 2013  10 59  -20.9973 26028.3 -03470.9 -07.5957 26258.7
 30 06 2013  11 00  -20.9994 26027.7 -03470.8 -07.5955 26258.1
 30 06 2013  11 01  -21.0014 26027.2 -03470.7 -07.5954 26257.5
 30 06 2013  11 02  -21.0034 26026.5 -03470.6 -07.5955 26256.9
 30 06 2013  11 03  -21.0040 26025.9 -03470.5 -07.5954 26256.3
 30 06 2013  11 04  -21.0043 26025.6 -03470.5 -07.5955 26256.0
 30 06 2013  11 05  -21.0050 26026.1 -03470.7 -07.5958 26256.5
 30 06 2013  11 06  -21.0064 26026.5 -03470.9 -07.5961 26256.9
 30 06 2013  11 07  -21.0080 26026.0 -03470.7 -07.5959 26256.4
 30 06 2013  11 08  -21.0089 26025.4 -03470.6 -07.5957 26255.8
 30 06 2013  11 09  -21.0089 26025.5 -03470.6 -07.5958 26255.9
 30 06 2013  11 10  -21.0089 26025.4 -03470.5 -07.5957 26255.8
 30 06 2013  11 11  -21.0089 26025.5 -03470.5 -07.5955 26255.8
 30 06 2013  11 12  -21.0096 26026.6 -03470.8 -07.5960 26257.0
 30 06 2013  11 13  -21.0107 26027.0 -03471.0 -07.5962 26257.5
 30 06 2013  11 14  -21.0102 26027.0 -03470.8 -07.5958 26257.4
 30 06 2013  11 15  -21.0096 26027.5 -03470.8 -07.5957 26257.9
 30 06 2013  11 16  -21.0097 26027.2 -03470.5 -07.5950 26257.5
 30 06 2013  11 17  -21.0105 26027.2 -03470.3 -07.5947 26257.5
 30 06 2013  11 18  -21.0116 26027.2 -03470.2 -07.5945 26257.6
 30 06 2013  11 19  -21.0133 26027.0 -03470.0 -07.5941 26257.3
 30 06 2013  11 20  -21.0154 26028.2 -03470.7 -07.5952 26258.5
 30 06 2013  11 21  -21.0167 26030.8 -03472.0 -07.5974 26261.3
 30 06 2013  11 22  -21.0153 26035.5 -03473.7 -07.5996 26266.3
 30 06 2013  11 23  -21.0117 26041.2 -03475.0 -07.6009 26272.0
 30 06 2013  11 24  -21.0074 26045.3 -03475.3 -07.6002 26276.2
 30 06 2013  11 25  -21.0034 26047.2 -03474.5 -07.5980 26278.0
 30 06 2013  11 26  -21.0026 26046.8 -03473.2 -07.5952 26277.4
 30 06 2013  11 27  -21.0038 26045.2 -03471.8 -07.5926 26275.5
 30 06 2013  11 28  -21.0056 26043.6 -03470.8 -07.5909 26273.9
 30 06 2013  11 29  -21.0079 26042.8 -03470.3 -07.5900 26273.0
 30 06 2013  11 30  -21.0105 26042.1 -03469.9 -07.5895 26272.3
 30 06 2013  11 31  -21.0118 26042.2 -03469.9 -07.5894 26272.4
 30 06 2013  11 32  -21.0129 26042.4 -03469.7 -07.5890 26272.5
 30 06 2013  11 33  -21.0150 26041.5 -03469.2 -07.5882 26271.6
 30 06 2013  11 34  -21.0174 26040.5 -03468.8 -07.5876 26270.6
 30 06 2013  11 35  -21.0176 26041.0 -03468.9 -07.5877 26271.1
 30 06 2013  11 36  -21.0172 26041.5 -03469.0 -07.5876 26271.6
 30 06 2013  11 37  -21.0171 26041.7 -03468.8 -07.5872 26271.7
 30 06 2013  11 38  -21.0172 26041.7 -03468.6 -07.5868 26271.7
 30 06 2013  11 39  -21.0180 26041.8 -03468.5 -07.5865 26271.7
 30 06 2013  11 40  -21.0187 26042.0 -03468.4 -07.5863 26271.9
 30 06 2013  11 41  -21.0190 26042.1 -03468.3 -07.5861 26272.1
 30 06 2013  11 42  -21.0187 26042.6 -03468.3 -07.5858 26272.5
 30 06 2013  11 43  -21.0181 26043.3 -03468.2 -07.5854 26273.2
 30 06 2013  11 44  -21.0181 26043.5 -03467.9 -07.5849 26273.4
 30 06 2013  11 45  -21.0185 26043.0 -03467.4 -07.5839 26272.9
 30 06 2013  11 46  -21.0191 26042.9 -03467.2 -07.5833 26272.6
 30 06 2013  11 47  -21.0200 26042.7 -03467.0 -07.5829 26272.5
 30 06 2013  11 48  -21.0207 26042.3 -03466.7 -07.5825 26272.0
 30 06 2013  11 49  -21.0206 26042.5 -03466.6 -07.5823 26272.2
 30 06 2013  11 50  -21.0201 26043.0 -03466.6 -07.5820 26272.7
 30 06 2013  11 51  -21.0203 26043.2 -03466.3 -07.5814 26272.8
 30 06 2013  11 52  -21.0209 26043.1 -03465.9 -07.5806 26272.7
 30 06 2013  11 53  -21.0218 26043.5 -03465.7 -07.5799 26273.1
 30 06 2013  11 54  -21.0211 26044.5 -03465.5 -07.5794 26274.0
 30 06 2013  11 55  -21.0203 26044.4 -03465.0 -07.5782 26273.9
 30 06 2013  11 56  -21.0195 26044.3 -03464.5 -07.5771 26273.7
 30 06 2013  11 57  -21.0204 26044.0 -03464.1 -07.5765 26273.4
 30 06 2013  11 58  -21.0227 26043.2 -03463.8 -07.5760 26272.6
 30 06 2013  11 59  -21.0238 26042.9 -03463.7 -07.5759 26272.2
 30 06 2013  12 00  -21.0230 26044.1 -03464.1 -07.5763 26273.4
 30 06 2013  12 01  -21.0216 26045.3 -03464.2 -07.5763 26274.7
 30 06 2013  12 02  -21.0219 26045.5 -03463.8 -07.5754 26274.8
 30 06 2013  12 03  -21.0235 26045.2 -03463.3 -07.5743 26274.5
 30 06 2013  12 04  -21.0259 26044.2 -03462.6 -07.5730 26273.3
 30 06 2013  12 05  -21.0273 26043.8 -03462.2 -07.5724 26272.9
 30 06 2013  12 06  -21.0290 26043.0 -03461.9 -07.5719 26272.0
 30 06 2013  12 07  -21.0303 26041.8 -03461.6 -07.5716 26270.9
 30 06 2013  12 08  -21.0302 26041.6 -03461.7 -07.5719 26270.7
 30 06 2013  12 09  -21.0309 26041.7 -03462.0 -07.5724 26270.8
 30 06 2013  12 10  -21.0316 26041.6 -03462.1 -07.5729 26270.7
 30 06 2013  12 11  -21.0312 26042.4 -03462.7 -07.5739 26271.6
 30 06 2013  12 12  -21.0311 26043.9 -03463.5 -07.5751 26273.2
 30 06 2013  12 13  -21.0297 26046.8 -03464.4 -07.5763 26276.2
 30 06 2013  12 14  -21.0282 26050.4 -03465.2 -07.5769 26279.8
 30 06 2013  12 15  -21.0278 26053.0 -03465.3 -07.5764 26282.4
 30 06 2013  12 16  -21.0285 26054.2 -03464.9 -07.5751 26283.6
 30 06 2013  12 17  -21.0291 26054.1 -03464.0 -07.5732 26283.3
 30 06 2013  12 18  -21.0294 26054.2 -03463.3 -07.5717 26283.3
 30 06 2013  12 19  -21.0303 26054.7 -03463.0 -07.5709 26283.8
 30 06 2013  12 20  -21.0315 26055.2 -03462.8 -07.5703 26284.3
 30 06 2013  12 21  -21.0320 26055.4 -03462.3 -07.5693 26284.4
 30 06 2013  12 22  -21.0323 26055.9 -03462.1 -07.5687 26284.9
 30 06 2013  12 23  -21.0331 26056.2 -03461.9 -07.5680 26285.1
 30 06 2013  12 24  -21.0338 26056.5 -03461.7 -07.5676 26285.5
 30 06 2013  12 25  -21.0345 26056.4 -03461.4 -07.5669 26285.3
 30 06 2013  12 26  -21.0352 26055.8 -03460.9 -07.5661 26284.6
 30 06 2013  12 27  -21.0361 26055.1 -03460.4 -07.5653 26283.9
 30 06 2013  12 28  -21.0374 26054.3 -03460.0 -07.5646 26283.0
 30 06 2013  12 29  -21.0382 26053.6 -03459.7 -07.5642 26282.3
 30 06 2013  12 30  -21.0387 26053.1 -03459.6 -07.5641 26281.8
 30 06 2013  12 31  -21.0389 26052.5 -03459.5 -07.5639 26281.2
 30 06 2013  12 32  -21.0400 26051.7 -03459.3 -07.5637 26280.4
 30 06 2013  12 33  -21.0408 26051.4 -03459.3 -07.5638 26280.1
 30 06 2013  12 34  -21.0412 26051.0 -03459.2 -07.5638 26279.7
 30 06 2013  12 35  -21.0409 26050.7 -03459.2 -07.5639 26279.4
 30 06 2013  12 36  -21.0414 26049.9 -03459.1 -07.5638 26278.6
 30 06 2013  12 37  -21.0424 26047.9 -03458.5 -07.5632 26276.5
 30 06 2013  12 38  -21.0422 26046.9 -03458.2 -07.5628 26275.4
 30 06 2013  12 39  -21.0426 26047.7 -03458.8 -07.5639 26276.3
 30 06 2013  12 40  -21.0428 26048.2 -03459.2 -07.5646 26276.9
 30 06 2013  12 41  -21.0436 26048.2 -03459.3 -07.5647 26276.9
 30 06 2013  12 42  -21.0442 26047.8 -03459.1 -07.5646 26276.5
 30 06 2013  12 43  -21.0444 26047.6 -03459.0 -07.5644 26276.3
 30 06 2013  12 44  -21.0443 26047.2 -03458.8 -07.5640 26275.8
 30 06 2013  12 45  -21.0450 26046.6 -03458.5 -07.5636 26275.2
 30 06 2013  12 46  -21.0455 26046.0 -03458.4 -07.5634 26274.6
 30 06 2013  12 47  -21.0456 26045.8 -03458.4 -07.5635 26274.4
 30 06 2013  12 48  -21.0461 26046.7 -03458.9 -07.5644 26275.4
 30 06 2013  12 49  -21.0469 26047.0 -03459.0 -07.5646 26275.7
 30 06 2013  12 50  -21.0476 26046.7 -03458.8 -07.5642 26275.3
 30 06 2013  12 51  -21.0476 26047.4 -03458.9 -07.5641 26276.0
 30 06 2013  12 52  -21.0470 26048.2 -03458.8 -07.5637 26276.8
 30 06 2013  12 53  -21.0466 26048.4 -03458.6 -07.5633 26277.0
 30 06 2013  12 54  -21.0466 26047.7 -03458.2 -07.5626 26276.3
 30 06 2013  12 55  -21.0465 26047.8 -03458.3 -07.5627 26276.4
 30 06 2013  12 56  -21.0459 26048.7 -03458.6 -07.5631 26277.3
 30 06 2013  12 57  -21.0457 26050.1 -03459.0 -07.5635 26278.8
 30 06 2013  12 58  -21.0455 26051.0 -03459.0 -07.5634 26279.6
 30 06 2013  12 59  -21.0449 26050.5 -03458.5 -07.5623 26279.0
 30 06 2013  13 00  -21.0439 26049.9 -03458.0 -07.5616 26278.4
 30 06 2013  13 01  -21.0440 26049.3 -03457.8 -07.5612 26277.8
 30 06 2013  13 02  -21.0441 26049.5 -03458.0 -07.5615 26278.0
 30 06 2013  13 03  -21.0437 26049.5 -03458.0 -07.5615 26278.0
 30 06 2013  13 04  -21.0428 26049.8 -03458.1 -07.5617 26278.3
 30 06 2013  13 05  -21.0420 26050.0 -03458.2 -07.5619 26278.5
 30 06 2013  13 06  -21.0418 26049.3 -03458.0 -07.5616 26277.8
 30 06 2013  13 07  -21.0417 26048.1 -03457.5 -07.5610 26276.5
 30 06 2013  13 08  -21.0417 26047.6 -03457.5 -07.5611 26276.0
 30 06 2013  13 09  -21.0418 26047.0 -03457.5 -07.5614 26275.5
 30 06 2013  13 10  -21.0420 26046.1 -03457.5 -07.5616 26274.6
 30 06 2013  13 11  -21.0421 26044.7 -03457.4 -07.5616 26273.2
 30 06 2013  13 12  -21.0419 26044.2 -03457.6 -07.5623 26272.7
 30 06 2013  13 13  -21.0417 26044.0 -03457.9 -07.5631 26272.6
 30 06 2013  13 14  -21.0414 26044.5 -03458.4 -07.5639 26273.1
 30 06 2013  13 15  -21.0408 26044.7 -03458.7 -07.5644 26273.4
 30 06 2013  13 16  -21.0403 26044.5 -03458.7 -07.5645 26273.1
 30 06 2013  13 17  -21.0400 26044.1 -03458.7 -07.5647 26272.7
 30 06 2013  13 18  -21.0395 26044.2 -03459.0 -07.5653 26272.9
 30 06 2013  13 19  -21.0393 26044.7 -03459.3 -07.5659 26273.5
 30 06 2013  13 20  -21.0394 26044.7 -03459.3 -07.5659 26273.5
 30 06 2013  13 21  -21.0386 26045.4 -03459.6 -07.5662 26274.2
 30 06 2013  13 22  -21.0383 26045.0 -03459.4 -07.5659 26273.7
 30 06 2013  13 23  -21.0367 26044.3 -03459.2 -07.5657 26273.0
 30 06 2013  13 24  -21.0359 26045.7 -03459.8 -07.5667 26274.5
 30 06 2013  13 25  -21.0359 26047.3 -03460.4 -07.5675 26276.2
 30 06 2013  13 26  -21.0367 26048.3 -03460.6 -07.5676 26277.1
 30 06 2013  13 27  -21.0375 26048.5 -03460.4 -07.5672 26277.4
 30 06 2013  13 28  -21.0382 26048.1 -03460.1 -07.5665 26276.9
 30 06 2013  13 29  -21.0384 26048.4 -03460.0 -07.5663 26277.2
 30 06 2013  13 30  -21.0385 26048.8 -03460.0 -07.5662 26277.6
 30 06 2013  13 31  -21.0388 26049.0 -03460.1 -07.5663 26277.8
 30 06 2013  13 32  -21.0397 26049.3 -03460.3 -07.5666 26278.1
 30 06 2013  13 33  -21.0405 26049.1 -03460.3 -07.5666 26277.9
 30 06 2013  13 34  -21.0407 26048.6 -03460.1 -07.5665 26277.4
 30 06 2013  13 35  -21.0409 26048.3 -03460.2 -07.5667 26277.2
 30 06 2013  13 36  -21.0413 26048.3 -03460.4 -07.5672 26277.1
 30 06 2013  13 37  -21.0421 26048.1 -03460.5 -07.5675 26277.0
 30 06 2013  13 38  -21.0427 26047.7 -03460.5 -07.5676 26276.5
 30 06 2013  13 39  -21.0431 26047.1 -03460.5 -07.5678 26276.0
 30 06 2013  13 40  -21.0434 26046.5 -03460.6 -07.5680 26275.4
 30 06 2013  13 41  -21.0435 26046.1 -03460.8 -07.5686 26275.0
 30 06 2013  13 42  -21.0440 26046.0 -03461.1 -07.5694 26274.9
 30 06 2013  13 43  -21.0447 26045.7 -03461.4 -07.5700 26274.7
 30 06 2013  13 44  -21.0454 26045.1 -03461.5 -07.5705 26274.1
 30 06 2013  13 45  -21.0461 26044.6 -03461.7 -07.5710 26273.7
 30 06 2013  13 46  -21.0465 26044.4 -03462.0 -07.5717 26273.5
 30 06 2013  13 47  -21.0472 26044.6 -03462.5 -07.5727 26273.8
 30 06 2013  13 48  -21.0479 26045.1 -03462.9 -07.5736 26274.3
 30 06 2013  13 49  -21.0486 26045.6 -03463.3 -07.5742 26274.9
 30 06 2013  13 50  -21.0494 26046.0 -03463.5 -07.5745 26275.3
 30 06 2013  13 51  -21.0501 26046.2 -03463.5 -07.5745 26275.5
 30 06 2013  13 52  -21.0510 26045.9 -03463.4 -07.5744 26275.2
 30 06 2013  13 53  -21.0512 26044.6 -03463.0 -07.5738 26273.8
 30 06 2013  13 54  -21.0520 26043.9 -03462.9 -07.5738 26273.1
 30 06 2013  13 55  -21.0535 26043.3 -03462.9 -07.5740 26272.5
 30 06 2013  13 56  -21.0550 26042.2 -03462.7 -07.5740 26271.4
 30 06 2013  13 57  -21.0556 26041.2 -03462.7 -07.5742 26270.4
 30 06 2013  13 58  -21.0560 26040.1 -03462.7 -07.5745 26269.3
 30 06 2013  13 59  -21.0564 26039.8 -03462.9 -07.5751 26269.0
 30 06 2013  14 00  -21.0568 26040.2 -03463.4 -07.5761 26269.5
 30 06 2013  14 01  -21.0573 26040.8 -03463.8 -07.5767 26270.1
 30 06 2013  14 02  -21.0576 26040.9 -03463.9 -07.5768 26270.3
 30 06 2013  14 03  -21.0576 26040.7 -03463.9 -07.5768 26270.1
 30 06 2013  14 04  -21.0573 26040.3 -03463.8 -07.5769 26269.7
 30 06 2013  14 05  -21.0573 26039.7 -03463.8 -07.5771 26269.1
 30 06 2013  14 06  -21.0576 26039.3 -03464.0 -07.5775 26268.6
 30 06 2013  14 07  -21.0581 26038.5 -03464.0 -07.5778 26267.9
 30 06 2013  14 08  -21.0578 26037.8 -03464.0 -07.5781 26267.2
 30 06 2013  14 09  -21.0579 26037.4 -03464.3 -07.5787 26266.8
 30 06 2013  14 10  -21.0580 26036.9 -03464.6 -07.5794 26266.4
 30 06 2013  14 11  -21.0582 26036.2 -03464.7 -07.5800 26265.7
 30 06 2013  14 12  -21.0583 26035.7 -03465.0 -07.5807 26265.2
 30 06 2013  14 13  -21.0588 26035.4 -03465.3 -07.5815 26265.0
 30 06 2013  14 14  -21.0591 26035.1 -03465.6 -07.5822 26264.7
 30 06 2013  14 15  -21.0590 26034.8 -03465.9 -07.5829 26264.5
 30 06 2013  14 16  -21.0590 26035.2 -03466.4 -07.5840 26265.0
 30 06 2013  14 17  -21.0590 26035.8 -03467.0 -07.5850 26265.6
 30 06 2013  14 18  -21.0592 26036.5 -03467.6 -07.5861 26266.4
 30 06 2013  14 19  -21.0598 26037.3 -03468.0 -07.5868 26267.3
 30 06 2013  14 20  -21.0602 26038.0 -03468.2 -07.5871 26268.0
 30 06 2013  14 21  -21.0604 26038.6 -03468.4 -07.5872 26268.6
 30 06 2013  14 22  -21.0604 26039.2 -03468.6 -07.5874 26269.2
 30 06 2013  14 23  -21.0611 26039.6 -03468.7 -07.5876 26269.6
 30 06 2013  14 24  -21.0616 26039.8 -03468.7 -07.5875 26269.8
 30 06 2013  14 25  -21.0618 26039.9 -03468.6 -07.5872 26269.9
 30 06 2013  14 26  -21.0618 26039.7 -03468.5 -07.5871 26269.7
 30 06 2013  14 27  -21.0616 26039.6 -03468.5 -07.5872 26269.6
 30 06 2013  14 28  -21.0621 26039.6 -03468.6 -07.5874 26269.6
 30 06 2013  14 29  -21.0625 26039.7 -03468.7 -07.5876 26269.7
 30 06 2013  14 30  -21.0628 26039.8 -03468.8 -07.5878 26269.8
 30 06 2013  14 31  -21.0631 26039.6 -03468.8 -07.5879 26269.6
 30 06 2013  14 32  -21.0632 26039.5 -03468.9 -07.5880 26269.6
 30 06 2013  14 33  -21.0637 26039.7 -03469.0 -07.5883 26269.7
 30 06 2013  14 34  -21.0640 26039.3 -03468.9 -07.5882 26269.3
 30 06 2013  14 35  -21.0642 26038.8 -03468.9 -07.5882 26268.8
 30 06 2013  14 36  -21.0646 26038.0 -03468.7 -07.5881 26268.1
 30 06 2013  14 37  -21.0651 26037.3 -03468.7 -07.5882 26267.4
 30 06 2013  14 38  -21.0654 26036.9 -03468.7 -07.5884 26266.9
 30 06 2013  14 39  -21.0651 26036.2 -03468.6 -07.5884 26266.3
 30 06 2013  14 40  -21.0649 26035.7 -03468.6 -07.5886 26265.8
 30 06 2013  14 41  -21.0651 26035.4 -03468.8 -07.5890 26265.5
 30 06 2013  14 42  -21.0651 26035.3 -03468.9 -07.5893 26265.4
 30 06 2013  14 43  -21.0654 26035.3 -03469.0 -07.5896 26265.3
 30 06 2013  14 44  -21.0653 26035.2 -03469.0 -07.5896 26265.3
 30 06 2013  14 45  -21.0647 26035.3 -03469.0 -07.5896 26265.4
 30 06 2013  14 46  -21.0643 26035.4 -03469.0 -07.5896 26265.5
 30 06 2013  14 47  -21.0636 26035.0 -03468.9 -07.5894 26265.1
 30 06 2013  14 48  -21.0630 26034.6 -03468.8 -07.5892 26264.7
 30 06 2013  14 49  -21.0623 26034.5 -03468.8 -07.5893 26264.6
 30 06 2013  14 50  -21.0620 26035.0 -03469.0 -07.5896 26265.1
 30 06 2013  14 51  -21.0620 26035.7 -03469.2 -07.5898 26265.8
 30 06 2013  14 52  -21.0623 26036.5 -03469.3 -07.5899 26266.6
 30 06 2013  14 53  -21.0624 26036.8 -03469.2 -07.5894 26266.9
 30 06 2013  14 54  -21.0625 26037.0 -03468.9 -07.5888 26267.1
 30 06 2013  14 55  -21.0624 26037.1 -03468.6 -07.5881 26267.1
 30 06 2013  14 56  -21.0622 26037.0 -03468.4 -07.5876 26267.0
 30 06 2013  14 57  -21.0621 26037.1 -03468.2 -07.5873 26267.0
 30 06 2013  14 58  -21.0620 26037.2 -03468.1 -07.5870 26267.2
 30 06 2013  14 59  -21.0617 26037.5 -03468.1 -07.5869 26267.4
 30 06 2013  15 00  -21.0616 26037.8 -03468.1 -07.5867 26267.8
 30 06 2013  15 01  -21.0614 26038.3 -03468.0 -07.5865 26268.3
 30 06 2013  15 02  -21.0614 26038.3 -03467.8 -07.5861 26268.2
 30 06 2013  15 03  -21.0610 26038.3 -03467.6 -07.5856 26268.2
 30 06 2013  15 04  -21.0612 26038.6 -03467.5 -07.5854 26268.5
 30 06 2013  15 05  -21.0614 26038.9 -03467.4 -07.5850 26268.8
 30 06 2013  15 06  -21.0614 26038.9 -03467.2 -07.5845 26268.7
 30 06 2013  15 07  -21.0614 26038.8 -03466.8 -07.5838 26268.5
 30 06 2013  15 08  -21.0614 26038.8 -03466.7 -07.5834 26268.5
 30 06 2013  15 09  -21.0610 26038.5 -03466.4 -07.5829 26268.2
 30 06 2013  15 10  -21.0606 26038.3 -03466.1 -07.5825 26268.0
 30 06 2013  15 11  -21.0604 26038.0 -03465.9 -07.5820 26267.6
 30 06 2013  15 12  -21.0604 26037.9 -03465.8 -07.5817 26267.6
 30 06 2013  15 13  -21.0607 26038.1 -03465.7 -07.5815 26267.7
 30 06 2013  15 14  -21.0616 26038.5 -03465.7 -07.5814 26268.1
 30 06 2013  15 15  -21.0621 26038.9 -03465.5 -07.5810 26268.5
 30 06 2013  15 16  -21.0620 26038.8 -03465.2 -07.5803 26268.4
 30 06 2013  15 17  -21.0611 26038.1 -03464.7 -07.5794 26267.6
 30 06 2013  15 18  -21.0608 26038.2 -03464.6 -07.5793 26267.7
 30 06 2013  15 19  -21.0607 26038.7 -03464.8 -07.5795 26268.2
 30 06 2013  15 20  -21.0609 26039.2 -03464.8 -07.5794 26268.7
 30 06 2013  15 21  -21.0610 26039.4 -03464.7 -07.5789 26268.9
 30 06 2013  15 22  -21.0609 26039.3 -03464.3 -07.5783 26268.8
 30 06 2013  15 23  -21.0607 26039.3 -03464.1 -07.5777 26268.8
 30 06 2013  15 24  -21.0603 26038.9 -03463.7 -07.5771 26268.3
 30 06 2013  15 25  -21.0597 26038.2 -03463.3 -07.5764 26267.5
 30 06 2013  15 26  -21.0591 26037.5 -03463.1 -07.5761 26266.8
 30 06 2013  15 27  -21.0587 26037.1 -03463.0 -07.5760 26266.4
 30 06 2013  15 28  -21.0580 26036.6 -03462.8 -07.5758 26265.8
 30 06 2013  15 29  -21.0576 26036.3 -03462.8 -07.5759 26265.6
 30 06 2013  15 30  -21.0574 26036.2 -03462.9 -07.5760 26265.4
 30 06 2013  15 31  -21.0572 26036.2 -03462.9 -07.5761 26265.5
 30 06 2013  15 32  -21.0569 26036.1 -03462.9 -07.5760 26265.4
 30 06 2013  15 33  -21.0568 26035.6 -03462.7 -07.5757 26264.8
 30 06 2013  15 34  -21.0566 26035.3 -03462.6 -07.5757 26264.5
 30 06 2013  15 35  -21.0565 26035.1 -03462.6 -07.5757 26264.4
 30 06 2013  15 36  -21.0559 26035.2 -03462.7 -07.5760 26264.5
 30 06 2013  15 37  -21.0550 26035.3 -03462.8 -07.5761 26264.6
 30 06 2013  15 38  -21.0539 26035.5 -03462.9 -07.5763 26264.8
 30 06 2013  15 39  -21.0533 26035.8 -03463.1 -07.5765 26265.1
 30 06 2013  15 40  -21.0533 26036.4 -03463.3 -07.5769 26265.7
 30 06 2013  15 41  -21.0534 26036.7 -03463.4 -07.5770 26266.0
 30 06 2013  15 42  -21.0533 26037.0 -03463.4 -07.5769 26266.4
 30 06 2013  15 43  -21.0530 26037.2 -03463.4 -07.5768 26266.5
 30 06 2013  15 44  -21.0527 26037.1 -03463.3 -07.5767 26266.4
 30 06 2013  15 45  -21.0521 26036.3 -03463.0 -07.5762 26265.6
 30 06 2013  15 46  -21.0512 26035.7 -03462.9 -07.5762 26265.0
 30 06 2013  15 47  -21.0518 26036.4 -03463.5 -07.5773 26265.8
 30 06 2013  15 48  -21.0525 26037.1 -03463.8 -07.5778 26266.5
 30 06 2013  15 49  -21.0530 26037.5 -03464.0 -07.5779 26266.9
 30 06 2013  15 50  -21.0536 26037.7 -03463.9 -07.5778 26267.1
 30 06 2013  15 51  -21.0543 26037.8 -03463.9 -07.5777 26267.2
 30 06 2013  15 52  -21.0549 26037.7 -03463.7 -07.5774 26267.0
 30 06 2013  15 53  -21.0552 26037.4 -03463.6 -07.5772 26266.7
 30 06 2013  15 54  -21.0559 26037.6 -03463.8 -07.5776 26267.0
 30 06 2013  15 55  -21.0567 26038.0 -03464.0 -07.5779 26267.4
 30 06 2013  15 56  -21.0570 26038.1 -03464.0 -07.5779 26267.5
 30 06 2013  15 57  -21.0568 26038.3 -03464.1 -07.5781 26267.7
 30 06 2013  15 58  -21.0575 26038.7 -03464.3 -07.5784 26268.1
 30 06 2013  15 59  -21.0579 26038.7 -03464.3 -07.5784 26268.2
 30 06 2013  16 00  -21.0579 26038.6 -03464.2 -07.5781 26268.0
 30 06 2013  16 01  -21.0578 26038.2 -03464.0 -07.5777 26267.6
 30 06 2013  16 02  -21.0582 26037.8 -03463.8 -07.5774 26267.2
 30 06 2013  16 03  -21.0585 26037.5 -03463.6 -07.5771 26266.9
 30 06 2013  16 04  -21.0589 26037.7 -03463.7 -07.5773 26267.1
 30 06 2013  16 05  -21.0595 26037.5 -03463.7 -07.5774 26266.9
 30 06 2013  16 06  -21.0595 26036.6 -03463.5 -07.5772 26266.0
 30 06 2013  16 07  -21.0596 26035.7 -03463.3 -07.5771 26265.0
 30 06 2013  16 08  -21.0603 26035.8 -03463.6 -07.5777 26265.2
 30 06 2013  16 09  -21.0612 26036.2 -03463.9 -07.5783 26265.6
 30 06 2013  16 10  -21.0614 26036.2 -03463.9 -07.5783 26265.6
 30 06 2013  16 11  -21.0611 26036.5 -03464.1 -07.5785 26265.9
 30 06 2013  16 12  -21.0609 26036.7 -03464.3 -07.5789 26266.1
 30 06 2013  16 13  -21.0609 26036.7 -03464.5 -07.5793 26266.2
 30 06 2013  16 14  -21.0613 26036.9 -03464.8 -07.5800 26266.4
 30 06 2013  16 15  -21.0617 26036.8 -03465.0 -07.5803 26266.4
 30 06 2013  16 16  -21.0627 26037.4 -03465.3 -07.5809 26267.0
 30 06 2013  16 17  -21.0627 26037.1 -03465.1 -07.5806 26266.7
 30 06 2013  16 18  -21.0619 26036.6 -03464.8 -07.5801 26266.1
 30 06 2013  16 19  -21.0611 26035.7 -03464.5 -07.5797 26265.2
 30 06 2013  16 20  -21.0606 26034.7 -03464.3 -07.5795 26264.2
 30 06 2013  16 21  -21.0613 26035.1 -03464.8 -07.5805 26264.6
 30 06 2013  16 22  -21.0619 26035.2 -03465.0 -07.5809 26264.7
 30 06 2013  16 23  -21.0616 26034.8 -03464.8 -07.5806 26264.3
 30 06 2013  16 24  -21.0610 26034.4 -03464.7 -07.5805 26263.9
 30 06 2013  16 25  -21.0609 26034.6 -03465.0 -07.5809 26264.2
 30 06 2013  16 26  -21.0618 26035.1 -03465.3 -07.5815 26264.7
 30 06 2013  16 27  -21.0624 26035.2 -03465.4 -07.5817 26264.9
 30 06 2013  16 28  -21.0623 26035.0 -03465.3 -07.5815 26264.6
 30 06 2013  16 29  -21.0614 26034.1 -03465.0 -07.5812 26263.7
 30 06 2013  16 30  -21.0605 26033.4 -03464.9 -07.5812 26263.0
 30 06 2013  16 31  -21.0603 26033.1 -03465.1 -07.5817 26262.7
 30 06 2013  16 32  -21.0611 26033.3 -03465.4 -07.5824 26262.9
 30 06 2013  16 33  -21.0621 26033.8 -03465.8 -07.5831 26263.5
 30 06 2013  16 34  -21.0631 26034.1 -03466.0 -07.5834 26263.8
 30 06 2013  16 35  -21.0637 26034.2 -03466.0 -07.5833 26263.9
 30 06 2013  16 36  -21.0643 26034.0 -03465.8 -07.5830 26263.7
 30 06 2013  16 37  -21.0648 26033.8 -03465.7 -07.5828 26263.5
 30 06 2013  16 38  -21.0649 26033.5 -03465.5 -07.5824 26263.2
 30 06 2013  16 39  -21.0646 26033.0 -03465.2 -07.5819 26262.6
 30 06 2013  16 40  -21.0641 26032.6 -03465.0 -07.5816 26262.2
 30 06 2013  16 41  -21.0638 26032.5 -03465.0 -07.5816 26262.1
 30 06 2013  16 42  -21.0639 26032.9 -03465.2 -07.5819 26262.5
 30 06 2013  16 43  -21.0641 26033.1 -03465.2 -07.5820 26262.8
 30 06 2013  16 44  -21.0640 26033.2 -03465.2 -07.5819 26262.8
 30 06 2013  16 45  -21.0636 26033.1 -03465.2 -07.5819 26262.7
 30 06 2013  16 46  -21.0630 26033.1 -03465.2 -07.5819 26262.7
 30 06 2013  16 47  -21.0626 26033.3 -03465.3 -07.5821 26262.9
 30 06 2013  16 48  -21.0615 26033.1 -03465.3 -07.5822 26262.7
 30 06 2013  16 49  -21.0606 26033.2 -03465.4 -07.5823 26262.8
 30 06 2013  16 50  -21.0622 26034.3 -03466.0 -07.5833 26264.0
 30 06 2013  16 51  -21.0651 26036.1 -03466.6 -07.5841 26265.8
 30 06 2013  16 52  -21.0662 26037.3 -03466.7 -07.5839 26267.0
 30 06 2013  16 53  -21.0675 26038.1 -03466.4 -07.5831 26267.8
 30 06 2013  16 54  -21.0676 26037.8 -03465.8 -07.5817 26267.4
 30 06 2013  16 55  -21.0667 26036.8 -03464.9 -07.5803 26266.4
 30 06 2013  16 56  -21.0662 26036.2 -03464.5 -07.5795 26265.7
 30 06 2013  16 57  -21.0656 26035.4 -03464.2 -07.5790 26264.9
 30 06 2013  16 58  -21.0646 26034.4 -03463.8 -07.5784 26263.8
 30 06 2013  16 59  -21.0641 26033.8 -03463.7 -07.5785 26263.3
 30 06 2013  17 00  -21.0647 26033.8 -03464.0 -07.5790 26263.3
 30 06 2013  17 01  -21.0648 26033.7 -03464.0 -07.5791 26263.1
 30 06 2013  17 02  -21.0646 26033.3 -03463.9 -07.5789 26262.7
 30 06 2013  17 03  -21.0646 26032.8 -03463.7 -07.5788 26262.2
 30 06 2013  17 04  -21.0645 26032.4 -03463.7 -07.5788 26261.8
 30 06 2013  17 05  -21.0640 26031.7 -03463.5 -07.5787 26261.1
 30 06 2013  17 06  -21.0638 26031.3 -03463.5 -07.5788 26260.7
 30 06 2013  17 07  -21.0635 26030.7 -03463.5 -07.5788 26260.1
 30 06 2013  17 08  -21.0636 26030.5 -03463.6 -07.5793 26259.9
 30 06 2013  17 09  -21.0639 26030.2 -03463.7 -07.5796 26259.7
 30 06 2013  17 10  -21.0638 26029.9 -03463.8 -07.5797 26259.3
 30 06 2013  17 11  -21.0641 26030.0 -03464.0 -07.5803 26259.5
 30 06 2013  17 12  -21.0654 26030.5 -03464.4 -07.5810 26260.1
 30 06 2013  17 13  -21.0663 26030.8 -03464.5 -07.5812 26260.3
 30 06 2013  17 14  -21.0663 26030.5 -03464.4 -07.5809 26260.0
 30 06 2013  17 15  -21.0666 26030.4 -03464.4 -07.5809 26260.0
 30 06 2013  17 16  -21.0677 26030.8 -03464.7 -07.5814 26260.4
 30 06 2013  17 17  -21.0685 26030.9 -03464.7 -07.5815 26260.5
 30 06 2013  17 18  -21.0688 26030.5 -03464.5 -07.5812 26260.0
 30 06 2013  17 19  -21.0693 26030.0 -03464.3 -07.5809 26259.5
 30 06 2013  17 20  -21.0694 26028.9 -03464.0 -07.5805 26258.4
 30 06 2013  17 21  -21.0691 26028.2 -03463.9 -07.5804 26257.7
 30 06 2013  17 22  -21.0694 26027.9 -03464.0 -07.5808 26257.4
 30 06 2013  17 23  -21.0697 26028.0 -03464.3 -07.5814 26257.6
 30 06 2013  17 24  -21.0700 26028.1 -03464.5 -07.5818 26257.7
 30 06 2013  17 25  -21.0713 26028.9 -03464.9 -07.5826 26258.5
 30 06 2013  17 26  -21.0731 26029.7 -03465.3 -07.5830 26259.4
 30 06 2013  17 27  -21.0740 26030.1 -03465.2 -07.5828 26259.7
 30 06 2013  17 28  -21.0744 26030.1 -03465.0 -07.5822 26259.7
 30 06 2013  17 29  -21.0750 26029.8 -03464.7 -07.5817 26259.4
 30 06 2013  17 30  -21.0749 26028.6 -03464.0 -07.5806 26258.1
 30 06 2013  17 31  -21.0743 26027.1 -03463.4 -07.5797 26256.5
 30 06 2013  17 32  -21.0742 26026.2 -03463.3 -07.5797 26255.6
 30 06 2013  17 33  -21.0746 26025.6 -03463.3 -07.5800 26255.0
 30 06 2013  17 34  -21.0752 26025.2 -03463.5 -07.5804 26254.7
 30 06 2013  17 35  -21.0753 26024.9 -03463.5 -07.5806 26254.3
 30 06 2013  17 36  -21.0756 26024.2 -03463.4 -07.5806 26253.6
 30 06 2013  17 37  -21.0757 26023.5 -03463.3 -07.5806 26252.9
 30 06 2013  17 38  -21.0758 26023.1 -03463.3 -07.5807 26252.6
 30 06 2013  17 39  -21.0763 26023.2 -03463.5 -07.5810 26252.7
 30 06 2013  17 40  -21.0767 26023.4 -03463.5 -07.5811 26252.9
 30 06 2013  17 41  -21.0766 26023.9 -03463.6 -07.5811 26253.4
 30 06 2013  17 42  -21.0775 26024.4 -03463.6 -07.5810 26253.9
 30 06 2013  17 43  -21.0773 26024.5 -03463.2 -07.5802 26253.9
 30 06 2013  17 44  -21.0770 26024.3 -03462.8 -07.5793 26253.7
 30 06 2013  17 45  -21.0766 26024.0 -03462.4 -07.5785 26253.3
 30 06 2013  17 46  -21.0769 26024.4 -03462.3 -07.5782 26253.7
 30 06 2013  17 47  -21.0772 26024.5 -03462.1 -07.5776 26253.8
 30 06 2013  17 48  -21.0772 26024.5 -03461.7 -07.5769 26253.8
 30 06 2013  17 49  -21.0770 26024.4 -03461.4 -07.5762 26253.6
 30 06 2013  17 50  -21.0769 26024.3 -03461.1 -07.5757 26253.5
 30 06 2013  17 51  -21.0772 26024.5 -03461.0 -07.5753 26253.6
 30 06 2013  17 52  -21.0776 26024.7 -03460.9 -07.5750 26253.9
 30 06 2013  17 53  -21.0778 26024.8 -03460.7 -07.5745 26253.9
 30 06 2013  17 54  -21.0783 26025.0 -03460.5 -07.5742 26254.0
 30 06 2013  17 55  -21.0787 26025.0 -03460.3 -07.5737 26254.1
 30 06 2013  17 56  -21.0789 26025.2 -03460.1 -07.5732 26254.2
 30 06 2013  17 57  -21.0794 26025.3 -03460.0 -07.5728 26254.3
 30 06 2013  17 58  -21.0793 26024.8 -03459.5 -07.5720 26253.7
 30 06 2013  17 59  -21.0794 26024.5 -03459.2 -07.5714 26253.4
 30 06 2013  18 00  -21.0793 26023.9 -03458.9 -07.5709 26252.8
 30 06 2013  18 01  -21.0788 26023.3 -03458.5 -07.5703 26252.1
 30 06 2013  18 02  -21.0788 26023.1 -03458.5 -07.5702 26251.9
 30 06 2013  18 03  -21.0792 26023.1 -03458.5 -07.5703 26251.9
 30 06 2013  18 04  -21.0796 26022.9 -03458.4 -07.5701 26251.7
 30 06 2013  18 05  -21.0799 26022.9 -03458.3 -07.5700 26251.7
 30 06 2013  18 06  -21.0806 26023.1 -03458.3 -07.5699 26251.9
 30 06 2013  18 07  -21.0816 26023.7 -03458.3 -07.5698 26252.5
 30 06 2013  18 08  -21.0825 26024.1 -03458.3 -07.5695 26252.9
 30 06 2013  18 09  -21.0834 26024.3 -03458.1 -07.5690 26253.1
 30 06 2013  18 10  -21.0842 26024.6 -03457.9 -07.5685 26253.3
 30 06 2013  18 11  -21.0838 26024.1 -03457.3 -07.5675 26252.7
 30 06 2013  18 12  -21.0839 26023.6 -03456.9 -07.5667 26252.2
 30 06 2013  18 13  -21.0838 26023.2 -03456.5 -07.5660 26251.8
 30 06 2013  18 14  -21.0837 26022.7 -03456.2 -07.5654 26251.2
 30 06 2013  18 15  -21.0840 26022.7 -03456.0 -07.5650 26251.2
 30 06 2013  18 16  -21.0843 26022.6 -03455.8 -07.5646 26251.1
 30 06 2013  18 17  -21.0837 26022.1 -03455.3 -07.5637 26250.5
 30 06 2013  18 18  -21.0833 26021.5 -03454.9 -07.5629 26249.8
 30 06 2013  18 19  -21.0828 26020.9 -03454.5 -07.5623 26249.3
 30 06 2013  18 20  -21.0826 26020.5 -03454.2 -07.5618 26248.7
 30 06 2013  18 21  -21.0822 26020.4 -03454.1 -07.5615 26248.7
 30 06 2013  18 22  -21.0817 26020.5 -03454.1 -07.5615 26248.7
 30 06 2013  18 23  -21.0810 26020.3 -03453.9 -07.5612 26248.5
 30 06 2013  18 24  -21.0802 26019.9 -03453.9 -07.5612 26248.2
 30 06 2013  18 25  -21.0795 26019.4 -03453.7 -07.5610 26247.6
 30 06 2013  18 26  -21.0790 26019.6 -03453.9 -07.5613 26247.9
 30 06 2013  18 27  -21.0790 26020.0 -03454.0 -07.5615 26248.2
 30 06 2013  18 28  -21.0799 26020.6 -03454.2 -07.5618 26248.8
 30 06 2013  18 29  -21.0802 26020.8 -03454.1 -07.5615 26249.1
 30 06 2013  18 30  -21.0800 26020.8 -03453.9 -07.5609 26249.1
 30 06 2013  18 31  -21.0795 26021.0 -03453.8 -07.5607 26249.2
 30 06 2013  18 32  -21.0787 26020.5 -03453.4 -07.5599 26248.7
 30 06 2013  18 33  -21.0781 26020.5 -03453.2 -07.5596 26248.7
 30 06 2013  18 34  -21.0781 26020.8 -03453.3 -07.5597 26248.9
 30 06 2013  18 35  -21.0787 26021.0 -03453.3 -07.5596 26249.1
 30 06 2013  18 36  -21.0801 26021.9 -03453.5 -07.5597 26250.0
 30 06 2013  18 37  -21.0815 26022.9 -03453.6 -07.5597 26251.1
 30 06 2013  18 38  -21.0814 26022.6 -03453.1 -07.5587 26250.7
 30 06 2013  18 39  -21.0810 26022.2 -03452.6 -07.5577 26250.2
 30 06 2013  18 40  -21.0810 26021.9 -03452.3 -07.5573 26249.9
 30 06 2013  18 41  -21.0816 26021.8 -03452.3 -07.5572 26249.8
 30 06 2013  18 42  -21.0814 26021.5 -03452.1 -07.5568 26249.5
 30 06 2013  18 43  -21.0807 26020.6 -03451.6 -07.5562 26248.5
 30 06 2013  18 44  -21.0803 26019.8 -03451.3 -07.5557 26247.7
 30 06 2013  18 45  -21.0803 26019.4 -03451.3 -07.5557 26247.3
 30 06 2013  18 46  -21.0798 26018.7 -03451.1 -07.5556 26246.6
 30 06 2013  18 47  -21.0791 26017.8 -03450.9 -07.5553 26245.7
 30 06 2013  18 48  -21.0790 26017.5 -03450.9 -07.5555 26245.3
 30 06 2013  18 49  -21.0786 26017.3 -03451.0 -07.5558 26245.2
 30 06 2013  18 50  -21.0783 26017.5 -03451.3 -07.5564 26245.4
 30 06 2013  18 51  -21.0773 26017.2 -03451.4 -07.5567 26245.1
 30 06 2013  18 52  -21.0767 26016.9 -03451.6 -07.5572 26244.9
 30 06 2013  18 53  -21.0770 26017.2 -03452.1 -07.5581 26245.3
 30 06 2013  18 54  -21.0777 26017.9 -03452.6 -07.5590 26245.9
 30 06 2013  18 55  -21.0766 26017.5 -03452.5 -07.5590 26245.6
 30 06 2013  18 56  -21.0755 26016.7 -03452.3 -07.5588 26244.8
 30 06 2013  18 57  -21.0759 26016.9 -03452.6 -07.5594 26245.0
 30 06 2013  18 58  -21.0760 26017.4 -03453.0 -07.5601 26245.5
 30 06 2013  18 59  -21.0756 26017.7 -03453.3 -07.5606 26245.9
 30 06 2013  19 00  -21.0757 26017.8 -03453.5 -07.5611 26246.0
 30 06 2013  19 01  -21.0763 26018.1 -03453.7 -07.5613 26246.3
 30 06 2013  19 02  -21.0777 26018.9 -03454.1 -07.5620 26247.2
 30 06 2013  19 03  -21.0779 26019.1 -03454.1 -07.5620 26247.4
 30 06 2013  19 04  -21.0786 26019.1 -03454.1 -07.5620 26247.4
 30 06 2013  19 05  -21.0789 26018.9 -03454.0 -07.5618 26247.1
 30 06 2013  19 06  -21.0800 26019.5 -03454.3 -07.5622 26247.8
 30 06 2013  19 07  -21.0813 26020.1 -03454.5 -07.5625 26248.4
 30 06 2013  19 08  -21.0819 26020.6 -03454.6 -07.5626 26248.9
 30 06 2013  19 09  -21.0824 26021.0 -03454.6 -07.5625 26249.3
 30 06 2013  19 10  -21.0826 26021.1 -03454.5 -07.5623 26249.4
 30 06 2013  19 11  -21.0831 26021.1 -03454.5 -07.5621 26249.4
 30 06 2013  19 12  -21.0842 26021.3 -03454.4 -07.5620 26249.6
 30 06 2013  19 13  -21.0841 26020.7 -03454.1 -07.5615 26248.9
 30 06 2013  19 14  -21.0844 26020.3 -03453.9 -07.5612 26248.6
 30 06 2013  19 15  -21.0846 26019.7 -03453.8 -07.5610 26247.9
 30 06 2013  19 16  -21.0850 26019.1 -03453.6 -07.5608 26247.3
 30 06 2013  19 17  -21.0853 26018.6 -03453.6 -07.5609 26246.8
 30 06 2013  19 18  -21.0857 26018.6 -03453.7 -07.5612 26246.8
 30 06 2013  19 19  -21.0860 26018.4 -03453.7 -07.5614 26246.6
 30 06 2013  19 20  -21.0862 26018.1 -03453.8 -07.5615 26246.3
 30 06 2013  19 21  -21.0865 26018.0 -03453.8 -07.5617 26246.2
 30 06 2013  19 22  -21.0868 26017.8 -03453.9 -07.5619 26246.0
 30 06 2013  19 23  -21.0869 26017.6 -03454.0 -07.5621 26245.9
 30 06 2013  19 24  -21.0870 26017.2 -03454.0 -07.5622 26245.5
 30 06 2013  19 25  -21.0867 26016.8 -03454.0 -07.5625 26245.0
 30 06 2013  19 26  -21.0866 26016.5 -03454.2 -07.5628 26244.8
 30 06 2013  19 27  -21.0865 26016.1 -03454.3 -07.5632 26244.4
 30 06 2013  19 28  -21.0862 26015.8 -03454.4 -07.5636 26244.2
 30 06 2013  19 29  -21.0858 26015.7 -03454.6 -07.5641 26244.0
 30 06 2013  19 30  -21.0858 26015.7 -03454.9 -07.5646 26244.1
 30 06 2013  19 31  -21.0864 26015.7 -03455.1 -07.5651 26244.2
 30 06 2013  19 32  -21.0876 26015.4 -03455.1 -07.5651 26243.9
 30 06 2013  19 33  -21.0885 26015.1 -03455.0 -07.5650 26243.5
 30 06 2013  19 34  -21.0888 26014.4 -03454.6 -07.5644 26242.7
 30 06 2013  19 35  -21.0892 26014.3 -03454.6 -07.5644 26242.7
 30 06 2013  19 36  -21.0892 26014.6 -03454.8 -07.5647 26243.0
 30 06 2013  19 37  -21.0898 26014.9 -03455.0 -07.5652 26243.3
 30 06 2013  19 38  -21.0899 26015.1 -03455.2 -07.5653 26243.6
 30 06 2013  19 39  -21.0900 26015.4 -03455.3 -07.5657 26243.9
 30 06 2013  19 40  -21.0901 26015.4 -03455.4 -07.5658 26243.9
 30 06 2013  19 41  -21.0898 26015.2 -03455.4 -07.5658 26243.7
 30 06 2013  19 42  -21.0895 26014.9 -03455.3 -07.5658 26243.3
 30 06 2013  19 43  -21.0889 26014.5 -03455.3 -07.5657 26242.9
 30 06 2013  19 44  -21.0879 26013.8 -03455.1 -07.5657 26242.3
 30 06 2013  19 45  -21.0871 26013.4 -03455.1 -07.5658 26241.8
 30 06 2013  19 46  -21.0864 26013.2 -03455.3 -07.5662 26241.6
 30 06 2013  19 47  -21.0860 26013.1 -03455.5 -07.5667 26241.6
 30 06 2013  19 48  -21.0855 26013.1 -03455.7 -07.5671 26241.7
 30 06 2013  19 49  -21.0849 26012.9 -03455.7 -07.5672 26241.5
 30 06 2013  19 50  -21.0842 26012.6 -03455.8 -07.5675 26241.2
 30 06 2013  19 51  -21.0834 26012.4 -03455.9 -07.5678 26240.9
 30 06 2013  19 52  -21.0827 26012.1 -03456.0 -07.5681 26240.7
 30 06 2013  19 53  -21.0820 26011.9 -03456.2 -07.5684 26240.5
 30 06 2013  19 54  -21.0815 26011.9 -03456.3 -07.5687 26240.6
 30 06 2013  19 55  -21.0814 26011.9 -03456.4 -07.5690 26240.5
 30 06 2013  19 56  -21.0812 26011.7 -03456.4 -07.5691 26240.4
 30 06 2013  19 57  -21.0809 26011.6 -03456.4 -07.5691 26240.2
 30 06 2013  19 58  -21.0807 26011.6 -03456.5 -07.5693 26240.2
 30 06 2013  19 59  -21.0806 26011.6 -03456.6 -07.5695 26240.3
 30 06 2013  20 00  -21.0804 26011.5 -03456.6 -07.5696 26240.1
 30 06 2013  20 01  -21.0802 26011.5 -03456.7 -07.5697 26240.1
 30 06 2013  20 02  -21.0799 26011.6 -03456.8 -07.5699 26240.2
 30 06 2013  20 03  -21.0795 26011.6 -03456.8 -07.5698 26240.3
 30 06 2013  20 04  -21.0791 26011.5 -03456.8 -07.5699 26240.2
 30 06 2013  20 05  -21.0782 26011.5 -03456.8 -07.5699 26240.1
 30 06 2013  20 06  -21.0775 26011.3 -03456.7 -07.5699 26240.0
 30 06 2013  20 07  -21.0768 26011.1 -03456.7 -07.5699 26239.7
 30 06 2013  20 08  -21.0764 26011.1 -03456.8 -07.5701 26239.8
 30 06 2013  20 09  -21.0761 26011.3 -03457.0 -07.5704 26240.0
 30 06 2013  20 10  -21.0759 26011.4 -03457.0 -07.5705 26240.1
 30 06 2013  20 11  -21.0759 26011.3 -03457.0 -07.5705 26240.1
 30 06 2013  20 12  -21.0757 26011.3 -03457.0 -07.5705 26240.0
 30 06 2013  20 13  -21.0756 26011.2 -03457.0 -07.5705 26240.0
 30 06 2013  20 14  -21.0755 26011.1 -03457.0 -07.5705 26239.9
 30 06 2013  20 15  -21.0752 26010.9 -03456.9 -07.5704 26239.6
 30 06 2013  20 16  -21.0751 26010.8 -03456.9 -07.5703 26239.5
 30 06 2013  20 17  -21.0751 26010.6 -03456.8 -07.5703 26239.3
 30 06 2013  20 18  -21.0748 26010.5 -03456.8 -07.5703 26239.2
 30 06 2013  20 19  -21.0746 26010.4 -03456.8 -07.5704 26239.1
 30 06 2013  20 20  -21.0746 26010.4 -03456.9 -07.5705 26239.1
 30 06 2013  20 21  -21.0747 26010.6 -03457.0 -07.5707 26239.4
 30 06 2013  20 22  -21.0749 26010.7 -03457.1 -07.5709 26239.4
 30 06 2013  20 23  -21.0745 26010.6 -03457.1 -07.5709 26239.3
 30 06 2013  20 24  -21.0735 26010.5 -03457.1 -07.5708 26239.2
 30 06 2013  20 25  -21.0729 26010.8 -03457.4 -07.5714 26239.6
 30 06 2013  20 26  -21.0727 26011.4 -03457.7 -07.5719 26240.2
 30 06 2013  20 27  -21.0723 26011.8 -03457.9 -07.5722 26240.7
 30 06 2013  20 28  -21.0718 26012.1 -03458.0 -07.5723 26240.9
 30 06 2013  20 29  -21.0720 26011.6 -03457.7 -07.5718 26240.4
 30 06 2013  20 30  -21.0731 26011.4 -03457.3 -07.5711 26240.1
 30 06 2013  20 31  -21.0731 26010.9 -03456.9 -07.5703 26239.6
 30 06 2013  20 32  -21.0726 26010.5 -03456.6 -07.5697 26239.1
 30 06 2013  20 33  -21.0720 26010.8 -03456.6 -07.5697 26239.4
 30 06 2013  20 34  -21.0712 26011.2 -03456.8 -07.5700 26239.9
 30 06 2013  20 35  -21.0707 26011.2 -03456.8 -07.5700 26239.8
 30 06 2013  20 36  -21.0701 26011.2 -03456.8 -07.5700 26239.8
 30 06 2013  20 37  -21.0696 26011.3 -03456.8 -07.5700 26240.0
 30 06 2013  20 38  -21.0693 26011.1 -03456.8 -07.5700 26239.8
 30 06 2013  20 39  -21.0688 26010.5 -03456.4 -07.5693 26239.1
 30 06 2013  20 40  -21.0684 26009.9 -03456.0 -07.5687 26238.5
 30 06 2013  20 41  -21.0681 26009.6 -03455.8 -07.5683 26238.2
 30 06 2013  20 42  -21.0679 26009.7 -03455.8 -07.5683 26238.3
 30 06 2013  20 43  -21.0676 26009.8 -03455.8 -07.5684 26238.4
 30 06 2013  20 44  -21.0673 26009.7 -03455.8 -07.5683 26238.3
 30 06 2013  20 45  -21.0669 26009.6 -03455.7 -07.5682 26238.2
 30 06 2013  20 46  -21.0665 26009.3 -03455.6 -07.5680 26237.9
 30 06 2013  20 47  -21.0662 26009.2 -03455.4 -07.5677 26237.7
 30 06 2013  20 48  -21.0661 26009.0 -03455.3 -07.5675 26237.5
 30 06 2013  20 49  -21.0661 26008.8 -03455.2 -07.5673 26237.3
 30 06 2013  20 50  -21.0660 26008.6 -03455.1 -07.5671 26237.1
 30 06 2013  20 51  -21.0659 26008.5 -03455.1 -07.5670 26237.0
 30 06 2013  20 52  -21.0660 26008.7 -03455.0 -07.5669 26237.2
 30 06 2013  20 53  -21.0662 26008.8 -03455.0 -07.5669 26237.2
 30 06 2013  20 54  -21.0663 26008.6 -03454.9 -07.5667 26237.1
 30 06 2013  20 55  -21.0663 26008.4 -03454.8 -07.5664 26236.9
 30 06 2013  20 56  -21.0663 26008.2 -03454.7 -07.5664 26236.7
 30 06 2013  20 57  -21.0663 26008.1 -03454.7 -07.5663 26236.6
 30 06 2013  20 58  -21.0662 26008.1 -03454.7 -07.5663 26236.5
 30 06 2013  20 59  -21.0661 26008.1 -03454.7 -07.5663 26236.5
 30 06 2013  21 00  -21.0659 26008.0 -03454.6 -07.5662 26236.4
 30 06 2013  21 01  -21.0658 26008.1 -03454.6 -07.5662 26236.6
 30 06 2013  21 02  -21.0656 26008.3 -03454.7 -07.5662 26236.7
 30 06 2013  21 03  -21.0655 26008.2 -03454.6 -07.5661 26236.7
 30 06 2013  21 04  -21.0655 26007.8 -03454.4 -07.5658 26236.2
 30 06 2013  21 05  -21.0654 26007.6 -03454.3 -07.5657 26236.0
 30 06 2013  21 06  -21.0654 26007.5 -03454.3 -07.5656 26235.9
 30 06 2013  21 07  -21.0653 26007.6 -03454.4 -07.5658 26236.0
 30 06 2013  21 08  -21.0651 26007.6 -03454.4 -07.5659 26236.0
 30 06 2013  21 09  -21.0649 26007.6 -03454.4 -07.5659 26236.0
 30 06 2013  21 10  -21.0647 26007.5 -03454.3 -07.5658 26235.9
 30 06 2013  21 11  -21.0649 26007.5 -03454.4 -07.5658 26235.9
 30 06 2013  21 12  -21.0651 26007.3 -03454.3 -07.5658 26235.7
 30 06 2013  21 13  -21.0654 26007.3 -03454.3 -07.5658 26235.7
 30 06 2013  21 14  -21.0657 26007.2 -03454.3 -07.5658 26235.6
 30 06 2013  21 15  -21.0660 26007.2 -03454.3 -07.5658 26235.6
 30 06 2013  21 16  -21.0662 26007.0 -03454.2 -07.5657 26235.4
 30 06 2013  21 17  -21.0661 26006.8 -03454.1 -07.5655 26235.1
 30 06 2013  21 18  -21.0659 26006.4 -03454.0 -07.5653 26234.8
 30 06 2013  21 19  -21.0657 26006.1 -03453.9 -07.5651 26234.5
 30 06 2013  21 20  -21.0657 26006.0 -03453.8 -07.5651 26234.3
 30 06 2013  21 21  -21.0654 26005.9 -03453.9 -07.5652 26234.3
 30 06 2013  21 22  -21.0650 26005.8 -03453.9 -07.5653 26234.1
 30 06 2013  21 23  -21.0646 26005.7 -03453.9 -07.5653 26234.0
 30 06 2013  21 24  -21.0643 26005.7 -03454.0 -07.5655 26234.0
 30 06 2013  21 25  -21.0641 26005.6 -03454.0 -07.5656 26233.9
 30 06 2013  21 26  -21.0637 26005.5 -03454.0 -07.5657 26233.9
 30 06 2013  21 27  -21.0634 26005.5 -03454.1 -07.5659 26233.9
 30 06 2013  21 28  -21.0634 26005.6 -03454.2 -07.5661 26234.0
 30 06 2013  21 29  -21.0636 26005.6 -03454.4 -07.5664 26234.0
 30 06 2013  21 30  -21.0638 26005.6 -03454.5 -07.5666 26234.0
 30 06 2013  21 31  -21.0641 26005.6 -03454.5 -07.5668 26234.0
 30 06 2013  21 32  -21.0643 26005.4 -03454.5 -07.5668 26233.9
 30 06 2013  21 33  -21.0644 26005.2 -03454.5 -07.5667 26233.6
 30 06 2013  21 34  -21.0642 26005.0 -03454.4 -07.5667 26233.5
 30 06 2013  21 35  -21.0643 26005.0 -03454.5 -07.5669 26233.5
 30 06 2013  21 36  -21.0642 26005.1 -03454.6 -07.5671 26233.6
 30 06 2013  21 37  -21.0642 26005.3 -03454.8 -07.5674 26233.7
 30 06 2013  21 38  -21.0642 26005.4 -03455.0 -07.5677 26233.9
 30 06 2013  21 39  -21.0641 26005.5 -03455.1 -07.5679 26234.0
 30 06 2013  21 40  -21.0638 26005.6 -03455.1 -07.5681 26234.1
 30 06 2013  21 41  -21.0635 26005.6 -03455.2 -07.5682 26234.1
 30 06 2013  21 42  -21.0634 26005.6 -03455.3 -07.5683 26234.1
 30 06 2013  21 43  -21.0632 26005.5 -03455.3 -07.5685 26234.1
 30 06 2013  21 44  -21.0631 26005.5 -03455.4 -07.5687 26234.1
 30 06 2013  21 45  -21.0630 26005.6 -03455.5 -07.5688 26234.1
 30 06 2013  21 46  -21.0629 26005.6 -03455.6 -07.5690 26234.2
 30 06 2013  21 47  -21.0630 26005.7 -03455.7 -07.5692 26234.3
 30 06 2013  21 48  -21.0630 26005.7 -03455.8 -07.5694 26234.3
 30 06 2013  21 49  -21.0631 26005.7 -03455.8 -07.5694 26234.3
 30 06 2013  21 50  -21.0631 26005.6 -03455.8 -07.5695 26234.3
 30 06 2013  21 51  -21.0632 26005.5 -03455.8 -07.5696 26234.2
 30 06 2013  21 52  -21.0631 26005.5 -03455.9 -07.5697 26234.1
 30 06 2013  21 53  -21.0632 26005.5 -03455.9 -07.5697 26234.1
 30 06 2013  21 54  -21.0634 26005.5 -03455.9 -07.5698 26234.1
 30 06 2013  21 55  -21.0635 26005.6 -03456.0 -07.5699 26234.2
 30 06 2013  21 56  -21.0635 26005.7 -03456.1 -07.5701 26234.4
 30 06 2013  21 57  -21.0635 26005.8 -03456.2 -07.5702 26234.4
 30 06 2013  21 58  -21.0634 26005.8 -03456.2 -07.5702 26234.5
 30 06 2013  21 59  -21.0633 26005.8 -03456.2 -07.5703 26234.4
 30 06 2013  22 00  -21.0634 26005.8 -03456.2 -07.5703 26234.4
 30 06 2013  22 01  -21.0635 26005.9 -03456.3 -07.5705 26234.6
 30 06 2013  22 02  -21.0635 26006.0 -03456.4 -07.5706 26234.6
 30 06 2013  22 03  -21.0632 26006.0 -03456.4 -07.5707 26234.7
 30 06 2013  22 04  -21.0630 26006.0 -03456.4 -07.5706 26234.6
 30 06 2013  22 05  -21.0630 26005.9 -03456.4 -07.5707 26234.6
 30 06 2013  22 06  -21.0630 26006.0 -03456.4 -07.5708 26234.7
 30 06 2013  22 07  -21.0629 26006.0 -03456.5 -07.5708 26234.7
 30 06 2013  22 08  -21.0626 26005.9 -03456.4 -07.5707 26234.6
 30 06 2013  22 09  -21.0624 26005.8 -03456.3 -07.5706 26234.5
 30 06 2013  22 10  -21.0626 26005.8 -03456.4 -07.5707 26234.5
 30 06 2013  22 11  -21.0632 26005.9 -03456.5 -07.5709 26234.6
 30 06 2013  22 12  -21.0634 26006.0 -03456.5 -07.5710 26234.7
 30 06 2013  22 13  -21.0635 26006.0 -03456.6 -07.5710 26234.7
 30 06 2013  22 14  -21.0639 26006.0 -03456.6 -07.5711 26234.7
 30 06 2013  22 15  -21.0641 26006.0 -03456.6 -07.5711 26234.7
 30 06 2013  22 16  -21.0643 26006.0 -03456.6 -07.5710 26234.7
 30 06 2013  22 17  -21.0644 26006.0 -03456.5 -07.5710 26234.7
 30 06 2013  22 18  -21.0644 26006.0 -03456.6 -07.5710 26234.7
 30 06 2013  22 19  -21.0645 26006.1 -03456.5 -07.5710 26234.8
 30 06 2013  22 20  -21.0648 26006.2 -03456.6 -07.5711 26234.9
 30 06 2013  22 21  -21.0650 26006.2 -03456.6 -07.5711 26234.9
 30 06 2013  22 22  -21.0652 26006.2 -03456.6 -07.5711 26234.9
 30 06 2013  22 23  -21.0650 26006.2 -03456.6 -07.5710 26234.9
 30 06 2013  22 24  -21.0648 26006.1 -03456.5 -07.5709 26234.8
 30 06 2013  22 25  -21.0646 26006.1 -03456.5 -07.5708 26234.8
 30 06 2013  22 26  -21.0642 26005.9 -03456.4 -07.5707 26234.6
 30 06 2013  22 27  -21.0638 26005.8 -03456.3 -07.5706 26234.5
 30 06 2013  22 28  -21.0635 26005.8 -03456.3 -07.5705 26234.4
 30 06 2013  22 29  -21.0632 26005.8 -03456.3 -07.5706 26234.4
 30 06 2013  22 30  -21.0629 26005.8 -03456.4 -07.5706 26234.5
 30 06 2013  22 31  -21.0628 26005.7 -03456.4 -07.5707 26234.4
 30 06 2013  22 32  -21.0627 26005.6 -03456.4 -07.5708 26234.3
 30 06 2013  22 33  -21.0628 26005.5 -03456.4 -07.5708 26234.2
 30 06 2013  22 34  -21.0632 26005.5 -03456.4 -07.5708 26234.2
 30 06 2013  22 35  -21.0636 26005.5 -03456.5 -07.5710 26234.2
 30 06 2013  22 36  -21.0637 26005.5 -03456.5 -07.5711 26234.2
 30 06 2013  22 37  -21.0637 26005.5 -03456.5 -07.5711 26234.2
 30 06 2013  22 38  -21.0634 26005.5 -03456.5 -07.5710 26234.2
 30 06 2013  22 39  -21.0628 26005.4 -03456.4 -07.5709 26234.0
 30 06 2013  22 40  -21.0623 26005.3 -03456.3 -07.5707 26233.9
 30 06 2013  22 41  -21.0620 26005.2 -03456.3 -07.5707 26233.9
 30 06 2013  22 42  -21.0619 26005.2 -03456.4 -07.5708 26233.9
 30 06 2013  22 43  -21.0618 26005.2 -03456.4 -07.5710 26233.9
 30 06 2013  22 44  -21.0617 26005.1 -03456.4 -07.5709 26233.8
 30 06 2013  22 45  -21.0617 26005.0 -03456.4 -07.5709 26233.7
 30 06 2013  22 46  -21.0619 26004.9 -03456.4 -07.5710 26233.6
 30 06 2013  22 47  -21.0621 26004.7 -03456.4 -07.5710 26233.4
 30 06 2013  22 48  -21.0625 26004.7 -03456.4 -07.5710 26233.4
 30 06 2013  22 49  -21.0626 26004.6 -03456.4 -07.5710 26233.3
 30 06 2013  22 50  -21.0624 26004.5 -03456.3 -07.5709 26233.2
 30 06 2013  22 51  -21.0623 26004.4 -03456.3 -07.5708 26233.1
 30 06 2013  22 52  -21.0623 26004.4 -03456.3 -07.5709 26233.1
 30 06 2013  22 53  -21.0624 26004.4 -03456.3 -07.5709 26233.1
 30 06 2013  22 54  -21.0626 26004.3 -03456.3 -07.5710 26233.0
 30 06 2013  22 55  -21.0626 26004.3 -03456.3 -07.5710 26233.0
 30 06 2013  22 56  -21.0628 26004.4 -03456.4 -07.5712 26233.1
 30 06 2013  22 57  -21.0630 26004.4 -03456.5 -07.5712 26233.1
 30 06 2013  22 58  -21.0633 26004.7 -03456.6 -07.5714 26233.4
 30 06 2013  22 59  -21.0634 26004.8 -03456.6 -07.5715 26233.5
 30 06 2013  23 00  -21.0633 26004.8 -03456.6 -07.5715 26233.5
 30 06 2013  23 01  -21.0631 26004.8 -03456.6 -07.5714 26233.6
 30 06 2013  23 02  -21.0630 26005.2 -03456.7 -07.5716 26233.9
 30 06 2013  23 03  -21.0630 26005.5 -03456.9 -07.5720 26234.2
 30 06 2013  23 04  -21.0629 26005.7 -03457.1 -07.5722 26234.5
 30 06 2013  23 05  -21.0626 26006.2 -03457.2 -07.5724 26235.0
 30 06 2013  23 06  -21.0625 26006.3 -03457.3 -07.5726 26235.1
 30 06 2013  23 07  -21.0624 26006.7 -03457.5 -07.5728 26235.6
 30 06 2013  23 08  -21.0622 26007.2 -03457.7 -07.5732 26236.1
 30 06 2013  23 09  -21.0620 26007.4 -03457.8 -07.5734 26236.2
 30 06 2013  23 10  -21.0618 26007.8 -03457.9 -07.5735 26236.6
 30 06 2013  23 11  -21.0617 26008.3 -03458.2 -07.5739 26237.2
 30 06 2013  23 12  -21.0617 26008.8 -03458.4 -07.5742 26237.7
 30 06 2013  23 13  -21.0617 26009.1 -03458.5 -07.5743 26238.1
 30 06 2013  23 14  -21.0620 26009.6 -03458.7 -07.5746 26238.6
 30 06 2013  23 15  -21.0619 26010.1 -03458.8 -07.5747 26239.1
 30 06 2013  23 16  -21.0619 26010.4 -03458.8 -07.5747 26239.4
 30 06 2013  23 17  -21.0619 26010.7 -03458.9 -07.5747 26239.6
 30 06 2013  23 18  -21.0615 26011.0 -03458.9 -07.5746 26240.0
 30 06 2013  23 19  -21.0608 26012.2 -03459.3 -07.5752 26241.2
 30 06 2013  23 20  -21.0601 26012.6 -03459.5 -07.5754 26241.7
 30 06 2013  23 21  -21.0597 26012.9 -03459.6 -07.5755 26242.0
 30 06 2013  23 22  -21.0592 26013.3 -03459.6 -07.5755 26242.4
 30 06 2013  23 23  -21.0588 26013.4 -03459.6 -07.5754 26242.4
 30 06 2013  23 24  -21.0582 26013.3 -03459.4 -07.5751 26242.3
 30 06 2013  23 25  -21.0573 26013.3 -03459.3 -07.5749 26242.3
 30 06 2013  23 26  -21.0566 26013.0 -03459.1 -07.5745 26242.0
 30 06 2013  23 27  -21.0560 26012.8 -03458.9 -07.5742 26241.7
 30 06 2013  23 28  -21.0554 26012.3 -03458.7 -07.5738 26241.2
 30 06 2013  23 29  -21.0547 26012.1 -03458.5 -07.5735 26241.0
 30 06 2013  23 30  -21.0544 26011.8 -03458.4 -07.5733 26240.7
 30 06 2013  23 31  -21.0544 26011.5 -03458.3 -07.5732 26240.4
 30 06 2013  23 32  -21.0547 26011.3 -03458.2 -07.5731 26240.1
 30 06 2013  23 33  -21.0552 26011.0 -03458.2 -07.5731 26239.9
 30 06 2013  23 34  -21.0556 26010.7 -03458.1 -07.5729 26239.5
 30 06 2013  23 35  -21.0563 26010.4 -03458.0 -07.5728 26239.3
 30 06 2013  23 36  -21.0566 26011.3 -03458.4 -07.5734 26240.2
 30 06 2013  23 37  -21.0571 26011.0 -03458.3 -07.5733 26239.9
 30 06 2013  23 38  -21.0570 26011.2 -03458.4 -07.5735 26240.1
 30 06 2013  23 39  -21.0572 26011.3 -03458.4 -07.5735 26240.2
 30 06 2013  23 40  -21.0573 26010.9 -03458.2 -07.5732 26239.7
 30 06 2013  23 41  -21.0575 26011.0 -03458.2 -07.5732 26239.9
 30 06 2013  23 42  -21.0577 26010.6 -03458.1 -07.5729 26239.5
 30 06 2013  23 43  -21.0580 26010.2 -03457.8 -07.5725 26239.1
 30 06 2013  23 44  -21.0581 26010.2 -03457.8 -07.5724 26239.1
 30 06 2013  23 45  -21.0582 26010.5 -03457.9 -07.5726 26239.3
 30 06 2013  23 46  -21.0583 26010.2 -03457.8 -07.5726 26239.0
 30 06 2013  23 47  -21.0580 26010.2 -03457.8 -07.5724 26239.0
 30 06 2013  23 48  -21.0575 26010.7 -03458.0 -07.5728 26239.6
 30 06 2013  23 49  -21.0570 26011.4 -03458.3 -07.5732 26240.3
 30 06 2013  23 50  -21.0568 26012.1 -03458.7 -07.5739 26241.0
 30 06 2013  23 51  -21.0564 26012.4 -03458.8 -07.5741 26241.3
 30 06 2013  23 52  -21.0558 26012.5 -03458.9 -07.5741 26241.4
 30 06 2013  23 53  -21.0555 26012.6 -03458.9 -07.5742 26241.5
 30 06 2013  23 54  -21.0548 26012.5 -03458.8 -07.5740 26241.5
 30 06 2013  23 55  -21.0537 26012.9 -03459.0 -07.5743 26241.9
 30 06 2013  23 56  -21.0529 26013.1 -03459.1 -07.5744 26242.1
 30 06 2013  23 57  -21.0522 26013.3 -03459.2 -07.5746 26242.3
