SAO LUIS EMBRACE-03 <273> 1 Min. Reported data

 DD MM YYYY  HH MM   D(Deg)  H(nT)   Z(nT)   I(Deg)   F(nT)

 30 09 2013  00 00  -21.0031 26037.2 -03490.5 -07.6355 26270.2
 30 09 2013  00 01  -21.0031 26037.3 -03490.6 -07.6357 26270.2
 30 09 2013  00 02  -21.0031 26037.4 -03490.7 -07.6359 26270.3
 30 09 2013  00 03  -21.0031 26037.3 -03490.7 -07.6359 26270.2
 30 09 2013  00 04  -21.0031 26037.2 -03490.7 -07.6359 26270.2
 30 09 2013  00 05  -21.0030 26037.2 -03490.7 -07.6359 26270.2
 30 09 2013  00 06  -21.0029 26037.2 -03490.7 -07.6359 26270.1
 30 09 2013  00 07  -21.0029 26037.2 -03490.7 -07.6359 26270.1
 30 09 2013  00 08  -21.0029 26037.1 -03490.8 -07.6360 26270.1
 30 09 2013  00 09  -21.0029 26037.0 -03490.7 -07.6360 26270.0
 30 09 2013  00 10  -21.0028 26037.0 -03490.7 -07.6360 26270.0
 30 09 2013  00 11  -21.0029 26037.0 -03490.8 -07.6361 26269.9
 30 09 2013  00 12  -21.0028 26036.9 -03490.7 -07.6360 26269.9
 30 09 2013  00 13  -21.0029 26036.9 -03490.7 -07.6360 26269.9
 30 09 2013  00 14  -21.0031 26036.8 -03490.7 -07.6360 26269.7
 30 09 2013  00 15  -21.0032 26036.6 -03490.7 -07.6360 26269.6
 30 09 2013  00 16  -21.0032 26036.5 -03490.6 -07.6359 26269.4
 30 09 2013  00 17  -21.0033 26036.3 -03490.6 -07.6359 26269.3
 30 09 2013  00 18  -21.0033 26036.2 -03490.5 -07.6358 26269.1
 30 09 2013  00 19  -21.0033 26036.0 -03490.5 -07.6358 26268.9
 30 09 2013  00 20  -21.0034 26035.9 -03490.5 -07.6357 26268.8
 30 09 2013  00 21  -21.0034 26035.8 -03490.5 -07.6358 26268.7
 30 09 2013  00 22  -21.0035 26035.8 -03490.5 -07.6359 26268.8
 30 09 2013  00 23  -21.0037 26035.8 -03490.6 -07.6360 26268.7
 30 09 2013  00 24  -21.0038 26035.8 -03490.6 -07.6360 26268.7
 30 09 2013  00 25  -21.0040 26035.7 -03490.6 -07.6361 26268.6
 30 09 2013  00 26  -21.0040 26035.7 -03490.6 -07.6362 26268.7
 30 09 2013  00 27  -21.0041 26035.7 -03490.7 -07.6363 26268.7
 30 09 2013  00 28  -21.0041 26035.5 -03490.6 -07.6362 26268.5
 30 09 2013  00 29  -21.0042 26035.4 -03490.6 -07.6361 26268.3
 30 09 2013  00 30  -21.0043 26035.3 -03490.5 -07.6361 26268.2
 30 09 2013  00 31  -21.0043 26035.2 -03490.5 -07.6361 26268.1
 30 09 2013  00 32  -21.0044 26035.1 -03490.5 -07.6360 26268.1
 30 09 2013  00 33  -21.0045 26034.9 -03490.4 -07.6359 26267.9
 30 09 2013  00 34  -21.0046 26034.8 -03490.4 -07.6359 26267.8
 30 09 2013  00 35  -21.0048 26035.0 -03490.5 -07.6361 26267.9
 30 09 2013  00 36  -21.0049 26034.9 -03490.5 -07.6362 26267.9
 30 09 2013  00 37  -21.0050 26034.9 -03490.5 -07.6362 26267.9
 30 09 2013  00 38  -21.0050 26034.8 -03490.5 -07.6362 26267.7
 30 09 2013  00 39  -21.0050 26034.8 -03490.5 -07.6362 26267.7
 30 09 2013  00 40  -21.0051 26034.8 -03490.6 -07.6362 26267.7
 30 09 2013  00 41  -21.0052 26034.8 -03490.6 -07.6363 26267.7
 30 09 2013  00 42  -21.0052 26034.7 -03490.6 -07.6363 26267.7
 30 09 2013  00 43  -21.0053 26034.8 -03490.6 -07.6363 26267.7
 30 09 2013  00 44  -21.0054 26034.8 -03490.6 -07.6363 26267.7
 30 09 2013  00 45  -21.0054 26034.7 -03490.6 -07.6364 26267.7
 30 09 2013  00 46  -21.0055 26034.6 -03490.6 -07.6363 26267.6
 30 09 2013  00 47  -21.0054 26034.6 -03490.6 -07.6363 26267.6
 30 09 2013  00 48  -21.0054 26034.6 -03490.6 -07.6363 26267.6
 30 09 2013  00 49  -21.0055 26034.6 -03490.6 -07.6364 26267.5
 30 09 2013  00 50  -21.0054 26034.5 -03490.6 -07.6363 26267.4
 30 09 2013  00 51  -21.0054 26034.3 -03490.5 -07.6363 26267.3
 30 09 2013  00 52  -21.0056 26034.3 -03490.5 -07.6362 26267.2
 30 09 2013  00 53  -21.0057 26034.2 -03490.5 -07.6362 26267.1
 30 09 2013  00 54  -21.0058 26034.0 -03490.4 -07.6362 26267.0
 30 09 2013  00 55  -21.0059 26033.9 -03490.3 -07.6360 26266.8
 30 09 2013  00 56  -21.0059 26033.8 -03490.3 -07.6360 26266.7
 30 09 2013  00 57  -21.0060 26033.6 -03490.3 -07.6360 26266.6
 30 09 2013  00 58  -21.0061 26033.6 -03490.3 -07.6360 26266.5
 30 09 2013  00 59  -21.0062 26033.5 -03490.2 -07.6359 26266.4
 30 09 2013  01 00  -21.0064 26033.3 -03490.2 -07.6358 26266.2
 30 09 2013  01 01  -21.0065 26033.2 -03490.1 -07.6358 26266.1
 30 09 2013  01 02  -21.0066 26033.0 -03490.1 -07.6357 26266.0
 30 09 2013  01 03  -21.0067 26033.0 -03490.1 -07.6357 26265.9
 30 09 2013  01 04  -21.0069 26032.8 -03490.1 -07.6357 26265.7
 30 09 2013  01 05  -21.0071 26032.7 -03490.0 -07.6356 26265.6
 30 09 2013  01 06  -21.0072 26032.6 -03490.0 -07.6356 26265.5
 30 09 2013  01 07  -21.0072 26032.5 -03490.0 -07.6356 26265.4
 30 09 2013  01 08  -21.0073 26032.5 -03489.9 -07.6356 26265.3
 30 09 2013  01 09  -21.0074 26032.4 -03490.0 -07.6356 26265.3
 30 09 2013  01 10  -21.0076 26032.3 -03489.9 -07.6356 26265.1
 30 09 2013  01 11  -21.0077 26032.2 -03489.9 -07.6356 26265.0
 30 09 2013  01 12  -21.0080 26032.1 -03489.9 -07.6356 26265.0
 30 09 2013  01 13  -21.0081 26032.0 -03489.9 -07.6357 26264.9
 30 09 2013  01 14  -21.0082 26031.9 -03489.9 -07.6356 26264.8
 30 09 2013  01 15  -21.0084 26031.7 -03489.8 -07.6356 26264.6
 30 09 2013  01 16  -21.0086 26031.6 -03489.8 -07.6356 26264.5
 30 09 2013  01 17  -21.0087 26031.6 -03489.8 -07.6356 26264.5
 30 09 2013  01 18  -21.0088 26031.7 -03489.9 -07.6358 26264.6
 30 09 2013  01 19  -21.0088 26031.4 -03489.8 -07.6356 26264.3
 30 09 2013  01 20  -21.0089 26031.4 -03489.8 -07.6357 26264.3
 30 09 2013  01 21  -21.0088 26031.3 -03489.8 -07.6356 26264.2
 30 09 2013  01 22  -21.0087 26031.5 -03489.9 -07.6358 26264.4
 30 09 2013  01 23  -21.0086 26031.8 -03490.1 -07.6362 26264.7
 30 09 2013  01 24  -21.0086 26031.8 -03490.1 -07.6362 26264.8
 30 09 2013  01 25  -21.0082 26032.6 -03490.6 -07.6369 26265.6
 30 09 2013  01 26  -21.0082 26032.1 -03490.4 -07.6367 26265.1
 30 09 2013  01 27  -21.0079 26033.0 -03490.7 -07.6372 26265.9
 30 09 2013  01 28  -21.0074 26033.6 -03491.1 -07.6378 26266.6
 30 09 2013  01 29  -21.0072 26033.4 -03491.0 -07.6376 26266.4
 30 09 2013  01 30  -21.0066 26033.7 -03491.1 -07.6378 26266.7
 30 09 2013  01 31  -21.0064 26033.9 -03491.2 -07.6379 26267.0
 30 09 2013  01 32  -21.0062 26034.3 -03491.5 -07.6383 26267.4
 30 09 2013  01 33  -21.0061 26034.4 -03491.5 -07.6384 26267.5
 30 09 2013  01 34  -21.0061 26034.4 -03491.5 -07.6384 26267.5
 30 09 2013  01 35  -21.0062 26034.4 -03491.5 -07.6383 26267.5
 30 09 2013  01 36  -21.0061 26034.6 -03491.5 -07.6384 26267.7
 30 09 2013  01 37  -21.0061 26034.3 -03491.4 -07.6382 26267.3
 30 09 2013  01 38  -21.0061 26034.1 -03491.3 -07.6380 26267.1
 30 09 2013  01 39  -21.0064 26034.0 -03491.3 -07.6380 26267.1
 30 09 2013  01 40  -21.0066 26033.9 -03491.2 -07.6379 26267.0
 30 09 2013  01 41  -21.0067 26033.8 -03491.2 -07.6378 26266.8
 30 09 2013  01 42  -21.0068 26033.4 -03491.0 -07.6375 26266.5
 30 09 2013  01 43  -21.0068 26033.4 -03490.9 -07.6374 26266.4
 30 09 2013  01 44  -21.0071 26033.4 -03491.0 -07.6375 26266.4
 30 09 2013  01 45  -21.0073 26033.4 -03491.0 -07.6375 26266.5
 30 09 2013  01 46  -21.0075 26033.2 -03490.8 -07.6373 26266.2
 30 09 2013  01 47  -21.0078 26033.0 -03490.8 -07.6372 26266.0
 30 09 2013  01 48  -21.0080 26032.9 -03490.7 -07.6372 26265.9
 30 09 2013  01 49  -21.0082 26032.8 -03490.7 -07.6372 26265.8
 30 09 2013  01 50  -21.0083 26032.9 -03490.8 -07.6372 26265.9
 30 09 2013  01 51  -21.0085 26032.7 -03490.7 -07.6371 26265.6
 30 09 2013  01 52  -21.0085 26032.6 -03490.6 -07.6370 26265.5
 30 09 2013  01 53  -21.0086 26032.4 -03490.5 -07.6368 26265.4
 30 09 2013  01 54  -21.0085 26032.5 -03490.6 -07.6370 26265.5
 30 09 2013  01 55  -21.0086 26032.4 -03490.6 -07.6370 26265.4
 30 09 2013  01 56  -21.0085 26032.4 -03490.6 -07.6370 26265.4
 30 09 2013  01 57  -21.0084 26032.4 -03490.6 -07.6369 26265.3
 30 09 2013  01 58  -21.0081 26032.7 -03490.7 -07.6372 26265.7
 30 09 2013  01 59  -21.0081 26032.4 -03490.6 -07.6371 26265.3
 30 09 2013  02 00  -21.0078 26032.5 -03490.6 -07.6371 26265.4
 30 09 2013  02 01  -21.0077 26032.3 -03490.6 -07.6371 26265.3
 30 09 2013  02 02  -21.0077 26032.2 -03490.6 -07.6370 26265.2
 30 09 2013  02 03  -21.0075 26032.1 -03490.5 -07.6370 26265.1
 30 09 2013  02 04  -21.0075 26032.0 -03490.5 -07.6370 26265.0
 30 09 2013  02 05  -21.0075 26031.9 -03490.5 -07.6369 26264.8
 30 09 2013  02 06  -21.0073 26031.8 -03490.5 -07.6370 26264.8
 30 09 2013  02 07  -21.0072 26031.7 -03490.5 -07.6370 26264.7
 30 09 2013  02 08  -21.0072 26031.6 -03490.4 -07.6369 26264.6
 30 09 2013  02 09  -21.0070 26031.7 -03490.5 -07.6370 26264.7
 30 09 2013  02 10  -21.0069 26031.7 -03490.6 -07.6372 26264.7
 30 09 2013  02 11  -21.0069 26031.6 -03490.5 -07.6371 26264.5
 30 09 2013  02 12  -21.0068 26031.6 -03490.6 -07.6372 26264.6
 30 09 2013  02 13  -21.0068 26031.6 -03490.6 -07.6373 26264.6
 30 09 2013  02 14  -21.0068 26031.7 -03490.7 -07.6374 26264.7
 30 09 2013  02 15  -21.0068 26031.5 -03490.6 -07.6373 26264.5
 30 09 2013  02 16  -21.0066 26031.6 -03490.7 -07.6375 26264.6
 30 09 2013  02 17  -21.0069 26031.4 -03490.6 -07.6374 26264.4
 30 09 2013  02 18  -21.0071 26031.3 -03490.6 -07.6373 26264.3
 30 09 2013  02 19  -21.0073 26031.3 -03490.6 -07.6373 26264.2
 30 09 2013  02 20  -21.0074 26031.2 -03490.5 -07.6373 26264.2
 30 09 2013  02 21  -21.0075 26031.0 -03490.5 -07.6372 26264.0
 30 09 2013  02 22  -21.0076 26030.9 -03490.4 -07.6371 26263.9
 30 09 2013  02 23  -21.0077 26030.8 -03490.4 -07.6371 26263.8
 30 09 2013  02 24  -21.0077 26030.7 -03490.4 -07.6370 26263.7
 30 09 2013  02 25  -21.0077 26030.5 -03490.3 -07.6370 26263.5
 30 09 2013  02 26  -21.0075 26030.4 -03490.3 -07.6369 26263.4
 30 09 2013  02 27  -21.0073 26030.3 -03490.2 -07.6369 26263.3
 30 09 2013  02 28  -21.0072 26030.3 -03490.2 -07.6369 26263.3
 30 09 2013  02 29  -21.0075 26030.1 -03490.2 -07.6368 26263.0
 30 09 2013  02 30  -21.0076 26030.3 -03490.3 -07.6370 26263.3
 30 09 2013  02 31  -21.0077 26029.9 -03490.2 -07.6369 26262.9
 30 09 2013  02 32  -21.0077 26030.0 -03490.2 -07.6369 26263.0
 30 09 2013  02 33  -21.0079 26029.9 -03490.2 -07.6368 26262.8
 30 09 2013  02 34  -21.0078 26030.3 -03490.4 -07.6372 26263.3
 30 09 2013  02 35  -21.0080 26030.2 -03490.4 -07.6372 26263.1
 30 09 2013  02 36  -21.0079 26030.3 -03490.4 -07.6372 26263.2
 30 09 2013  02 37  -21.0076 26030.2 -03490.4 -07.6372 26263.2
 30 09 2013  02 38  -21.0073 26030.4 -03490.4 -07.6372 26263.4
 30 09 2013  02 39  -21.0070 26030.4 -03490.5 -07.6373 26263.4
 30 09 2013  02 40  -21.0070 26030.4 -03490.5 -07.6373 26263.4
 30 09 2013  02 41  -21.0068 26030.8 -03490.7 -07.6377 26263.8
 30 09 2013  02 42  -21.0065 26031.2 -03490.9 -07.6380 26264.3
 30 09 2013  02 43  -21.0063 26031.5 -03491.0 -07.6383 26264.6
 30 09 2013  02 44  -21.0059 26031.7 -03491.1 -07.6383 26264.7
 30 09 2013  02 45  -21.0056 26031.7 -03491.0 -07.6382 26264.7
 30 09 2013  02 46  -21.0053 26031.6 -03491.0 -07.6381 26264.6
 30 09 2013  02 47  -21.0050 26031.7 -03491.0 -07.6381 26264.7
 30 09 2013  02 48  -21.0048 26031.6 -03491.0 -07.6380 26264.6
 30 09 2013  02 49  -21.0047 26031.6 -03491.0 -07.6381 26264.6
 30 09 2013  02 50  -21.0046 26031.6 -03491.0 -07.6381 26264.6
 30 09 2013  02 51  -21.0047 26031.7 -03491.0 -07.6382 26264.8
 30 09 2013  02 52  -21.0048 26031.8 -03491.2 -07.6385 26264.9
 30 09 2013  02 53  -21.0049 26032.0 -03491.2 -07.6385 26265.1
 30 09 2013  02 54  -21.0051 26032.0 -03491.3 -07.6386 26265.1
 30 09 2013  02 55  -21.0053 26032.1 -03491.3 -07.6386 26265.1
 30 09 2013  02 56  -21.0056 26032.1 -03491.3 -07.6387 26265.2
 30 09 2013  02 57  -21.0058 26032.0 -03491.3 -07.6386 26265.0
 30 09 2013  02 58  -21.0059 26031.9 -03491.2 -07.6386 26265.0
 30 09 2013  02 59  -21.0061 26031.6 -03491.1 -07.6382 26264.7
 30 09 2013  03 00  -21.0065 26031.5 -03491.0 -07.6382 26264.6
 30 09 2013  03 01  -21.0070 26031.3 -03490.9 -07.6381 26264.4
 30 09 2013  03 02  -21.0073 26031.2 -03490.9 -07.6380 26264.2
 30 09 2013  03 03  -21.0074 26030.8 -03490.7 -07.6376 26263.8
 30 09 2013  03 04  -21.0073 26030.9 -03490.7 -07.6376 26263.9
 30 09 2013  03 05  -21.0073 26030.9 -03490.7 -07.6377 26263.9
 30 09 2013  03 06  -21.0072 26031.2 -03490.9 -07.6380 26264.2
 30 09 2013  03 07  -21.0072 26031.3 -03490.9 -07.6381 26264.3
 30 09 2013  03 08  -21.0072 26031.5 -03491.0 -07.6382 26264.5
 30 09 2013  03 09  -21.0071 26031.7 -03491.1 -07.6384 26264.8
 30 09 2013  03 10  -21.0069 26031.9 -03491.2 -07.6386 26265.0
 30 09 2013  03 11  -21.0067 26032.1 -03491.3 -07.6387 26265.2
 30 09 2013  03 12  -21.0066 26032.3 -03491.4 -07.6388 26265.4
 30 09 2013  03 13  -21.0064 26032.4 -03491.4 -07.6388 26265.5
 30 09 2013  03 14  -21.0062 26032.5 -03491.4 -07.6388 26265.6
 30 09 2013  03 15  -21.0060 26032.5 -03491.4 -07.6388 26265.6
 30 09 2013  03 16  -21.0059 26032.4 -03491.3 -07.6386 26265.5
 30 09 2013  03 17  -21.0057 26032.4 -03491.3 -07.6386 26265.5
 30 09 2013  03 18  -21.0057 26032.3 -03491.2 -07.6385 26265.4
 30 09 2013  03 19  -21.0057 26032.1 -03491.2 -07.6384 26265.2
 30 09 2013  03 20  -21.0058 26031.8 -03491.0 -07.6381 26264.8
 30 09 2013  03 21  -21.0060 26031.5 -03490.9 -07.6379 26264.5
 30 09 2013  03 22  -21.0062 26030.9 -03490.6 -07.6374 26263.9
 30 09 2013  03 23  -21.0064 26030.4 -03490.4 -07.6371 26263.4
 30 09 2013  03 24  -21.0067 26030.1 -03490.2 -07.6368 26263.0
 30 09 2013  03 25  -21.0072 26029.9 -03490.1 -07.6368 26262.8
 30 09 2013  03 26  -21.0074 26029.9 -03490.2 -07.6369 26262.8
 30 09 2013  03 27  -21.0075 26029.9 -03490.3 -07.6371 26262.8
 30 09 2013  03 28  -21.0073 26030.0 -03490.3 -07.6372 26263.0
 30 09 2013  03 29  -21.0073 26030.1 -03490.5 -07.6374 26263.1
 30 09 2013  03 30  -21.0071 26030.3 -03490.6 -07.6376 26263.3
 30 09 2013  03 31  -21.0069 26030.7 -03490.8 -07.6379 26263.7
 30 09 2013  03 32  -21.0068 26030.9 -03490.9 -07.6381 26264.0
 30 09 2013  03 33  -21.0067 26031.3 -03491.1 -07.6384 26264.3
 30 09 2013  03 34  -21.0067 26031.5 -03491.2 -07.6386 26264.6
 30 09 2013  03 35  -21.0068 26031.7 -03491.3 -07.6388 26264.8
 30 09 2013  03 36  -21.0069 26031.9 -03491.4 -07.6389 26265.0
 30 09 2013  03 37  -21.0070 26032.2 -03491.6 -07.6392 26265.3
 30 09 2013  03 38  -21.0071 26032.4 -03491.6 -07.6392 26265.5
 30 09 2013  03 39  -21.0072 26032.5 -03491.6 -07.6392 26265.6
 30 09 2013  03 40  -21.0072 26032.7 -03491.6 -07.6392 26265.8
 30 09 2013  03 41  -21.0071 26032.8 -03491.6 -07.6392 26265.9
 30 09 2013  03 42  -21.0071 26032.8 -03491.6 -07.6391 26266.0
 30 09 2013  03 43  -21.0069 26032.9 -03491.6 -07.6390 26266.0
 30 09 2013  03 44  -21.0066 26032.8 -03491.5 -07.6389 26265.9
 30 09 2013  03 45  -21.0063 26032.8 -03491.5 -07.6389 26265.9
 30 09 2013  03 46  -21.0060 26032.9 -03491.5 -07.6388 26266.0
 30 09 2013  03 47  -21.0057 26032.9 -03491.5 -07.6388 26266.0
 30 09 2013  03 48  -21.0056 26032.9 -03491.5 -07.6388 26266.0
 30 09 2013  03 49  -21.0055 26033.0 -03491.5 -07.6389 26266.1
 30 09 2013  03 50  -21.0054 26033.1 -03491.6 -07.6390 26266.2
 30 09 2013  03 51  -21.0053 26033.2 -03491.6 -07.6390 26266.3
 30 09 2013  03 52  -21.0054 26033.2 -03491.6 -07.6391 26266.3
 30 09 2013  03 53  -21.0053 26033.2 -03491.6 -07.6391 26266.3
 30 09 2013  03 54  -21.0052 26033.3 -03491.7 -07.6391 26266.4
 30 09 2013  03 55  -21.0050 26033.4 -03491.7 -07.6391 26266.5
 30 09 2013  03 56  -21.0048 26033.3 -03491.7 -07.6391 26266.5
 30 09 2013  03 57  -21.0047 26033.4 -03491.7 -07.6391 26266.5
 30 09 2013  03 58  -21.0047 26033.5 -03491.7 -07.6392 26266.6
 30 09 2013  03 59  -21.0049 26033.5 -03491.8 -07.6393 26266.6
 30 09 2013  04 00  -21.0049 26033.5 -03491.8 -07.6392 26266.7
 30 09 2013  04 01  -21.0048 26033.7 -03491.8 -07.6393 26266.8
 30 09 2013  04 02  -21.0048 26033.7 -03491.8 -07.6393 26266.8
 30 09 2013  04 03  -21.0046 26033.7 -03491.8 -07.6393 26266.8
 30 09 2013  04 04  -21.0044 26033.7 -03491.8 -07.6393 26266.9
 30 09 2013  04 05  -21.0044 26033.6 -03491.8 -07.6392 26266.8
 30 09 2013  04 06  -21.0042 26033.6 -03491.8 -07.6392 26266.7
 30 09 2013  04 07  -21.0041 26033.5 -03491.7 -07.6392 26266.6
 30 09 2013  04 08  -21.0040 26033.5 -03491.7 -07.6391 26266.6
 30 09 2013  04 09  -21.0040 26033.5 -03491.7 -07.6392 26266.6
 30 09 2013  04 10  -21.0040 26033.5 -03491.8 -07.6393 26266.6
 30 09 2013  04 11  -21.0040 26033.5 -03491.8 -07.6393 26266.7
 30 09 2013  04 12  -21.0039 26033.6 -03491.9 -07.6394 26266.7
 30 09 2013  04 13  -21.0038 26033.6 -03491.9 -07.6395 26266.8
 30 09 2013  04 14  -21.0037 26033.7 -03491.9 -07.6396 26266.9
 30 09 2013  04 15  -21.0035 26033.8 -03492.0 -07.6397 26266.9
 30 09 2013  04 16  -21.0033 26033.8 -03492.1 -07.6398 26266.9
 30 09 2013  04 17  -21.0032 26033.7 -03492.1 -07.6398 26266.9
 30 09 2013  04 18  -21.0031 26033.8 -03492.1 -07.6398 26266.9
 30 09 2013  04 19  -21.0030 26033.7 -03492.1 -07.6399 26266.9
 30 09 2013  04 20  -21.0029 26033.6 -03492.1 -07.6399 26266.8
 30 09 2013  04 21  -21.0027 26033.5 -03492.1 -07.6399 26266.7
 30 09 2013  04 22  -21.0027 26033.4 -03492.0 -07.6399 26266.6
 30 09 2013  04 23  -21.0026 26033.3 -03492.0 -07.6399 26266.4
 30 09 2013  04 24  -21.0026 26033.3 -03492.0 -07.6399 26266.4
 30 09 2013  04 25  -21.0026 26033.2 -03492.1 -07.6400 26266.4
 30 09 2013  04 26  -21.0025 26033.1 -03492.1 -07.6400 26266.3
 30 09 2013  04 27  -21.0026 26033.1 -03492.1 -07.6401 26266.2
 30 09 2013  04 28  -21.0025 26033.1 -03492.2 -07.6402 26266.3
 30 09 2013  04 29  -21.0025 26033.1 -03492.3 -07.6404 26266.3
 30 09 2013  04 30  -21.0027 26033.1 -03492.3 -07.6405 26266.3
 30 09 2013  04 31  -21.0028 26033.0 -03492.3 -07.6406 26266.2
 30 09 2013  04 32  -21.0028 26033.1 -03492.4 -07.6407 26266.3
 30 09 2013  04 33  -21.0029 26033.1 -03492.5 -07.6409 26266.3
 30 09 2013  04 34  -21.0029 26033.2 -03492.5 -07.6410 26266.4
 30 09 2013  04 35  -21.0030 26033.2 -03492.6 -07.6411 26266.4
 30 09 2013  04 36  -21.0030 26033.3 -03492.6 -07.6412 26266.5
 30 09 2013  04 37  -21.0031 26033.3 -03492.7 -07.6412 26266.5
 30 09 2013  04 38  -21.0031 26033.3 -03492.7 -07.6413 26266.6
 30 09 2013  04 39  -21.0033 26033.4 -03492.8 -07.6414 26266.6
 30 09 2013  04 40  -21.0032 26033.3 -03492.7 -07.6414 26266.6
 30 09 2013  04 41  -21.0032 26033.2 -03492.7 -07.6413 26266.5
 30 09 2013  04 42  -21.0034 26033.2 -03492.7 -07.6414 26266.4
 30 09 2013  04 43  -21.0035 26033.0 -03492.7 -07.6413 26266.3
 30 09 2013  04 44  -21.0038 26033.0 -03492.7 -07.6413 26266.3
 30 09 2013  04 45  -21.0038 26032.9 -03492.6 -07.6413 26266.2
 30 09 2013  04 46  -21.0038 26032.9 -03492.6 -07.6412 26266.1
 30 09 2013  04 47  -21.0037 26032.9 -03492.6 -07.6411 26266.1
 30 09 2013  04 48  -21.0035 26032.8 -03492.6 -07.6411 26266.1
 30 09 2013  04 49  -21.0035 26032.8 -03492.6 -07.6412 26266.0
 30 09 2013  04 50  -21.0034 26032.8 -03492.6 -07.6412 26266.0
 30 09 2013  04 51  -21.0034 26032.7 -03492.5 -07.6411 26265.9
 30 09 2013  04 52  -21.0035 26032.6 -03492.5 -07.6411 26265.8
 30 09 2013  04 53  -21.0034 26032.5 -03492.4 -07.6410 26265.7
 30 09 2013  04 54  -21.0036 26032.4 -03492.4 -07.6410 26265.6
 30 09 2013  04 55  -21.0037 26032.3 -03492.4 -07.6410 26265.6
 30 09 2013  04 56  -21.0039 26032.3 -03492.4 -07.6411 26265.6
 30 09 2013  04 57  -21.0041 26032.3 -03492.4 -07.6410 26265.6
 30 09 2013  04 58  -21.0041 26032.3 -03492.4 -07.6410 26265.5
 30 09 2013  04 59  -21.0043 26032.3 -03492.4 -07.6410 26265.5
 30 09 2013  05 00  -21.0045 26032.4 -03492.5 -07.6411 26265.6
 30 09 2013  05 01  -21.0047 26032.3 -03492.5 -07.6411 26265.5
 30 09 2013  05 02  -21.0050 26032.4 -03492.5 -07.6412 26265.6
 30 09 2013  05 03  -21.0052 26032.5 -03492.5 -07.6412 26265.7
 30 09 2013  05 04  -21.0053 26032.5 -03492.5 -07.6412 26265.7
 30 09 2013  05 05  -21.0053 26032.6 -03492.5 -07.6412 26265.8
 30 09 2013  05 06  -21.0054 26032.7 -03492.6 -07.6413 26265.9
 30 09 2013  05 07  -21.0056 26032.7 -03492.6 -07.6413 26266.0
 30 09 2013  05 08  -21.0057 26032.8 -03492.6 -07.6412 26266.1
 30 09 2013  05 09  -21.0059 26032.9 -03492.7 -07.6413 26266.2
 30 09 2013  05 10  -21.0060 26033.1 -03492.7 -07.6414 26266.3
 30 09 2013  05 11  -21.0061 26033.1 -03492.7 -07.6414 26266.4
 30 09 2013  05 12  -21.0061 26033.1 -03492.6 -07.6412 26266.3
 30 09 2013  05 13  -21.0062 26032.9 -03492.5 -07.6410 26266.1
 30 09 2013  05 14  -21.0064 26032.8 -03492.4 -07.6408 26266.0
 30 09 2013  05 15  -21.0067 26032.8 -03492.3 -07.6407 26266.0
 30 09 2013  05 16  -21.0071 26032.6 -03492.3 -07.6406 26265.8
 30 09 2013  05 17  -21.0073 26032.7 -03492.2 -07.6405 26265.9
 30 09 2013  05 18  -21.0076 26032.7 -03492.2 -07.6404 26265.9
 30 09 2013  05 19  -21.0078 26032.7 -03492.2 -07.6404 26265.9
 30 09 2013  05 20  -21.0079 26032.7 -03492.2 -07.6403 26265.9
 30 09 2013  05 21  -21.0081 26032.8 -03492.2 -07.6403 26266.0
 30 09 2013  05 22  -21.0083 26032.8 -03492.1 -07.6403 26266.0
 30 09 2013  05 23  -21.0085 26032.9 -03492.1 -07.6402 26266.1
 30 09 2013  05 24  -21.0085 26033.0 -03492.2 -07.6402 26266.2
 30 09 2013  05 25  -21.0084 26033.0 -03492.1 -07.6402 26266.2
 30 09 2013  05 26  -21.0083 26033.0 -03492.1 -07.6401 26266.1
 30 09 2013  05 27  -21.0083 26032.9 -03492.0 -07.6399 26266.0
 30 09 2013  05 28  -21.0082 26032.8 -03491.9 -07.6398 26266.0
 30 09 2013  05 29  -21.0082 26032.9 -03492.0 -07.6398 26266.1
 30 09 2013  05 30  -21.0082 26033.0 -03492.0 -07.6398 26266.1
 30 09 2013  05 31  -21.0082 26033.1 -03492.0 -07.6399 26266.3
 30 09 2013  05 32  -21.0083 26033.3 -03492.1 -07.6400 26266.4
 30 09 2013  05 33  -21.0083 26033.4 -03492.1 -07.6401 26266.5
 30 09 2013  05 34  -21.0082 26033.5 -03492.1 -07.6401 26266.7
 30 09 2013  05 35  -21.0080 26033.5 -03492.1 -07.6400 26266.6
 30 09 2013  05 36  -21.0079 26033.4 -03492.1 -07.6399 26266.6
 30 09 2013  05 37  -21.0080 26033.3 -03492.0 -07.6398 26266.5
 30 09 2013  05 38  -21.0078 26033.4 -03492.0 -07.6398 26266.6
 30 09 2013  05 39  -21.0077 26033.4 -03492.0 -07.6397 26266.5
 30 09 2013  05 40  -21.0076 26033.3 -03491.9 -07.6396 26266.5
 30 09 2013  05 41  -21.0074 26033.4 -03491.9 -07.6397 26266.5
 30 09 2013  05 42  -21.0074 26033.4 -03492.0 -07.6397 26266.6
 30 09 2013  05 43  -21.0073 26033.4 -03492.0 -07.6397 26266.6
 30 09 2013  05 44  -21.0071 26033.4 -03491.9 -07.6397 26266.5
 30 09 2013  05 45  -21.0072 26033.1 -03491.8 -07.6395 26266.3
 30 09 2013  05 46  -21.0072 26033.0 -03491.8 -07.6394 26266.2
 30 09 2013  05 47  -21.0074 26033.0 -03491.8 -07.6394 26266.1
 30 09 2013  05 48  -21.0075 26033.0 -03491.8 -07.6394 26266.1
 30 09 2013  05 49  -21.0075 26032.9 -03491.7 -07.6393 26266.0
 30 09 2013  05 50  -21.0075 26032.9 -03491.7 -07.6393 26266.0
 30 09 2013  05 51  -21.0075 26032.9 -03491.7 -07.6392 26266.0
 30 09 2013  05 52  -21.0073 26032.9 -03491.7 -07.6392 26266.0
 30 09 2013  05 53  -21.0072 26032.9 -03491.7 -07.6392 26266.1
 30 09 2013  05 54  -21.0071 26033.1 -03491.8 -07.6394 26266.2
 30 09 2013  05 55  -21.0068 26033.3 -03491.9 -07.6395 26266.4
 30 09 2013  05 56  -21.0065 26033.5 -03492.0 -07.6397 26266.6
 30 09 2013  05 57  -21.0064 26033.6 -03492.0 -07.6397 26266.7
 30 09 2013  05 58  -21.0062 26033.6 -03492.0 -07.6398 26266.8
 30 09 2013  05 59  -21.0060 26033.7 -03492.1 -07.6398 26266.9
 30 09 2013  06 00  -21.0060 26033.9 -03492.2 -07.6400 26267.0
 30 09 2013  06 01  -21.0060 26034.0 -03492.3 -07.6401 26267.2
 30 09 2013  06 02  -21.0062 26034.1 -03492.3 -07.6402 26267.3
 30 09 2013  06 03  -21.0062 26034.3 -03492.3 -07.6403 26267.5
 30 09 2013  06 04  -21.0061 26034.4 -03492.4 -07.6403 26267.5
 30 09 2013  06 05  -21.0059 26034.4 -03492.4 -07.6403 26267.6
 30 09 2013  06 06  -21.0057 26034.4 -03492.3 -07.6402 26267.6
 30 09 2013  06 07  -21.0056 26034.4 -03492.3 -07.6401 26267.6
 30 09 2013  06 08  -21.0054 26034.4 -03492.3 -07.6401 26267.6
 30 09 2013  06 09  -21.0052 26034.6 -03492.3 -07.6401 26267.7
 30 09 2013  06 10  -21.0051 26034.7 -03492.4 -07.6402 26267.9
 30 09 2013  06 11  -21.0051 26034.7 -03492.4 -07.6402 26267.9
 30 09 2013  06 12  -21.0051 26034.8 -03492.4 -07.6403 26268.0
 30 09 2013  06 13  -21.0050 26034.9 -03492.5 -07.6403 26268.1
 30 09 2013  06 14  -21.0048 26034.8 -03492.4 -07.6403 26268.0
 30 09 2013  06 15  -21.0046 26034.8 -03492.4 -07.6402 26268.0
 30 09 2013  06 16  -21.0044 26034.8 -03492.4 -07.6402 26268.0
 30 09 2013  06 17  -21.0042 26034.7 -03492.3 -07.6401 26267.9
 30 09 2013  06 18  -21.0041 26034.6 -03492.3 -07.6401 26267.8
 30 09 2013  06 19  -21.0041 26034.4 -03492.2 -07.6399 26267.6
 30 09 2013  06 20  -21.0043 26034.3 -03492.2 -07.6398 26267.5
 30 09 2013  06 21  -21.0043 26034.3 -03492.2 -07.6399 26267.4
 30 09 2013  06 22  -21.0044 26034.2 -03492.1 -07.6398 26267.3
 30 09 2013  06 23  -21.0046 26034.1 -03492.1 -07.6398 26267.2
 30 09 2013  06 24  -21.0046 26034.0 -03492.0 -07.6397 26267.2
 30 09 2013  06 25  -21.0044 26033.9 -03492.0 -07.6396 26267.0
 30 09 2013  06 26  -21.0044 26033.8 -03492.0 -07.6396 26267.0
 30 09 2013  06 27  -21.0044 26033.8 -03492.0 -07.6396 26266.9
 30 09 2013  06 28  -21.0044 26033.8 -03492.0 -07.6396 26266.9
 30 09 2013  06 29  -21.0042 26033.7 -03492.0 -07.6397 26266.9
 30 09 2013  06 30  -21.0041 26033.8 -03492.1 -07.6398 26267.0
 30 09 2013  06 31  -21.0040 26033.9 -03492.1 -07.6399 26267.1
 30 09 2013  06 32  -21.0039 26034.0 -03492.2 -07.6400 26267.2
 30 09 2013  06 33  -21.0038 26034.2 -03492.3 -07.6402 26267.4
 30 09 2013  06 34  -21.0036 26034.3 -03492.3 -07.6402 26267.5
 30 09 2013  06 35  -21.0034 26034.4 -03492.4 -07.6403 26267.6
 30 09 2013  06 36  -21.0030 26034.5 -03492.4 -07.6404 26267.7
 30 09 2013  06 37  -21.0029 26034.5 -03492.4 -07.6404 26267.7
 30 09 2013  06 38  -21.0026 26034.5 -03492.5 -07.6405 26267.7
 30 09 2013  06 39  -21.0023 26034.4 -03492.5 -07.6405 26267.6
 30 09 2013  06 40  -21.0021 26034.3 -03492.4 -07.6403 26267.5
 30 09 2013  06 41  -21.0019 26034.4 -03492.4 -07.6404 26267.6
 30 09 2013  06 42  -21.0016 26034.4 -03492.5 -07.6405 26267.6
 30 09 2013  06 43  -21.0016 26034.4 -03492.5 -07.6405 26267.6
 30 09 2013  06 44  -21.0014 26034.3 -03492.5 -07.6405 26267.5
 30 09 2013  06 45  -21.0011 26034.2 -03492.4 -07.6404 26267.4
 30 09 2013  06 46  -21.0009 26034.1 -03492.4 -07.6404 26267.3
 30 09 2013  06 47  -21.0008 26034.0 -03492.4 -07.6404 26267.2
 30 09 2013  06 48  -21.0007 26034.1 -03492.4 -07.6405 26267.3
 30 09 2013  06 49  -21.0005 26034.2 -03492.5 -07.6406 26267.4
 30 09 2013  06 50  -21.0003 26034.2 -03492.5 -07.6407 26267.4
 30 09 2013  06 51  -21.0000 26034.3 -03492.6 -07.6408 26267.5
 30 09 2013  06 52  -20.9999 26034.4 -03492.7 -07.6409 26267.6
 30 09 2013  06 53  -20.9997 26034.5 -03492.7 -07.6410 26267.7
 30 09 2013  06 54  -20.9996 26034.5 -03492.8 -07.6411 26267.8
 30 09 2013  06 55  -20.9994 26034.6 -03492.8 -07.6412 26267.8
 30 09 2013  06 56  -20.9992 26034.6 -03492.8 -07.6412 26267.8
 30 09 2013  06 57  -20.9991 26034.6 -03492.9 -07.6413 26267.9
 30 09 2013  06 58  -20.9989 26034.6 -03492.9 -07.6414 26267.9
 30 09 2013  06 59  -20.9989 26034.5 -03492.9 -07.6413 26267.8
 30 09 2013  07 00  -20.9987 26034.6 -03492.9 -07.6414 26267.8
 30 09 2013  07 01  -20.9986 26034.6 -03492.9 -07.6414 26267.9
 30 09 2013  07 02  -20.9985 26034.6 -03492.9 -07.6414 26267.8
 30 09 2013  07 03  -20.9985 26034.5 -03492.9 -07.6414 26267.7
 30 09 2013  07 04  -20.9983 26034.4 -03492.9 -07.6414 26267.7
 30 09 2013  07 05  -20.9982 26034.4 -03492.9 -07.6414 26267.6
 30 09 2013  07 06  -20.9982 26034.3 -03492.9 -07.6414 26267.6
 30 09 2013  07 07  -20.9981 26034.3 -03492.9 -07.6415 26267.5
 30 09 2013  07 08  -20.9981 26034.2 -03492.9 -07.6414 26267.5
 30 09 2013  07 09  -20.9979 26034.3 -03492.9 -07.6415 26267.5
 30 09 2013  07 10  -20.9978 26034.3 -03493.0 -07.6416 26267.6
 30 09 2013  07 11  -20.9976 26034.4 -03493.0 -07.6417 26267.7
 30 09 2013  07 12  -20.9974 26034.5 -03493.1 -07.6418 26267.8
 30 09 2013  07 13  -20.9971 26034.5 -03493.2 -07.6419 26267.8
 30 09 2013  07 14  -20.9968 26034.6 -03493.2 -07.6420 26267.9
 30 09 2013  07 15  -20.9966 26034.6 -03493.3 -07.6422 26267.9
 30 09 2013  07 16  -20.9963 26034.6 -03493.3 -07.6422 26267.9
 30 09 2013  07 17  -20.9960 26034.7 -03493.3 -07.6423 26268.0
 30 09 2013  07 18  -20.9958 26034.7 -03493.4 -07.6424 26268.0
 30 09 2013  07 19  -20.9956 26034.7 -03493.4 -07.6424 26268.0
 30 09 2013  07 20  -20.9954 26034.7 -03493.5 -07.6425 26268.1
 30 09 2013  07 21  -20.9952 26034.8 -03493.5 -07.6427 26268.1
 30 09 2013  07 22  -20.9949 26034.8 -03493.6 -07.6427 26268.2
 30 09 2013  07 23  -20.9948 26034.9 -03493.6 -07.6428 26268.2
 30 09 2013  07 24  -20.9947 26034.8 -03493.6 -07.6427 26268.2
 30 09 2013  07 25  -20.9946 26034.7 -03493.5 -07.6427 26268.0
 30 09 2013  07 26  -20.9944 26034.5 -03493.5 -07.6426 26267.9
 30 09 2013  07 27  -20.9942 26034.4 -03493.4 -07.6426 26267.7
 30 09 2013  07 28  -20.9941 26034.4 -03493.5 -07.6427 26267.7
 30 09 2013  07 29  -20.9940 26034.4 -03493.5 -07.6428 26267.7
 30 09 2013  07 30  -20.9939 26034.4 -03493.6 -07.6429 26267.7
 30 09 2013  07 31  -20.9937 26034.3 -03493.6 -07.6430 26267.7
 30 09 2013  07 32  -20.9937 26034.3 -03493.6 -07.6430 26267.7
 30 09 2013  07 33  -20.9936 26034.3 -03493.6 -07.6430 26267.6
 30 09 2013  07 34  -20.9936 26034.3 -03493.7 -07.6432 26267.7
 30 09 2013  07 35  -20.9936 26034.3 -03493.7 -07.6433 26267.7
 30 09 2013  07 36  -20.9935 26034.4 -03493.8 -07.6433 26267.8
 30 09 2013  07 37  -20.9934 26034.4 -03493.8 -07.6433 26267.8
 30 09 2013  07 38  -20.9933 26034.4 -03493.8 -07.6434 26267.7
 30 09 2013  07 39  -20.9932 26034.3 -03493.8 -07.6434 26267.7
 30 09 2013  07 40  -20.9931 26034.3 -03493.8 -07.6435 26267.7
 30 09 2013  07 41  -20.9930 26034.3 -03493.8 -07.6435 26267.7
 30 09 2013  07 42  -20.9930 26034.2 -03493.8 -07.6435 26267.6
 30 09 2013  07 43  -20.9927 26034.3 -03493.9 -07.6436 26267.7
 30 09 2013  07 44  -20.9926 26034.3 -03493.9 -07.6436 26267.7
 30 09 2013  07 45  -20.9926 26034.3 -03493.9 -07.6436 26267.7
 30 09 2013  07 46  -20.9924 26034.3 -03493.9 -07.6436 26267.7
 30 09 2013  07 47  -20.9923 26034.2 -03493.9 -07.6436 26267.6
 30 09 2013  07 48  -20.9923 26034.2 -03493.9 -07.6437 26267.6
 30 09 2013  07 49  -20.9923 26034.2 -03493.9 -07.6437 26267.6
 30 09 2013  07 50  -20.9921 26034.2 -03493.9 -07.6437 26267.6
 30 09 2013  07 51  -20.9919 26034.1 -03493.9 -07.6436 26267.5
 30 09 2013  07 52  -20.9918 26034.1 -03493.9 -07.6436 26267.5
 30 09 2013  07 53  -20.9917 26034.2 -03493.9 -07.6437 26267.6
 30 09 2013  07 54  -20.9917 26034.1 -03493.9 -07.6437 26267.6
 30 09 2013  07 55  -20.9917 26034.0 -03493.9 -07.6437 26267.4
 30 09 2013  07 56  -20.9917 26034.0 -03493.9 -07.6436 26267.4
 30 09 2013  07 57  -20.9916 26034.0 -03493.9 -07.6437 26267.4
 30 09 2013  07 58  -20.9915 26034.1 -03493.9 -07.6437 26267.5
 30 09 2013  07 59  -20.9914 26034.1 -03493.9 -07.6437 26267.5
 30 09 2013  08 00  -20.9913 26034.0 -03493.9 -07.6437 26267.4
 30 09 2013  08 01  -20.9912 26034.1 -03493.9 -07.6437 26267.5
 30 09 2013  08 02  -20.9912 26034.1 -03493.9 -07.6437 26267.5
 30 09 2013  08 03  -20.9912 26034.1 -03493.9 -07.6437 26267.5
 30 09 2013  08 04  -20.9913 26034.1 -03493.9 -07.6436 26267.5
 30 09 2013  08 05  -20.9913 26034.0 -03493.9 -07.6437 26267.4
 30 09 2013  08 06  -20.9912 26034.0 -03493.9 -07.6436 26267.4
 30 09 2013  08 07  -20.9911 26034.1 -03493.9 -07.6437 26267.5
 30 09 2013  08 08  -20.9910 26034.3 -03494.0 -07.6438 26267.7
 30 09 2013  08 09  -20.9906 26034.6 -03494.1 -07.6440 26268.0
 30 09 2013  08 10  -20.9903 26034.9 -03494.2 -07.6442 26268.3
 30 09 2013  08 11  -20.9900 26035.1 -03494.3 -07.6443 26268.5
 30 09 2013  08 12  -20.9897 26035.3 -03494.4 -07.6444 26268.8
 30 09 2013  08 13  -20.9894 26035.5 -03494.5 -07.6445 26269.0
 30 09 2013  08 14  -20.9889 26035.7 -03494.5 -07.6446 26269.1
 30 09 2013  08 15  -20.9886 26035.8 -03494.5 -07.6446 26269.2
 30 09 2013  08 16  -20.9884 26035.9 -03494.6 -07.6447 26269.4
 30 09 2013  08 17  -20.9880 26035.9 -03494.6 -07.6446 26269.4
 30 09 2013  08 18  -20.9877 26036.0 -03494.6 -07.6446 26269.4
 30 09 2013  08 19  -20.9875 26036.0 -03494.6 -07.6445 26269.5
 30 09 2013  08 20  -20.9872 26036.0 -03494.5 -07.6443 26269.4
 30 09 2013  08 21  -20.9870 26035.9 -03494.5 -07.6445 26269.4
 30 09 2013  08 22  -20.9869 26035.9 -03494.5 -07.6445 26269.3
 30 09 2013  08 23  -20.9868 26035.9 -03494.5 -07.6444 26269.4
 30 09 2013  08 24  -20.9867 26035.9 -03494.5 -07.6444 26269.4
 30 09 2013  08 25  -20.9866 26035.9 -03494.4 -07.6443 26269.4
 30 09 2013  08 26  -20.9864 26035.9 -03494.4 -07.6443 26269.4
 30 09 2013  08 27  -20.9864 26036.0 -03494.4 -07.6443 26269.4
 30 09 2013  08 28  -20.9863 26036.0 -03494.4 -07.6442 26269.4
 30 09 2013  08 29  -20.9861 26036.0 -03494.4 -07.6441 26269.4
 30 09 2013  08 30  -20.9859 26035.9 -03494.3 -07.6440 26269.4
 30 09 2013  08 31  -20.9857 26036.0 -03494.3 -07.6440 26269.4
 30 09 2013  08 32  -20.9853 26036.0 -03494.3 -07.6440 26269.4
 30 09 2013  08 33  -20.9850 26036.0 -03494.3 -07.6440 26269.4
 30 09 2013  08 34  -20.9848 26036.0 -03494.3 -07.6440 26269.4
 30 09 2013  08 35  -20.9845 26036.0 -03494.3 -07.6441 26269.4
 30 09 2013  08 36  -20.9843 26035.9 -03494.3 -07.6441 26269.4
 30 09 2013  08 37  -20.9841 26035.9 -03494.3 -07.6441 26269.3
 30 09 2013  08 38  -20.9838 26035.8 -03494.4 -07.6442 26269.3
 30 09 2013  08 39  -20.9835 26035.9 -03494.5 -07.6444 26269.3
 30 09 2013  08 40  -20.9833 26035.9 -03494.6 -07.6446 26269.4
 30 09 2013  08 41  -20.9833 26035.9 -03494.7 -07.6448 26269.4
 30 09 2013  08 42  -20.9833 26036.0 -03494.8 -07.6451 26269.5
 30 09 2013  08 43  -20.9833 26036.1 -03494.9 -07.6453 26269.6
 30 09 2013  08 44  -20.9834 26036.0 -03495.0 -07.6455 26269.5
 30 09 2013  08 45  -20.9836 26035.8 -03494.9 -07.6454 26269.3
 30 09 2013  08 46  -20.9839 26035.5 -03494.9 -07.6454 26269.0
 30 09 2013  08 47  -20.9842 26035.1 -03494.8 -07.6453 26268.6
 30 09 2013  08 48  -20.9843 26034.8 -03494.7 -07.6452 26268.3
 30 09 2013  08 49  -20.9843 26034.6 -03494.7 -07.6452 26268.1
 30 09 2013  08 50  -20.9844 26034.5 -03494.7 -07.6454 26268.0
 30 09 2013  08 51  -20.9843 26034.4 -03494.8 -07.6455 26267.9
 30 09 2013  08 52  -20.9844 26034.3 -03494.8 -07.6456 26267.8
 30 09 2013  08 53  -20.9844 26034.3 -03494.9 -07.6457 26267.8
 30 09 2013  08 54  -20.9843 26034.3 -03494.9 -07.6458 26267.9
 30 09 2013  08 55  -20.9845 26034.3 -03495.0 -07.6460 26267.9
 30 09 2013  08 56  -20.9845 26034.4 -03495.0 -07.6461 26267.9
 30 09 2013  08 57  -20.9848 26034.4 -03495.1 -07.6463 26268.0
 30 09 2013  08 58  -20.9850 26034.5 -03495.2 -07.6464 26268.0
 30 09 2013  08 59  -20.9853 26034.5 -03495.3 -07.6465 26268.0
 30 09 2013  09 00  -20.9854 26034.5 -03495.3 -07.6467 26268.1
 30 09 2013  09 01  -20.9856 26034.6 -03495.4 -07.6467 26268.2
 30 09 2013  09 02  -20.9857 26034.7 -03495.5 -07.6469 26268.3
 30 09 2013  09 03  -20.9858 26034.7 -03495.5 -07.6470 26268.4
 30 09 2013  09 04  -20.9863 26034.8 -03495.6 -07.6471 26268.4
 30 09 2013  09 05  -20.9867 26034.9 -03495.7 -07.6473 26268.5
 30 09 2013  09 06  -20.9869 26034.9 -03495.7 -07.6473 26268.5
 30 09 2013  09 07  -20.9873 26034.9 -03495.7 -07.6474 26268.6
 30 09 2013  09 08  -20.9877 26035.0 -03495.7 -07.6474 26268.6
 30 09 2013  09 09  -20.9881 26035.0 -03495.8 -07.6474 26268.6
 30 09 2013  09 10  -20.9885 26035.0 -03495.6 -07.6471 26268.6
 30 09 2013  09 11  -20.9886 26034.9 -03495.7 -07.6474 26268.5
 30 09 2013  09 12  -20.9888 26034.8 -03495.8 -07.6476 26268.5
 30 09 2013  09 13  -20.9891 26034.8 -03495.8 -07.6476 26268.5
 30 09 2013  09 14  -20.9893 26034.9 -03495.9 -07.6477 26268.5
 30 09 2013  09 15  -20.9897 26034.8 -03495.9 -07.6479 26268.5
 30 09 2013  09 16  -20.9902 26034.9 -03496.0 -07.6480 26268.6
 30 09 2013  09 17  -20.9905 26034.9 -03496.1 -07.6481 26268.6
 30 09 2013  09 18  -20.9910 26034.9 -03496.1 -07.6482 26268.6
 30 09 2013  09 19  -20.9914 26034.9 -03496.1 -07.6483 26268.6
 30 09 2013  09 20  -20.9920 26034.9 -03496.2 -07.6484 26268.6
 30 09 2013  09 21  -20.9922 26034.8 -03496.2 -07.6484 26268.5
 30 09 2013  09 22  -20.9928 26034.9 -03496.3 -07.6485 26268.6
 30 09 2013  09 23  -20.9932 26034.9 -03496.3 -07.6487 26268.6
 30 09 2013  09 24  -20.9938 26034.9 -03496.3 -07.6487 26268.6
 30 09 2013  09 25  -20.9940 26034.8 -03496.3 -07.6488 26268.5
 30 09 2013  09 26  -20.9945 26034.8 -03496.4 -07.6489 26268.6
 30 09 2013  09 27  -20.9949 26034.9 -03496.5 -07.6491 26268.7
 30 09 2013  09 28  -20.9954 26034.9 -03496.6 -07.6492 26268.7
 30 09 2013  09 29  -20.9960 26035.1 -03496.7 -07.6494 26268.8
 30 09 2013  09 30  -20.9965 26035.2 -03496.8 -07.6496 26268.9
 30 09 2013  09 31  -20.9969 26035.3 -03496.8 -07.6497 26269.1
 30 09 2013  09 32  -20.9973 26035.4 -03496.9 -07.6498 26269.2
 30 09 2013  09 33  -20.9977 26035.6 -03497.0 -07.6499 26269.4
 30 09 2013  09 34  -20.9982 26035.7 -03497.0 -07.6499 26269.5
 30 09 2013  09 35  -20.9988 26035.9 -03497.0 -07.6500 26269.7
 30 09 2013  09 36  -20.9993 26036.0 -03497.0 -07.6499 26269.8
 30 09 2013  09 37  -20.9997 26036.1 -03497.0 -07.6498 26269.9
 30 09 2013  09 38  -21.0003 26036.2 -03497.0 -07.6498 26270.0
 30 09 2013  09 39  -21.0006 26036.2 -03497.0 -07.6497 26270.0
 30 09 2013  09 40  -21.0011 26036.2 -03497.0 -07.6498 26270.0
 30 09 2013  09 41  -21.0018 26036.4 -03497.1 -07.6500 26270.2
 30 09 2013  09 42  -21.0023 26036.6 -03497.2 -07.6501 26270.4
 30 09 2013  09 43  -21.0027 26036.9 -03497.3 -07.6502 26270.7
 30 09 2013  09 44  -21.0033 26037.1 -03497.3 -07.6503 26270.9
 30 09 2013  09 45  -21.0038 26037.3 -03497.4 -07.6502 26271.1
 30 09 2013  09 46  -21.0043 26037.5 -03497.4 -07.6503 26271.3
 30 09 2013  09 47  -21.0046 26037.5 -03497.4 -07.6502 26271.4
 30 09 2013  09 48  -21.0050 26037.6 -03497.4 -07.6502 26271.5
 30 09 2013  09 49  -21.0052 26037.8 -03497.5 -07.6503 26271.6
 30 09 2013  09 50  -21.0056 26037.9 -03497.5 -07.6504 26271.8
 30 09 2013  09 51  -21.0061 26038.0 -03497.5 -07.6504 26271.9
 30 09 2013  09 52  -21.0066 26038.2 -03497.6 -07.6504 26272.0
 30 09 2013  09 53  -21.0072 26038.2 -03497.6 -07.6504 26272.1
 30 09 2013  09 54  -21.0080 26038.3 -03497.5 -07.6503 26272.1
 30 09 2013  09 55  -21.0086 26038.2 -03497.5 -07.6502 26272.1
 30 09 2013  09 56  -21.0090 26038.2 -03497.4 -07.6501 26272.0
 30 09 2013  09 57  -21.0094 26038.1 -03497.4 -07.6501 26272.0
 30 09 2013  09 58  -21.0097 26038.2 -03497.5 -07.6502 26272.0
 30 09 2013  09 59  -21.0098 26038.2 -03497.5 -07.6503 26272.1
 30 09 2013  10 00  -21.0098 26038.6 -03497.7 -07.6506 26272.5
 30 09 2013  10 01  -21.0103 26038.6 -03497.7 -07.6506 26272.5
 30 09 2013  10 02  -21.0109 26039.1 -03497.9 -07.6508 26273.0
 30 09 2013  10 03  -21.0113 26039.0 -03497.8 -07.6507 26272.9
 30 09 2013  10 04  -21.0113 26039.6 -03498.0 -07.6509 26273.5
 30 09 2013  10 05  -21.0121 26039.5 -03497.9 -07.6508 26273.4
 30 09 2013  10 06  -21.0126 26039.9 -03498.0 -07.6508 26273.8
 30 09 2013  10 07  -21.0130 26039.8 -03497.9 -07.6506 26273.7
 30 09 2013  10 08  -21.0134 26040.0 -03497.9 -07.6506 26273.8
 30 09 2013  10 09  -21.0135 26040.0 -03497.9 -07.6506 26273.9
 30 09 2013  10 10  -21.0138 26040.0 -03497.8 -07.6504 26273.9
 30 09 2013  10 11  -21.0140 26040.1 -03497.8 -07.6503 26273.9
 30 09 2013  10 12  -21.0141 26040.1 -03497.7 -07.6502 26274.0
 30 09 2013  10 13  -21.0141 26040.2 -03497.7 -07.6502 26274.0
 30 09 2013  10 14  -21.0141 26040.2 -03497.7 -07.6501 26274.1
 30 09 2013  10 15  -21.0143 26040.5 -03497.8 -07.6502 26274.4
 30 09 2013  10 16  -21.0144 26040.8 -03497.9 -07.6503 26274.7
 30 09 2013  10 17  -21.0145 26041.0 -03497.9 -07.6502 26274.9
 30 09 2013  10 18  -21.0145 26041.2 -03497.8 -07.6502 26275.0
 30 09 2013  10 19  -21.0146 26041.5 -03497.9 -07.6502 26275.3
 30 09 2013  10 20  -21.0147 26041.8 -03498.0 -07.6502 26275.7
 30 09 2013  10 21  -21.0149 26042.1 -03498.0 -07.6502 26276.0
 30 09 2013  10 22  -21.0151 26042.2 -03497.9 -07.6500 26276.1
 30 09 2013  10 23  -21.0150 26042.5 -03497.9 -07.6499 26276.4
 30 09 2013  10 24  -21.0150 26043.0 -03498.0 -07.6500 26276.8
 30 09 2013  10 25  -21.0155 26043.6 -03498.1 -07.6501 26277.4
 30 09 2013  10 26  -21.0162 26043.5 -03498.0 -07.6498 26277.3
 30 09 2013  10 27  -21.0162 26043.9 -03498.0 -07.6497 26277.7
 30 09 2013  10 28  -21.0160 26044.3 -03498.1 -07.6498 26278.2
 30 09 2013  10 29  -21.0164 26044.6 -03498.1 -07.6496 26278.5
 30 09 2013  10 30  -21.0166 26044.8 -03498.0 -07.6494 26278.7
 30 09 2013  10 31  -21.0167 26045.2 -03498.0 -07.6493 26279.0
 30 09 2013  10 32  -21.0169 26045.4 -03498.0 -07.6492 26279.3
 30 09 2013  10 33  -21.0171 26045.7 -03498.0 -07.6492 26279.6
 30 09 2013  10 34  -21.0171 26046.2 -03498.0 -07.6491 26280.0
 30 09 2013  10 35  -21.0173 26046.5 -03498.0 -07.6490 26280.3
 30 09 2013  10 36  -21.0176 26046.7 -03498.0 -07.6488 26280.5
 30 09 2013  10 37  -21.0176 26047.1 -03497.9 -07.6487 26280.9
 30 09 2013  10 38  -21.0180 26047.5 -03498.0 -07.6487 26281.3
 30 09 2013  10 39  -21.0183 26047.6 -03498.0 -07.6486 26281.4
 30 09 2013  10 40  -21.0180 26047.9 -03497.9 -07.6483 26281.7
 30 09 2013  10 41  -21.0183 26048.3 -03498.0 -07.6484 26282.1
 30 09 2013  10 42  -21.0188 26048.5 -03497.9 -07.6482 26282.3
 30 09 2013  10 43  -21.0191 26048.7 -03497.8 -07.6480 26282.5
 30 09 2013  10 44  -21.0195 26049.0 -03497.8 -07.6478 26282.8
 30 09 2013  10 45  -21.0198 26049.3 -03497.8 -07.6477 26283.0
 30 09 2013  10 46  -21.0201 26049.6 -03497.8 -07.6475 26283.4
 30 09 2013  10 47  -21.0205 26049.9 -03497.7 -07.6474 26283.7
 30 09 2013  10 48  -21.0208 26050.2 -03497.7 -07.6472 26283.9
 30 09 2013  10 49  -21.0209 26050.5 -03497.6 -07.6470 26284.2
 30 09 2013  10 50  -21.0212 26050.8 -03497.6 -07.6469 26284.5
 30 09 2013  10 51  -21.0213 26051.0 -03497.6 -07.6467 26284.8
 30 09 2013  10 52  -21.0215 26051.2 -03497.5 -07.6465 26285.0
 30 09 2013  10 53  -21.0215 26051.5 -03497.5 -07.6464 26285.2
 30 09 2013  10 54  -21.0217 26051.8 -03497.5 -07.6463 26285.5
 30 09 2013  10 55  -21.0219 26052.1 -03497.5 -07.6462 26285.9
 30 09 2013  10 56  -21.0220 26052.5 -03497.5 -07.6460 26286.2
 30 09 2013  10 57  -21.0222 26052.8 -03497.4 -07.6458 26286.5
 30 09 2013  10 58  -21.0225 26053.1 -03497.3 -07.6455 26286.8
 30 09 2013  10 59  -21.0230 26053.3 -03497.2 -07.6452 26286.9
 30 09 2013  11 00  -21.0234 26053.5 -03497.1 -07.6449 26287.1
 30 09 2013  11 01  -21.0237 26053.6 -03497.0 -07.6447 26287.2
 30 09 2013  11 02  -21.0241 26053.9 -03496.9 -07.6445 26287.6
 30 09 2013  11 03  -21.0246 26054.3 -03496.9 -07.6442 26287.9
 30 09 2013  11 04  -21.0250 26054.8 -03496.9 -07.6441 26288.4
 30 09 2013  11 05  -21.0254 26055.1 -03496.7 -07.6438 26288.7
 30 09 2013  11 06  -21.0258 26055.2 -03496.5 -07.6433 26288.8
 30 09 2013  11 07  -21.0264 26055.6 -03496.5 -07.6431 26289.1
 30 09 2013  11 08  -21.0270 26056.2 -03496.5 -07.6429 26289.7
 30 09 2013  11 09  -21.0277 26056.5 -03496.4 -07.6426 26290.1
 30 09 2013  11 10  -21.0280 26056.8 -03496.3 -07.6422 26290.3
 30 09 2013  11 11  -21.0282 26057.2 -03496.2 -07.6419 26290.7
 30 09 2013  11 12  -21.0286 26057.8 -03496.1 -07.6416 26291.3
 30 09 2013  11 13  -21.0292 26058.2 -03496.0 -07.6412 26291.7
 30 09 2013  11 14  -21.0300 26058.3 -03495.7 -07.6406 26291.7
 30 09 2013  11 15  -21.0309 26058.3 -03495.4 -07.6400 26291.7
 30 09 2013  11 16  -21.0316 26058.7 -03495.3 -07.6395 26292.0
 30 09 2013  11 17  -21.0320 26059.3 -03495.2 -07.6392 26292.7
 30 09 2013  11 18  -21.0327 26059.5 -03494.9 -07.6385 26292.8
 30 09 2013  11 19  -21.0337 26059.3 -03494.5 -07.6377 26292.5
 30 09 2013  11 20  -21.0339 26059.7 -03494.3 -07.6371 26292.9
 30 09 2013  11 21  -21.0341 26060.5 -03494.4 -07.6370 26293.7
 30 09 2013  11 22  -21.0344 26060.9 -03494.2 -07.6366 26294.1
 30 09 2013  11 23  -21.0348 26060.7 -03493.8 -07.6358 26293.8
 30 09 2013  11 24  -21.0352 26061.0 -03493.6 -07.6353 26294.1
 30 09 2013  11 25  -21.0353 26061.7 -03493.7 -07.6352 26294.9
 30 09 2013  11 26  -21.0356 26061.8 -03493.4 -07.6346 26294.9
 30 09 2013  11 27  -21.0360 26062.0 -03493.2 -07.6340 26295.1
 30 09 2013  11 28  -21.0360 26062.8 -03493.2 -07.6338 26295.9
 30 09 2013  11 29  -21.0361 26063.1 -03493.0 -07.6334 26296.1
 30 09 2013  11 30  -21.0363 26063.4 -03492.8 -07.6328 26296.4
 30 09 2013  11 31  -21.0363 26063.8 -03492.7 -07.6325 26296.8
 30 09 2013  11 32  -21.0362 26064.2 -03492.6 -07.6321 26297.2
 30 09 2013  11 33  -21.0361 26064.7 -03492.4 -07.6317 26297.6
 30 09 2013  11 34  -21.0360 26064.9 -03492.3 -07.6312 26297.8
 30 09 2013  11 35  -21.0361 26065.2 -03492.1 -07.6307 26298.1
 30 09 2013  11 36  -21.0362 26065.7 -03492.0 -07.6304 26298.5
 30 09 2013  11 37  -21.0362 26066.0 -03491.8 -07.6299 26298.9
 30 09 2013  11 38  -21.0362 26066.2 -03491.6 -07.6295 26299.1
 30 09 2013  11 39  -21.0362 26066.7 -03491.5 -07.6290 26299.5
 30 09 2013  11 40  -21.0364 26067.1 -03491.4 -07.6286 26299.9
 30 09 2013  11 41  -21.0365 26067.2 -03491.1 -07.6280 26300.0
 30 09 2013  11 42  -21.0366 26067.4 -03490.8 -07.6274 26300.1
 30 09 2013  11 43  -21.0366 26067.8 -03490.7 -07.6271 26300.5
 30 09 2013  11 44  -21.0368 26068.1 -03490.6 -07.6266 26300.8
 30 09 2013  11 45  -21.0368 26068.1 -03490.3 -07.6260 26300.8
 30 09 2013  11 46  -21.0369 26068.0 -03489.9 -07.6253 26300.6
 30 09 2013  11 47  -21.0370 26068.3 -03489.8 -07.6249 26300.9
 30 09 2013  11 48  -21.0370 26068.6 -03489.7 -07.6246 26301.2
 30 09 2013  11 49  -21.0370 26068.4 -03489.4 -07.6239 26300.9
 30 09 2013  11 50  -21.0369 26068.5 -03489.1 -07.6234 26300.9
 30 09 2013  11 51  -21.0368 26069.0 -03489.1 -07.6233 26301.5
 30 09 2013  11 52  -21.0369 26069.3 -03489.1 -07.6230 26301.8
 30 09 2013  11 53  -21.0370 26069.3 -03488.9 -07.6226 26301.7
 30 09 2013  11 54  -21.0370 26069.4 -03488.7 -07.6222 26301.8
 30 09 2013  11 55  -21.0370 26069.9 -03488.7 -07.6221 26302.2
 30 09 2013  11 56  -21.0370 26070.2 -03488.6 -07.6218 26302.6
 30 09 2013  11 57  -21.0368 26070.6 -03488.5 -07.6215 26303.0
 30 09 2013  11 58  -21.0368 26070.9 -03488.5 -07.6212 26303.3
 30 09 2013  11 59  -21.0369 26071.0 -03488.3 -07.6208 26303.3
 30 09 2013  12 00  -21.0372 26071.0 -03488.1 -07.6204 26303.3
 30 09 2013  12 01  -21.0371 26071.3 -03488.0 -07.6202 26303.6
 30 09 2013  12 02  -21.0373 26071.7 -03488.0 -07.6201 26304.0
 30 09 2013  12 03  -21.0376 26071.9 -03487.9 -07.6198 26304.2
 30 09 2013  12 04  -21.0378 26072.0 -03487.8 -07.6194 26304.3
 30 09 2013  12 05  -21.0378 26072.4 -03487.7 -07.6192 26304.6
 30 09 2013  12 06  -21.0382 26072.8 -03487.7 -07.6191 26305.1
 30 09 2013  12 07  -21.0384 26073.3 -03487.7 -07.6189 26305.5
 30 09 2013  12 08  -21.0385 26073.7 -03487.6 -07.6186 26305.9
 30 09 2013  12 09  -21.0387 26074.0 -03487.5 -07.6184 26306.2
 30 09 2013  12 10  -21.0388 26074.4 -03487.5 -07.6181 26306.6
 30 09 2013  12 11  -21.0387 26074.8 -03487.4 -07.6179 26307.0
 30 09 2013  12 12  -21.0387 26075.0 -03487.2 -07.6174 26307.2
 30 09 2013  12 13  -21.0387 26075.2 -03487.0 -07.6170 26307.3
 30 09 2013  12 14  -21.0386 26075.6 -03487.0 -07.6167 26307.7
 30 09 2013  12 15  -21.0387 26076.1 -03486.9 -07.6164 26308.2
 30 09 2013  12 16  -21.0390 26076.6 -03486.9 -07.6162 26308.7
 30 09 2013  12 17  -21.0393 26077.1 -03486.8 -07.6160 26309.2
 30 09 2013  12 18  -21.0395 26077.2 -03486.6 -07.6155 26309.3
 30 09 2013  12 19  -21.0398 26077.4 -03486.5 -07.6151 26309.5
 30 09 2013  12 20  -21.0401 26078.0 -03486.5 -07.6150 26310.0
 30 09 2013  12 21  -21.0404 26078.3 -03486.4 -07.6146 26310.3
 30 09 2013  12 22  -21.0405 26078.5 -03486.2 -07.6142 26310.5
 30 09 2013  12 23  -21.0408 26079.0 -03486.1 -07.6139 26311.0
 30 09 2013  12 24  -21.0411 26079.5 -03486.1 -07.6136 26311.5
 30 09 2013  12 25  -21.0416 26079.6 -03485.8 -07.6130 26311.5
 30 09 2013  12 26  -21.0419 26079.8 -03485.6 -07.6125 26311.7
 30 09 2013  12 27  -21.0421 26080.1 -03485.5 -07.6121 26312.0
 30 09 2013  12 28  -21.0424 26080.5 -03485.4 -07.6118 26312.4
 30 09 2013  12 29  -21.0426 26080.8 -03485.2 -07.6113 26312.7
 30 09 2013  12 30  -21.0428 26081.1 -03485.0 -07.6108 26312.9
 30 09 2013  12 31  -21.0430 26081.5 -03484.9 -07.6105 26313.3
 30 09 2013  12 32  -21.0432 26081.9 -03484.7 -07.6100 26313.7
 30 09 2013  12 33  -21.0434 26082.3 -03484.5 -07.6095 26314.0
 30 09 2013  12 34  -21.0435 26082.6 -03484.3 -07.6090 26314.3
 30 09 2013  12 35  -21.0436 26082.9 -03484.1 -07.6084 26314.6
 30 09 2013  12 36  -21.0436 26083.3 -03483.9 -07.6079 26314.9
 30 09 2013  12 37  -21.0435 26083.7 -03483.8 -07.6074 26315.3
 30 09 2013  12 38  -21.0435 26084.0 -03483.5 -07.6069 26315.6
 30 09 2013  12 39  -21.0434 26084.2 -03483.3 -07.6064 26315.8
 30 09 2013  12 40  -21.0433 26084.5 -03483.1 -07.6058 26316.1
 30 09 2013  12 41  -21.0431 26084.7 -03482.9 -07.6053 26316.2
 30 09 2013  12 42  -21.0412 26085.0 -03482.5 -07.6043 26316.4
 30 09 2013  12 43  -21.0413 26085.1 -03482.3 -07.6039 26316.5
 30 09 2013  12 44  -21.0418 26085.1 -03482.2 -07.6036 26316.5
 30 09 2013  12 45  -21.0415 26085.3 -03482.0 -07.6032 26316.7
 30 09 2013  12 46  -21.0415 26085.4 -03481.9 -07.6029 26316.7
 30 09 2013  12 47  -21.0400 26085.5 -03481.7 -07.6024 26316.8
 30 09 2013  12 48  -21.0397 26085.5 -03481.5 -07.6021 26316.8
 30 09 2013  12 49  -21.0392 26085.6 -03481.4 -07.6019 26316.9
 30 09 2013  12 50  -21.0387 26085.8 -03481.4 -07.6018 26317.1
 30 09 2013  12 51  -21.0384 26086.0 -03481.4 -07.6017 26317.3
 30 09 2013  12 52  -21.0380 26086.2 -03481.4 -07.6016 26317.5
 30 09 2013  12 53  -21.0379 26086.4 -03481.4 -07.6015 26317.6
 30 09 2013  12 54  -21.0377 26086.5 -03481.4 -07.6014 26317.8
 30 09 2013  12 55  -21.0380 26086.8 -03481.3 -07.6013 26318.0
 30 09 2013  12 56  -21.0398 26086.7 -03481.4 -07.6016 26318.0
 30 09 2013  12 57  -21.0394 26086.8 -03481.4 -07.6015 26318.1
 30 09 2013  12 58  -21.0393 26087.0 -03481.4 -07.6014 26318.3
 30 09 2013  12 59  -21.0390 26087.1 -03481.2 -07.6010 26318.4
 30 09 2013  13 00  -21.0386 26087.2 -03481.2 -07.6008 26318.5
 30 09 2013  13 01  -21.0384 26087.3 -03481.1 -07.6006 26318.5
 30 09 2013  13 02  -21.0382 26087.3 -03480.9 -07.6003 26318.5
 30 09 2013  13 03  -21.0378 26087.3 -03480.9 -07.6001 26318.5
 30 09 2013  13 04  -21.0375 26087.4 -03480.8 -07.6000 26318.6
 30 09 2013  13 05  -21.0373 26087.4 -03480.7 -07.5998 26318.6
 30 09 2013  13 06  -21.0374 26087.4 -03480.6 -07.5996 26318.6
 30 09 2013  13 07  -21.0370 26087.6 -03480.6 -07.5995 26318.7
 30 09 2013  13 08  -21.0368 26087.7 -03480.5 -07.5993 26318.8
 30 09 2013  13 09  -21.0368 26087.8 -03480.5 -07.5992 26318.9
 30 09 2013  13 10  -21.0366 26087.8 -03480.4 -07.5990 26318.9
 30 09 2013  13 11  -21.0363 26087.9 -03480.3 -07.5988 26319.0
 30 09 2013  13 12  -21.0363 26088.1 -03480.3 -07.5987 26319.2
 30 09 2013  13 13  -21.0362 26088.3 -03480.2 -07.5985 26319.4
 30 09 2013  13 14  -21.0361 26088.6 -03480.2 -07.5984 26319.7
 30 09 2013  13 15  -21.0361 26088.8 -03480.1 -07.5981 26319.9
 30 09 2013  13 16  -21.0359 26088.8 -03480.0 -07.5978 26319.8
 30 09 2013  13 17  -21.0357 26088.8 -03479.9 -07.5976 26319.9
 30 09 2013  13 18  -21.0357 26089.0 -03479.8 -07.5974 26320.1
 30 09 2013  13 19  -21.0356 26089.2 -03479.8 -07.5973 26320.2
 30 09 2013  13 20  -21.0356 26089.3 -03479.7 -07.5972 26320.3
 30 09 2013  13 21  -21.0357 26089.4 -03479.7 -07.5970 26320.4
 30 09 2013  13 22  -21.0359 26089.4 -03479.6 -07.5968 26320.4
 30 09 2013  13 23  -21.0360 26089.6 -03479.6 -07.5967 26320.6
 30 09 2013  13 24  -21.0362 26089.6 -03479.5 -07.5965 26320.6
 30 09 2013  13 25  -21.0365 26089.5 -03479.3 -07.5961 26320.5
 30 09 2013  13 26  -21.0366 26089.3 -03479.1 -07.5958 26320.3
 30 09 2013  13 27  -21.0369 26089.3 -03479.0 -07.5957 26320.2
 30 09 2013  13 28  -21.0371 26089.2 -03479.0 -07.5956 26320.2
 30 09 2013  13 29  -21.0373 26089.3 -03479.0 -07.5954 26320.3
 30 09 2013  13 30  -21.0376 26089.5 -03478.9 -07.5954 26320.4
 30 09 2013  13 31  -21.0379 26089.4 -03478.9 -07.5952 26320.4
 30 09 2013  13 32  -21.0381 26089.3 -03478.8 -07.5950 26320.2
 30 09 2013  13 33  -21.0384 26089.3 -03478.7 -07.5948 26320.2
 30 09 2013  13 34  -21.0385 26089.2 -03478.6 -07.5947 26320.1
 30 09 2013  13 35  -21.0388 26089.2 -03478.5 -07.5945 26320.1
 30 09 2013  13 36  -21.0390 26089.1 -03478.5 -07.5945 26320.0
 30 09 2013  13 37  -21.0392 26089.2 -03478.5 -07.5945 26320.1
 30 09 2013  13 38  -21.0393 26089.3 -03478.5 -07.5945 26320.2
 30 09 2013  13 39  -21.0395 26089.3 -03478.5 -07.5944 26320.2
 30 09 2013  13 40  -21.0398 26089.4 -03478.5 -07.5944 26320.2
 30 09 2013  13 41  -21.0401 26089.2 -03478.4 -07.5943 26320.1
 30 09 2013  13 42  -21.0404 26089.2 -03478.4 -07.5943 26320.0
 30 09 2013  13 43  -21.0408 26089.0 -03478.4 -07.5942 26319.9
 30 09 2013  13 44  -21.0414 26088.9 -03478.3 -07.5942 26319.8
 30 09 2013  13 45  -21.0420 26088.7 -03478.3 -07.5941 26319.5
 30 09 2013  13 46  -21.0425 26088.6 -03478.2 -07.5940 26319.4
 30 09 2013  13 47  -21.0432 26088.6 -03478.2 -07.5940 26319.4
 30 09 2013  13 48  -21.0440 26088.7 -03478.2 -07.5939 26319.5
 30 09 2013  13 49  -21.0449 26088.8 -03478.1 -07.5937 26319.7
 30 09 2013  13 50  -21.0457 26088.8 -03477.9 -07.5934 26319.6
 30 09 2013  13 51  -21.0462 26088.6 -03477.7 -07.5928 26319.4
 30 09 2013  13 52  -21.0467 26088.4 -03477.4 -07.5924 26319.2
 30 09 2013  13 53  -21.0470 26088.3 -03477.2 -07.5920 26319.0
 30 09 2013  13 54  -21.0473 26088.2 -03477.1 -07.5917 26318.9
 30 09 2013  13 55  -21.0474 26088.1 -03476.9 -07.5913 26318.7
 30 09 2013  13 56  -21.0474 26088.1 -03476.8 -07.5911 26318.8
 30 09 2013  13 57  -21.0475 26088.3 -03476.8 -07.5910 26319.0
 30 09 2013  13 58  -21.0476 26088.5 -03476.7 -07.5908 26319.1
 30 09 2013  13 59  -21.0478 26088.7 -03476.7 -07.5907 26319.3
 30 09 2013  14 00  -21.0477 26088.8 -03476.6 -07.5905 26319.5
 30 09 2013  14 01  -21.0477 26088.9 -03476.5 -07.5903 26319.5
 30 09 2013  14 02  -21.0476 26088.9 -03476.4 -07.5901 26319.5
 30 09 2013  14 03  -21.0476 26088.9 -03476.3 -07.5899 26319.5
 30 09 2013  14 04  -21.0475 26088.9 -03476.3 -07.5898 26319.4
 30 09 2013  14 05  -21.0476 26089.0 -03476.3 -07.5898 26319.5
 30 09 2013  14 06  -21.0478 26089.0 -03476.3 -07.5898 26319.6
 30 09 2013  14 07  -21.0479 26088.8 -03476.2 -07.5896 26319.4
 30 09 2013  14 08  -21.0477 26088.6 -03476.1 -07.5895 26319.2
 30 09 2013  14 09  -21.0476 26088.4 -03476.0 -07.5894 26318.9
 30 09 2013  14 10  -21.0474 26088.1 -03476.0 -07.5894 26318.7
 30 09 2013  14 11  -21.0472 26087.8 -03476.0 -07.5894 26318.4
 30 09 2013  14 12  -21.0470 26087.7 -03476.0 -07.5896 26318.2
 30 09 2013  14 13  -21.0468 26087.5 -03476.1 -07.5897 26318.0
 30 09 2013  14 14  -21.0465 26087.2 -03476.1 -07.5898 26317.7
 30 09 2013  14 15  -21.0461 26086.9 -03476.0 -07.5898 26317.5
 30 09 2013  14 16  -21.0458 26086.7 -03476.1 -07.5900 26317.2
 30 09 2013  14 17  -21.0455 26086.5 -03476.2 -07.5903 26317.1
 30 09 2013  14 18  -21.0451 26086.3 -03476.2 -07.5905 26316.9
 30 09 2013  14 19  -21.0448 26086.3 -03476.4 -07.5908 26316.9
 30 09 2013  14 20  -21.0446 26086.2 -03476.5 -07.5910 26316.9
 30 09 2013  14 21  -21.0443 26086.2 -03476.6 -07.5913 26316.8
 30 09 2013  14 22  -21.0441 26086.1 -03476.7 -07.5915 26316.8
 30 09 2013  14 23  -21.0438 26085.9 -03476.8 -07.5917 26316.6
 30 09 2013  14 24  -21.0434 26085.9 -03476.8 -07.5918 26316.6
 30 09 2013  14 25  -21.0431 26085.9 -03476.9 -07.5921 26316.6
 30 09 2013  14 26  -21.0428 26085.8 -03477.0 -07.5922 26316.5
 30 09 2013  14 27  -21.0424 26085.7 -03477.0 -07.5923 26316.4
 30 09 2013  14 28  -21.0419 26085.6 -03477.0 -07.5924 26316.3
 30 09 2013  14 29  -21.0414 26085.5 -03477.1 -07.5925 26316.2
 30 09 2013  14 30  -21.0410 26085.4 -03477.1 -07.5926 26316.2
 30 09 2013  14 31  -21.0404 26085.5 -03477.2 -07.5927 26316.2
 30 09 2013  14 32  -21.0398 26085.5 -03477.3 -07.5929 26316.2
 30 09 2013  14 33  -21.0391 26085.5 -03477.3 -07.5929 26316.2
 30 09 2013  14 34  -21.0384 26085.3 -03477.2 -07.5929 26316.1
 30 09 2013  14 35  -21.0377 26085.1 -03477.2 -07.5929 26315.9
 30 09 2013  14 36  -21.0369 26085.0 -03477.2 -07.5929 26315.7
 30 09 2013  14 37  -21.0360 26084.9 -03477.3 -07.5931 26315.6
 30 09 2013  14 38  -21.0349 26084.7 -03477.4 -07.5933 26315.5
 30 09 2013  14 39  -21.0337 26084.7 -03477.5 -07.5936 26315.5
 30 09 2013  14 40  -21.0326 26084.8 -03477.7 -07.5940 26315.6
 30 09 2013  14 41  -21.0316 26084.8 -03477.9 -07.5944 26315.7
 30 09 2013  14 42  -21.0306 26084.9 -03478.1 -07.5949 26315.7
 30 09 2013  14 43  -21.0297 26084.9 -03478.3 -07.5953 26315.8
 30 09 2013  14 44  -21.0287 26085.0 -03478.5 -07.5957 26315.9
 30 09 2013  14 45  -21.0279 26084.9 -03478.7 -07.5961 26315.9
 30 09 2013  14 46  -21.0272 26084.8 -03478.8 -07.5964 26315.8
 30 09 2013  14 47  -21.0266 26084.8 -03479.0 -07.5968 26315.8
 30 09 2013  14 48  -21.0261 26084.7 -03479.2 -07.5972 26315.7
 30 09 2013  14 49  -21.0254 26084.7 -03479.3 -07.5976 26315.7
 30 09 2013  14 50  -21.0249 26084.6 -03479.5 -07.5979 26315.6
 30 09 2013  14 51  -21.0243 26084.5 -03479.6 -07.5982 26315.6
 30 09 2013  14 52  -21.0238 26084.5 -03479.7 -07.5985 26315.5
 30 09 2013  14 53  -21.0233 26084.5 -03479.9 -07.5989 26315.6
 30 09 2013  14 54  -21.0226 26084.3 -03480.0 -07.5991 26315.4
 30 09 2013  14 55  -21.0219 26084.1 -03480.0 -07.5993 26315.2
 30 09 2013  14 56  -21.0212 26084.0 -03480.2 -07.5996 26315.1
 30 09 2013  14 57  -21.0205 26083.8 -03480.3 -07.5999 26315.0
 30 09 2013  14 58  -21.0199 26083.7 -03480.4 -07.6002 26314.8
 30 09 2013  14 59  -21.0192 26083.6 -03480.5 -07.6004 26314.7
 30 09 2013  15 00  -21.0186 26083.3 -03480.5 -07.6006 26314.5
 30 09 2013  15 01  -21.0180 26083.2 -03480.6 -07.6008 26314.4
 30 09 2013  15 02  -21.0174 26083.0 -03480.7 -07.6011 26314.2
 30 09 2013  15 03  -21.0169 26082.8 -03480.8 -07.6014 26314.0
 30 09 2013  15 04  -21.0164 26082.6 -03481.0 -07.6017 26313.8
 30 09 2013  15 05  -21.0158 26082.4 -03481.0 -07.6019 26313.7
 30 09 2013  15 06  -21.0154 26082.4 -03481.2 -07.6023 26313.7
 30 09 2013  15 07  -21.0148 26082.2 -03481.3 -07.6025 26313.5
 30 09 2013  15 08  -21.0143 26081.9 -03481.3 -07.6027 26313.2
 30 09 2013  15 09  -21.0137 26081.7 -03481.4 -07.6029 26313.0
 30 09 2013  15 10  -21.0131 26081.5 -03481.5 -07.6032 26312.9
 30 09 2013  15 11  -21.0124 26081.4 -03481.6 -07.6034 26312.7
 30 09 2013  15 12  -21.0118 26081.3 -03481.7 -07.6037 26312.7
 30 09 2013  15 13  -21.0113 26081.2 -03481.8 -07.6040 26312.6
 30 09 2013  15 14  -21.0106 26080.9 -03481.8 -07.6041 26312.3
 30 09 2013  15 15  -21.0098 26080.7 -03481.9 -07.6043 26312.1
 30 09 2013  15 16  -21.0091 26080.4 -03482.0 -07.6046 26311.8
 30 09 2013  15 17  -21.0083 26080.2 -03482.1 -07.6049 26311.7
 30 09 2013  15 18  -21.0077 26080.2 -03482.3 -07.6053 26311.6
 30 09 2013  15 19  -21.0073 26080.0 -03482.4 -07.6056 26311.4
 30 09 2013  15 20  -21.0066 26079.7 -03482.5 -07.6058 26311.2
 30 09 2013  15 21  -21.0060 26079.5 -03482.6 -07.6062 26311.0
 30 09 2013  15 22  -21.0055 26079.2 -03482.7 -07.6065 26310.8
 30 09 2013  15 23  -21.0051 26079.1 -03482.9 -07.6068 26310.6
 30 09 2013  15 24  -21.0046 26078.9 -03483.0 -07.6073 26310.5
 30 09 2013  15 25  -21.0041 26078.7 -03483.2 -07.6076 26310.3
 30 09 2013  15 26  -21.0036 26078.5 -03483.3 -07.6079 26310.1
 30 09 2013  15 27  -21.0031 26078.3 -03483.4 -07.6081 26309.9
 30 09 2013  15 28  -21.0026 26078.0 -03483.5 -07.6085 26309.7
 30 09 2013  15 29  -21.0021 26077.8 -03483.6 -07.6087 26309.5
 30 09 2013  15 30  -21.0017 26077.6 -03483.7 -07.6091 26309.3
 30 09 2013  15 31  -21.0012 26077.2 -03483.7 -07.6092 26308.8
 30 09 2013  15 32  -21.0008 26076.7 -03483.8 -07.6095 26308.4
 30 09 2013  15 33  -21.0005 26076.3 -03483.9 -07.6099 26308.0
 30 09 2013  15 34  -21.0002 26075.8 -03484.0 -07.6103 26307.5
 30 09 2013  15 35  -21.0000 26075.5 -03484.2 -07.6109 26307.2
 30 09 2013  15 36  -20.9999 26075.1 -03484.4 -07.6113 26306.9
 30 09 2013  15 37  -20.9998 26074.8 -03484.6 -07.6117 26306.6
 30 09 2013  15 38  -20.9995 26074.5 -03484.7 -07.6121 26306.3
 30 09 2013  15 39  -20.9994 26074.2 -03484.9 -07.6125 26306.1
 30 09 2013  15 40  -20.9993 26073.9 -03485.0 -07.6130 26305.7
 30 09 2013  15 41  -20.9992 26073.6 -03485.2 -07.6135 26305.5
 30 09 2013  15 42  -20.9992 26073.4 -03485.4 -07.6140 26305.3
 30 09 2013  15 43  -20.9990 26073.1 -03485.5 -07.6143 26305.0
 30 09 2013  15 44  -20.9989 26072.7 -03485.7 -07.6148 26304.7
 30 09 2013  15 45  -20.9988 26072.5 -03485.9 -07.6153 26304.5
 30 09 2013  15 46  -20.9989 26072.3 -03486.2 -07.6159 26304.3
 30 09 2013  15 47  -20.9990 26072.0 -03486.3 -07.6164 26304.1
 30 09 2013  15 48  -20.9991 26071.7 -03486.6 -07.6170 26303.8
 30 09 2013  15 49  -20.9994 26071.5 -03486.8 -07.6175 26303.6
 30 09 2013  15 50  -20.9996 26071.2 -03487.0 -07.6180 26303.4
 30 09 2013  15 51  -20.9997 26071.0 -03487.2 -07.6185 26303.1
 30 09 2013  15 52  -21.0002 26070.8 -03487.5 -07.6191 26303.0
 30 09 2013  15 53  -21.0007 26070.7 -03487.6 -07.6195 26302.9
 30 09 2013  15 54  -21.0012 26070.5 -03487.8 -07.6200 26302.8
 30 09 2013  15 55  -21.0016 26070.3 -03488.0 -07.6205 26302.6
 30 09 2013  15 56  -21.0020 26070.1 -03488.2 -07.6209 26302.4
 30 09 2013  15 57  -21.0024 26069.8 -03488.4 -07.6214 26302.2
 30 09 2013  15 58  -21.0027 26069.5 -03488.5 -07.6218 26301.9
 30 09 2013  15 59  -21.0031 26069.2 -03488.6 -07.6222 26301.6
 30 09 2013  16 00  -21.0034 26068.8 -03488.8 -07.6226 26301.2
 30 09 2013  16 01  -21.0037 26068.5 -03488.9 -07.6230 26300.9
 30 09 2013  16 02  -21.0041 26068.3 -03489.2 -07.6236 26300.8
 30 09 2013  16 03  -21.0044 26068.1 -03489.4 -07.6242 26300.6
 30 09 2013  16 04  -21.0048 26067.9 -03489.7 -07.6247 26300.5
 30 09 2013  16 05  -21.0051 26067.7 -03489.9 -07.6253 26300.3
 30 09 2013  16 06  -21.0055 26067.5 -03490.1 -07.6259 26300.1
 30 09 2013  16 07  -21.0059 26067.3 -03490.3 -07.6264 26300.0
 30 09 2013  16 08  -21.0064 26067.3 -03490.6 -07.6270 26299.9
 30 09 2013  16 09  -21.0070 26067.1 -03490.9 -07.6276 26299.8
 30 09 2013  16 10  -21.0077 26066.8 -03491.1 -07.6281 26299.5
 30 09 2013  16 11  -21.0081 26066.4 -03491.2 -07.6285 26299.1
 30 09 2013  16 12  -21.0086 26066.1 -03491.5 -07.6291 26298.9
 30 09 2013  16 13  -21.0091 26065.9 -03491.8 -07.6298 26298.7
 30 09 2013  16 14  -21.0097 26065.7 -03492.0 -07.6305 26298.6
 30 09 2013  16 15  -21.0104 26065.5 -03492.3 -07.6312 26298.5
 30 09 2013  16 16  -21.0111 26065.4 -03492.6 -07.6318 26298.4
 30 09 2013  16 17  -21.0117 26065.2 -03492.8 -07.6323 26298.2
 30 09 2013  16 18  -21.0123 26065.0 -03493.0 -07.6328 26298.1
 30 09 2013  16 19  -21.0131 26064.9 -03493.3 -07.6335 26298.0
 30 09 2013  16 20  -21.0138 26064.7 -03493.5 -07.6340 26297.8
 30 09 2013  16 21  -21.0145 26064.5 -03493.7 -07.6345 26297.6
 30 09 2013  16 22  -21.0152 26064.4 -03493.9 -07.6349 26297.5
 30 09 2013  16 23  -21.0160 26064.2 -03494.1 -07.6354 26297.4
 30 09 2013  16 24  -21.0167 26064.0 -03494.3 -07.6358 26297.2
 30 09 2013  16 25  -21.0174 26063.9 -03494.4 -07.6362 26297.1
 30 09 2013  16 26  -21.0181 26063.7 -03494.5 -07.6365 26296.9
 30 09 2013  16 27  -21.0188 26063.4 -03494.6 -07.6368 26296.6
 30 09 2013  16 28  -21.0196 26063.3 -03494.8 -07.6371 26296.5
 30 09 2013  16 29  -21.0203 26063.1 -03494.9 -07.6375 26296.4
 30 09 2013  16 30  -21.0210 26063.0 -03495.0 -07.6377 26296.2
 30 09 2013  16 31  -21.0217 26062.7 -03495.1 -07.6380 26296.0
 30 09 2013  16 32  -21.0224 26062.5 -03495.2 -07.6382 26295.8
 30 09 2013  16 33  -21.0232 26062.2 -03495.2 -07.6383 26295.5
 30 09 2013  16 34  -21.0238 26062.0 -03495.3 -07.6385 26295.3
 30 09 2013  16 35  -21.0246 26061.8 -03495.3 -07.6388 26295.2
 30 09 2013  16 36  -21.0253 26061.8 -03495.5 -07.6390 26295.2
 30 09 2013  16 37  -21.0257 26061.7 -03495.5 -07.6391 26295.0
 30 09 2013  16 38  -21.0262 26061.4 -03495.5 -07.6391 26294.8
 30 09 2013  16 39  -21.0265 26061.1 -03495.4 -07.6391 26294.5
 30 09 2013  16 40  -21.0269 26061.1 -03495.5 -07.6394 26294.5
 30 09 2013  16 41  -21.0272 26060.9 -03495.5 -07.6394 26294.3
 30 09 2013  16 42  -21.0275 26060.7 -03495.5 -07.6395 26294.1
 30 09 2013  16 43  -21.0278 26060.4 -03495.5 -07.6395 26293.8
 30 09 2013  16 44  -21.0281 26060.3 -03495.6 -07.6397 26293.7
 30 09 2013  16 45  -21.0283 26060.4 -03495.7 -07.6399 26293.8
 30 09 2013  16 46  -21.0287 26060.3 -03495.7 -07.6400 26293.7
 30 09 2013  16 47  -21.0289 26060.1 -03495.6 -07.6399 26293.5
 30 09 2013  16 48  -21.0292 26060.0 -03495.7 -07.6400 26293.4
 30 09 2013  16 49  -21.0295 26059.9 -03495.7 -07.6401 26293.3
 30 09 2013  16 50  -21.0297 26059.9 -03495.7 -07.6402 26293.3
 30 09 2013  16 51  -21.0300 26059.8 -03495.8 -07.6402 26293.2
 30 09 2013  16 52  -21.0302 26059.5 -03495.7 -07.6402 26293.0
 30 09 2013  16 53  -21.0304 26059.4 -03495.7 -07.6403 26292.8
 30 09 2013  16 54  -21.0308 26059.4 -03495.8 -07.6405 26292.9
 30 09 2013  16 55  -21.0312 26059.4 -03495.9 -07.6406 26292.9
 30 09 2013  16 56  -21.0316 26059.4 -03496.0 -07.6408 26292.9
 30 09 2013  16 57  -21.0321 26059.3 -03496.0 -07.6409 26292.7
 30 09 2013  16 58  -21.0325 26059.3 -03496.0 -07.6409 26292.7
 30 09 2013  16 59  -21.0329 26059.4 -03496.1 -07.6411 26292.9
 30 09 2013  17 00  -21.0334 26059.4 -03496.1 -07.6411 26292.9
 30 09 2013  17 01  -21.0339 26059.1 -03496.0 -07.6409 26292.6
 30 09 2013  17 02  -21.0343 26058.9 -03495.9 -07.6408 26292.4
 30 09 2013  17 03  -21.0347 26059.0 -03495.9 -07.6409 26292.4
 30 09 2013  17 04  -21.0354 26059.0 -03496.0 -07.6410 26292.5
 30 09 2013  17 05  -21.0357 26058.7 -03495.8 -07.6406 26292.1
 30 09 2013  17 06  -21.0359 26058.4 -03495.7 -07.6405 26291.8
 30 09 2013  17 07  -21.0363 26058.2 -03495.7 -07.6406 26291.6
 30 09 2013  17 08  -21.0368 26058.2 -03495.7 -07.6406 26291.6
 30 09 2013  17 09  -21.0374 26058.2 -03495.8 -07.6407 26291.7
 30 09 2013  17 10  -21.0378 26058.0 -03495.7 -07.6405 26291.4
 30 09 2013  17 11  -21.0381 26057.9 -03495.6 -07.6405 26291.4
 30 09 2013  17 12  -21.0384 26058.0 -03495.7 -07.6405 26291.4
 30 09 2013  17 13  -21.0390 26058.2 -03495.7 -07.6405 26291.6
 30 09 2013  17 14  -21.0395 26058.2 -03495.6 -07.6404 26291.6
 30 09 2013  17 15  -21.0400 26058.2 -03495.5 -07.6401 26291.6
 30 09 2013  17 16  -21.0404 26058.2 -03495.4 -07.6399 26291.6
 30 09 2013  17 17  -21.0408 26058.1 -03495.2 -07.6395 26291.4
 30 09 2013  17 18  -21.0413 26058.0 -03495.1 -07.6393 26291.3
 30 09 2013  17 19  -21.0419 26057.8 -03494.9 -07.6390 26291.2
 30 09 2013  17 20  -21.0424 26057.7 -03494.7 -07.6386 26291.0
 30 09 2013  17 21  -21.0429 26057.6 -03494.6 -07.6383 26290.9
 30 09 2013  17 22  -21.0434 26057.6 -03494.5 -07.6381 26290.8
 30 09 2013  17 23  -21.0441 26057.5 -03494.3 -07.6378 26290.7
 30 09 2013  17 24  -21.0444 26057.3 -03494.1 -07.6373 26290.5
 30 09 2013  17 25  -21.0447 26057.2 -03493.9 -07.6370 26290.4
 30 09 2013  17 26  -21.0451 26057.0 -03493.7 -07.6366 26290.2
 30 09 2013  17 27  -21.0454 26056.6 -03493.5 -07.6362 26289.8
 30 09 2013  17 28  -21.0458 26056.5 -03493.3 -07.6359 26289.6
 30 09 2013  17 29  -21.0461 26056.3 -03493.1 -07.6356 26289.4
 30 09 2013  17 30  -21.0463 26056.0 -03492.9 -07.6352 26289.0
 30 09 2013  17 31  -21.0464 26055.9 -03492.8 -07.6349 26288.9
 30 09 2013  17 32  -21.0466 26055.8 -03492.7 -07.6348 26288.8
 30 09 2013  17 33  -21.0467 26055.6 -03492.5 -07.6345 26288.6
 30 09 2013  17 34  -21.0466 26055.2 -03492.3 -07.6341 26288.2
 30 09 2013  17 35  -21.0465 26054.9 -03492.1 -07.6337 26287.9
 30 09 2013  17 36  -21.0462 26054.7 -03491.9 -07.6334 26287.6
 30 09 2013  17 37  -21.0461 26054.6 -03491.9 -07.6333 26287.5
 30 09 2013  17 38  -21.0461 26054.4 -03491.7 -07.6331 26287.3
 30 09 2013  17 39  -21.0460 26054.1 -03491.5 -07.6327 26287.0
 30 09 2013  17 40  -21.0458 26054.1 -03491.4 -07.6325 26287.0
 30 09 2013  17 41  -21.0457 26054.0 -03491.3 -07.6323 26286.8
 30 09 2013  17 42  -21.0455 26053.7 -03491.1 -07.6320 26286.5
 30 09 2013  17 43  -21.0452 26053.4 -03490.9 -07.6316 26286.2
 30 09 2013  17 44  -21.0449 26053.1 -03490.7 -07.6313 26286.0
 30 09 2013  17 45  -21.0447 26053.1 -03490.6 -07.6311 26285.9
 30 09 2013  17 46  -21.0446 26052.9 -03490.5 -07.6308 26285.7
 30 09 2013  17 47  -21.0442 26052.7 -03490.3 -07.6305 26285.4
 30 09 2013  17 48  -21.0440 26052.7 -03490.3 -07.6304 26285.4
 30 09 2013  17 49  -21.0438 26052.5 -03490.1 -07.6302 26285.3
 30 09 2013  17 50  -21.0435 26052.3 -03489.9 -07.6298 26285.0
 30 09 2013  17 51  -21.0433 26052.1 -03489.8 -07.6295 26284.8
 30 09 2013  17 52  -21.0432 26051.9 -03489.6 -07.6292 26284.5
 30 09 2013  17 53  -21.0430 26051.7 -03489.4 -07.6290 26284.4
 30 09 2013  17 54  -21.0429 26051.5 -03489.3 -07.6286 26284.1
 30 09 2013  17 55  -21.0427 26051.2 -03489.1 -07.6284 26283.8
 30 09 2013  17 56  -21.0425 26051.0 -03488.9 -07.6280 26283.6
 30 09 2013  17 57  -21.0422 26050.7 -03488.8 -07.6278 26283.3
 30 09 2013  17 58  -21.0420 26050.5 -03488.6 -07.6274 26283.0
 30 09 2013  17 59  -21.0416 26050.3 -03488.4 -07.6272 26282.9
 30 09 2013  18 00  -21.0412 26050.2 -03488.3 -07.6269 26282.7
 30 09 2013  18 01  -21.0409 26050.0 -03488.1 -07.6266 26282.5
 30 09 2013  18 02  -21.0404 26049.8 -03487.9 -07.6262 26282.3
 30 09 2013  18 03  -21.0400 26049.6 -03487.8 -07.6260 26282.1
 30 09 2013  18 04  -21.0395 26049.6 -03487.7 -07.6257 26282.0
 30 09 2013  18 05  -21.0391 26049.4 -03487.5 -07.6254 26281.8
 30 09 2013  18 06  -21.0387 26049.3 -03487.4 -07.6253 26281.7
 30 09 2013  18 07  -21.0382 26049.3 -03487.3 -07.6250 26281.7
 30 09 2013  18 08  -21.0377 26049.2 -03487.1 -07.6247 26281.5
 30 09 2013  18 09  -21.0372 26049.0 -03487.0 -07.6244 26281.4
 30 09 2013  18 10  -21.0366 26048.9 -03486.9 -07.6243 26281.2
 30 09 2013  18 11  -21.0361 26048.7 -03486.8 -07.6240 26281.0
 30 09 2013  18 12  -21.0358 26048.6 -03486.7 -07.6238 26280.9
 30 09 2013  18 13  -21.0352 26048.5 -03486.6 -07.6237 26280.8
 30 09 2013  18 14  -21.0347 26048.4 -03486.5 -07.6235 26280.7
 30 09 2013  18 15  -21.0343 26048.3 -03486.4 -07.6233 26280.6
 30 09 2013  18 16  -21.0339 26048.2 -03486.3 -07.6231 26280.4
 30 09 2013  18 17  -21.0335 26048.1 -03486.2 -07.6230 26280.3
 30 09 2013  18 18  -21.0332 26047.9 -03486.1 -07.6228 26280.1
 30 09 2013  18 19  -21.0328 26047.7 -03486.0 -07.6226 26280.0
 30 09 2013  18 20  -21.0325 26047.7 -03485.9 -07.6226 26279.9
 30 09 2013  18 21  -21.0321 26047.6 -03485.9 -07.6224 26279.8
 30 09 2013  18 22  -21.0317 26047.6 -03485.8 -07.6223 26279.8
 30 09 2013  18 23  -21.0314 26047.4 -03485.7 -07.6222 26279.6
 30 09 2013  18 24  -21.0311 26047.4 -03485.7 -07.6221 26279.6
 30 09 2013  18 25  -21.0306 26047.4 -03485.6 -07.6219 26279.6
 30 09 2013  18 26  -21.0304 26047.3 -03485.6 -07.6218 26279.5
 30 09 2013  18 27  -21.0299 26047.2 -03485.5 -07.6216 26279.3
 30 09 2013  18 28  -21.0294 26047.1 -03485.4 -07.6214 26279.3
 30 09 2013  18 29  -21.0290 26047.0 -03485.2 -07.6212 26279.1
 30 09 2013  18 30  -21.0286 26046.9 -03485.2 -07.6211 26279.1
 30 09 2013  18 31  -21.0282 26046.9 -03485.1 -07.6209 26279.0
 30 09 2013  18 32  -21.0279 26046.8 -03485.0 -07.6207 26278.9
 30 09 2013  18 33  -21.0276 26046.7 -03484.9 -07.6206 26278.8
 30 09 2013  18 34  -21.0273 26046.7 -03484.9 -07.6205 26278.8
 30 09 2013  18 35  -21.0272 26046.5 -03484.7 -07.6203 26278.6
 30 09 2013  18 36  -21.0268 26046.3 -03484.6 -07.6200 26278.3
 30 09 2013  18 37  -21.0266 26046.1 -03484.5 -07.6199 26278.2
 30 09 2013  18 38  -21.0264 26046.0 -03484.5 -07.6198 26278.1
 30 09 2013  18 39  -21.0262 26045.9 -03484.4 -07.6196 26277.9
 30 09 2013  18 40  -21.0260 26045.8 -03484.3 -07.6194 26277.8
 30 09 2013  18 41  -21.0258 26045.7 -03484.2 -07.6193 26277.7
 30 09 2013  18 42  -21.0256 26045.5 -03484.1 -07.6192 26277.5
 30 09 2013  18 43  -21.0255 26045.3 -03484.0 -07.6191 26277.3
 30 09 2013  18 44  -21.0253 26045.2 -03483.9 -07.6189 26277.2
 30 09 2013  18 45  -21.0251 26045.1 -03483.9 -07.6189 26277.0
 30 09 2013  18 46  -21.0250 26045.0 -03483.9 -07.6188 26277.0
 30 09 2013  18 47  -21.0249 26045.0 -03483.8 -07.6188 26277.0
 30 09 2013  18 48  -21.0248 26044.9 -03483.8 -07.6187 26276.8
 30 09 2013  18 49  -21.0247 26044.7 -03483.7 -07.6185 26276.7
 30 09 2013  18 50  -21.0245 26044.6 -03483.6 -07.6184 26276.5
 30 09 2013  18 51  -21.0243 26044.4 -03483.5 -07.6182 26276.3
 30 09 2013  18 52  -21.0242 26044.3 -03483.5 -07.6182 26276.2
 30 09 2013  18 53  -21.0243 26044.2 -03483.5 -07.6182 26276.1
 30 09 2013  18 54  -21.0242 26044.1 -03483.4 -07.6182 26276.1
 30 09 2013  18 55  -21.0242 26044.1 -03483.4 -07.6181 26276.0
 30 09 2013  18 56  -21.0241 26043.9 -03483.3 -07.6180 26275.8
 30 09 2013  18 57  -21.0241 26043.9 -03483.3 -07.6179 26275.8
 30 09 2013  18 58  -21.0242 26043.8 -03483.3 -07.6178 26275.7
 30 09 2013  18 59  -21.0242 26043.8 -03483.2 -07.6177 26275.7
 30 09 2013  19 00  -21.0242 26043.7 -03483.1 -07.6176 26275.6
 30 09 2013  19 01  -21.0242 26043.5 -03483.1 -07.6176 26275.4
 30 09 2013  19 02  -21.0242 26043.5 -03483.1 -07.6175 26275.4
 30 09 2013  19 03  -21.0242 26043.4 -03483.0 -07.6174 26275.3
 30 09 2013  19 04  -21.0242 26043.2 -03482.9 -07.6173 26275.1
 30 09 2013  19 05  -21.0239 26043.0 -03482.8 -07.6171 26274.9
 30 09 2013  19 06  -21.0239 26042.8 -03482.7 -07.6170 26274.6
 30 09 2013  19 07  -21.0239 26042.6 -03482.7 -07.6170 26274.5
 30 09 2013  19 08  -21.0237 26042.6 -03482.7 -07.6169 26274.4
 30 09 2013  19 09  -21.0235 26042.5 -03482.6 -07.6169 26274.3
 30 09 2013  19 10  -21.0232 26042.3 -03482.5 -07.6167 26274.1
 30 09 2013  19 11  -21.0231 26042.3 -03482.5 -07.6167 26274.1
 30 09 2013  19 12  -21.0228 26042.2 -03482.5 -07.6167 26274.0
 30 09 2013  19 13  -21.0226 26042.1 -03482.4 -07.6165 26273.9
 30 09 2013  19 14  -21.0224 26042.0 -03482.3 -07.6164 26273.8
 30 09 2013  19 15  -21.0221 26041.9 -03482.3 -07.6164 26273.7
 30 09 2013  19 16  -21.0219 26041.8 -03482.3 -07.6164 26273.6
 30 09 2013  19 17  -21.0218 26041.8 -03482.3 -07.6164 26273.6
 30 09 2013  19 18  -21.0215 26041.5 -03482.1 -07.6161 26273.3
 30 09 2013  19 19  -21.0211 26041.3 -03482.1 -07.6160 26273.0
 30 09 2013  19 20  -21.0208 26041.2 -03482.1 -07.6160 26272.9
 30 09 2013  19 21  -21.0205 26041.1 -03482.0 -07.6160 26272.8
 30 09 2013  19 22  -21.0202 26040.9 -03482.0 -07.6160 26272.7
 30 09 2013  19 23  -21.0201 26040.8 -03482.0 -07.6160 26272.6
 30 09 2013  19 24  -21.0199 26040.6 -03482.0 -07.6160 26272.3
 30 09 2013  19 25  -21.0196 26040.4 -03481.9 -07.6159 26272.2
 30 09 2013  19 26  -21.0193 26040.3 -03481.9 -07.6159 26272.1
 30 09 2013  19 27  -21.0191 26040.3 -03481.8 -07.6158 26272.0
 30 09 2013  19 28  -21.0190 26040.0 -03481.7 -07.6157 26271.8
 30 09 2013  19 29  -21.0186 26039.9 -03481.7 -07.6157 26271.6
 30 09 2013  19 30  -21.0182 26039.7 -03481.6 -07.6154 26271.4
 30 09 2013  19 31  -21.0179 26039.5 -03481.5 -07.6153 26271.2
 30 09 2013  19 32  -21.0173 26039.4 -03481.4 -07.6152 26271.1
 30 09 2013  19 33  -21.0168 26039.1 -03481.4 -07.6151 26270.8
 30 09 2013  19 34  -21.0167 26039.1 -03481.4 -07.6151 26270.8
 30 09 2013  19 35  -21.0165 26038.9 -03481.3 -07.6151 26270.5
 30 09 2013  19 36  -21.0161 26038.6 -03481.1 -07.6148 26270.2
 30 09 2013  19 37  -21.0156 26038.4 -03481.0 -07.6146 26270.1
 30 09 2013  19 38  -21.0152 26038.3 -03481.0 -07.6145 26270.0
 30 09 2013  19 39  -21.0149 26038.1 -03480.9 -07.6144 26269.7
 30 09 2013  19 40  -21.0145 26037.9 -03480.9 -07.6145 26269.6
 30 09 2013  19 41  -21.0141 26037.9 -03480.9 -07.6146 26269.5
 30 09 2013  19 42  -21.0137 26037.7 -03480.8 -07.6144 26269.3
 30 09 2013  19 43  -21.0133 26037.5 -03480.8 -07.6144 26269.1
 30 09 2013  19 44  -21.0129 26037.6 -03480.9 -07.6146 26269.2
 30 09 2013  19 45  -21.0124 26037.5 -03481.0 -07.6147 26269.2
 30 09 2013  19 46  -21.0122 26037.5 -03481.0 -07.6148 26269.2
 30 09 2013  19 47  -21.0118 26037.5 -03481.0 -07.6148 26269.2
 30 09 2013  19 48  -21.0115 26037.5 -03481.1 -07.6149 26269.2
 30 09 2013  19 49  -21.0111 26037.4 -03481.1 -07.6150 26269.1
 30 09 2013  19 50  -21.0108 26037.3 -03481.1 -07.6151 26269.0
 30 09 2013  19 51  -21.0104 26037.2 -03481.1 -07.6150 26268.8
 30 09 2013  19 52  -21.0101 26037.1 -03481.1 -07.6151 26268.8
 30 09 2013  19 53  -21.0099 26037.0 -03481.1 -07.6152 26268.6
 30 09 2013  19 54  -21.0096 26036.8 -03481.1 -07.6152 26268.5
 30 09 2013  19 55  -21.0093 26036.7 -03481.1 -07.6153 26268.4
 30 09 2013  19 56  -21.0089 26036.7 -03481.1 -07.6153 26268.3
 30 09 2013  19 57  -21.0087 26036.5 -03481.1 -07.6154 26268.1
 30 09 2013  19 58  -21.0083 26036.3 -03481.1 -07.6154 26268.0
 30 09 2013  19 59  -21.0079 26036.1 -03481.1 -07.6155 26267.8
 30 09 2013  20 00  -21.0076 26036.0 -03481.2 -07.6156 26267.7
 30 09 2013  20 01  -21.0072 26035.9 -03481.2 -07.6157 26267.6
 30 09 2013  20 02  -21.0069 26035.8 -03481.3 -07.6159 26267.5
 30 09 2013  20 03  -21.0065 26035.8 -03481.4 -07.6162 26267.5
 30 09 2013  20 04  -21.0062 26035.8 -03481.5 -07.6164 26267.5
 30 09 2013  20 05  -21.0060 26035.7 -03481.6 -07.6166 26267.5
 30 09 2013  20 06  -21.0058 26035.7 -03481.6 -07.6167 26267.5
 30 09 2013  20 07  -21.0056 26035.7 -03481.7 -07.6169 26267.4
 30 09 2013  20 08  -21.0055 26035.6 -03481.7 -07.6170 26267.3
 30 09 2013  20 09  -21.0053 26035.4 -03481.8 -07.6171 26267.2
 30 09 2013  20 10  -21.0051 26035.3 -03481.8 -07.6173 26267.1
 30 09 2013  20 11  -21.0049 26035.2 -03481.9 -07.6174 26267.0
 30 09 2013  20 12  -21.0049 26035.2 -03482.0 -07.6176 26267.0
 30 09 2013  20 13  -21.0051 26035.1 -03482.0 -07.6177 26267.0
 30 09 2013  20 14  -21.0071 26034.6 -03481.9 -07.6176 26266.4
 30 09 2013  20 15  -21.0069 26034.5 -03481.9 -07.6177 26266.3
 30 09 2013  20 16  -21.0067 26034.4 -03482.0 -07.6178 26266.2
 30 09 2013  20 17  -21.0065 26034.3 -03482.0 -07.6179 26266.1
 30 09 2013  20 18  -21.0062 26034.3 -03482.1 -07.6181 26266.1
 30 09 2013  20 19  -21.0060 26034.2 -03482.1 -07.6182 26266.0
 30 09 2013  20 20  -21.0059 26034.1 -03482.2 -07.6184 26265.9
 30 09 2013  20 21  -21.0058 26034.0 -03482.2 -07.6185 26265.9
 30 09 2013  20 22  -21.0056 26033.9 -03482.3 -07.6186 26265.8
 30 09 2013  20 23  -21.0055 26033.8 -03482.3 -07.6188 26265.7
 30 09 2013  20 24  -21.0052 26033.7 -03482.4 -07.6188 26265.5
 30 09 2013  20 25  -21.0051 26033.6 -03482.5 -07.6191 26265.5
 30 09 2013  20 26  -21.0045 26033.6 -03482.6 -07.6193 26265.5
 30 09 2013  20 27  -21.0025 26033.8 -03482.8 -07.6198 26265.8
 30 09 2013  20 28  -21.0024 26033.7 -03482.9 -07.6200 26265.6
 30 09 2013  20 29  -21.0025 26033.5 -03483.0 -07.6202 26265.5
 30 09 2013  20 30  -21.0024 26033.5 -03483.1 -07.6204 26265.4
 30 09 2013  20 31  -21.0024 26033.3 -03483.1 -07.6206 26265.3
 30 09 2013  20 32  -21.0023 26033.1 -03483.2 -07.6209 26265.1
 30 09 2013  20 33  -21.0022 26033.1 -03483.3 -07.6210 26265.1
 30 09 2013  20 34  -21.0023 26032.9 -03483.4 -07.6213 26264.9
 30 09 2013  20 35  -21.0023 26032.8 -03483.5 -07.6216 26264.8
 30 09 2013  20 36  -21.0023 26032.6 -03483.5 -07.6216 26264.6
 30 09 2013  20 37  -21.0023 26032.5 -03483.6 -07.6219 26264.6
 30 09 2013  20 38  -21.0022 26032.5 -03483.8 -07.6222 26264.6
 30 09 2013  20 39  -21.0023 26032.3 -03483.8 -07.6224 26264.4
 30 09 2013  20 40  -21.0024 26032.3 -03484.0 -07.6228 26264.4
 30 09 2013  20 41  -21.0025 26032.2 -03484.1 -07.6231 26264.4
 30 09 2013  20 42  -21.0025 26032.1 -03484.2 -07.6233 26264.3
 30 09 2013  20 43  -21.0026 26032.0 -03484.3 -07.6235 26264.2
 30 09 2013  20 44  -21.0028 26032.1 -03484.4 -07.6238 26264.2
 30 09 2013  20 45  -21.0028 26032.1 -03484.6 -07.6242 26264.3
 30 09 2013  20 46  -21.0029 26031.9 -03484.7 -07.6243 26264.1
 30 09 2013  20 47  -21.0029 26032.0 -03484.8 -07.6246 26264.2
 30 09 2013  20 48  -21.0030 26031.9 -03484.9 -07.6249 26264.1
 30 09 2013  20 49  -21.0032 26031.9 -03485.1 -07.6252 26264.2
 30 09 2013  20 50  -21.0033 26031.9 -03485.2 -07.6255 26264.2
 30 09 2013  20 51  -21.0034 26031.9 -03485.3 -07.6258 26264.2
 30 09 2013  20 52  -21.0036 26031.8 -03485.4 -07.6260 26264.1
 30 09 2013  20 53  -21.0036 26031.9 -03485.5 -07.6262 26264.2
 30 09 2013  20 54  -21.0037 26031.8 -03485.6 -07.6263 26264.1
 30 09 2013  20 55  -21.0038 26031.9 -03485.7 -07.6266 26264.2
 30 09 2013  20 56  -21.0039 26031.8 -03485.8 -07.6269 26264.2
 30 09 2013  20 57  -21.0040 26031.8 -03485.9 -07.6271 26264.2
 30 09 2013  20 58  -21.0041 26031.8 -03486.0 -07.6273 26264.2
 30 09 2013  20 59  -21.0042 26031.8 -03486.1 -07.6276 26264.2
 30 09 2013  21 00  -21.0043 26031.9 -03486.3 -07.6280 26264.3
 30 09 2013  21 01  -21.0044 26032.1 -03486.5 -07.6283 26264.5
 30 09 2013  21 02  -21.0046 26032.1 -03486.6 -07.6285 26264.5
 30 09 2013  21 03  -21.0048 26031.8 -03486.6 -07.6286 26264.3
 30 09 2013  21 04  -21.0049 26031.8 -03486.7 -07.6287 26264.3
 30 09 2013  21 05  -21.0051 26032.0 -03486.8 -07.6290 26264.4
 30 09 2013  21 06  -21.0053 26032.0 -03487.0 -07.6293 26264.5
 30 09 2013  21 07  -21.0054 26031.9 -03487.0 -07.6295 26264.4
 30 09 2013  21 08  -21.0057 26031.8 -03487.1 -07.6296 26264.3
 30 09 2013  21 09  -21.0059 26031.9 -03487.2 -07.6298 26264.4
 30 09 2013  21 10  -21.0062 26032.0 -03487.4 -07.6302 26264.5
 30 09 2013  21 11  -21.0063 26032.0 -03487.4 -07.6302 26264.5
 30 09 2013  21 12  -21.0065 26032.0 -03487.5 -07.6304 26264.5
 30 09 2013  21 13  -21.0067 26031.9 -03487.5 -07.6304 26264.4
 30 09 2013  21 14  -21.0068 26031.8 -03487.5 -07.6305 26264.4
 30 09 2013  21 15  -21.0069 26031.8 -03487.5 -07.6306 26264.4
 30 09 2013  21 16  -21.0071 26031.7 -03487.5 -07.6306 26264.3
 30 09 2013  21 17  -21.0073 26031.6 -03487.6 -07.6307 26264.2
 30 09 2013  21 18  -21.0073 26031.7 -03487.6 -07.6308 26264.2
 30 09 2013  21 19  -21.0074 26031.6 -03487.7 -07.6310 26264.2
 30 09 2013  21 20  -21.0076 26031.6 -03487.7 -07.6310 26264.2
 30 09 2013  21 21  -21.0077 26031.6 -03487.7 -07.6310 26264.2
 30 09 2013  21 22  -21.0077 26031.7 -03487.8 -07.6311 26264.3
 30 09 2013  21 23  -21.0077 26031.7 -03487.8 -07.6311 26264.3
 30 09 2013  21 24  -21.0079 26031.6 -03487.8 -07.6312 26264.2
 30 09 2013  21 25  -21.0079 26031.6 -03487.8 -07.6311 26264.3
 30 09 2013  21 26  -21.0079 26031.7 -03487.9 -07.6315 26264.3
 30 09 2013  21 27  -21.0080 26031.8 -03488.0 -07.6316 26264.5
 30 09 2013  21 28  -21.0080 26031.7 -03488.1 -07.6317 26264.4
 30 09 2013  21 29  -21.0080 26031.7 -03488.0 -07.6317 26264.3
 30 09 2013  21 30  -21.0081 26031.7 -03488.0 -07.6317 26264.4
 30 09 2013  21 31  -21.0081 26031.8 -03488.1 -07.6318 26264.4
 30 09 2013  21 32  -21.0082 26031.7 -03488.1 -07.6319 26264.4
 30 09 2013  21 33  -21.0083 26031.7 -03488.1 -07.6319 26264.3
 30 09 2013  21 34  -21.0082 26031.7 -03488.2 -07.6320 26264.4
 30 09 2013  21 35  -21.0083 26031.7 -03488.2 -07.6321 26264.4
 30 09 2013  21 36  -21.0084 26031.6 -03488.2 -07.6321 26264.3
 30 09 2013  21 37  -21.0085 26031.5 -03488.2 -07.6321 26264.2
 30 09 2013  21 38  -21.0085 26031.6 -03488.2 -07.6322 26264.2
 30 09 2013  21 39  -21.0085 26031.7 -03488.3 -07.6323 26264.4
 30 09 2013  21 40  -21.0086 26031.8 -03488.4 -07.6325 26264.5
 30 09 2013  21 41  -21.0087 26031.8 -03488.5 -07.6326 26264.5
 30 09 2013  21 42  -21.0086 26031.7 -03488.4 -07.6325 26264.4
 30 09 2013  21 43  -21.0086 26031.6 -03488.4 -07.6325 26264.3
 30 09 2013  21 44  -21.0085 26031.6 -03488.4 -07.6325 26264.3
 30 09 2013  21 45  -21.0085 26031.6 -03488.4 -07.6325 26264.3
 30 09 2013  21 46  -21.0085 26031.4 -03488.4 -07.6325 26264.1
 30 09 2013  21 47  -21.0085 26031.4 -03488.4 -07.6325 26264.1
 30 09 2013  21 48  -21.0084 26031.4 -03488.4 -07.6326 26264.1
 30 09 2013  21 49  -21.0084 26031.5 -03488.5 -07.6327 26264.2
 30 09 2013  21 50  -21.0084 26031.5 -03488.5 -07.6328 26264.2
 30 09 2013  21 51  -21.0083 26031.4 -03488.5 -07.6328 26264.1
 30 09 2013  21 52  -21.0083 26031.4 -03488.5 -07.6328 26264.1
 30 09 2013  21 53  -21.0084 26031.4 -03488.5 -07.6329 26264.1
 30 09 2013  21 54  -21.0085 26031.3 -03488.5 -07.6329 26264.0
 30 09 2013  21 55  -21.0085 26031.3 -03488.6 -07.6330 26264.0
 30 09 2013  21 56  -21.0085 26031.3 -03488.6 -07.6331 26264.0
 30 09 2013  21 57  -21.0086 26031.3 -03488.7 -07.6332 26264.0
 30 09 2013  21 58  -21.0087 26031.3 -03488.7 -07.6333 26264.0
 30 09 2013  21 59  -21.0088 26031.2 -03488.7 -07.6333 26263.9
 30 09 2013  22 00  -21.0087 26031.0 -03488.6 -07.6331 26263.7
 30 09 2013  22 01  -21.0088 26030.8 -03488.5 -07.6330 26263.5
 30 09 2013  22 02  -21.0087 26030.7 -03488.5 -07.6331 26263.5
 30 09 2013  22 03  -21.0087 26030.7 -03488.6 -07.6331 26263.4
 30 09 2013  22 04  -21.0086 26030.7 -03488.6 -07.6332 26263.4
 30 09 2013  22 05  -21.0087 26030.6 -03488.6 -07.6333 26263.3
 30 09 2013  22 06  -21.0087 26030.5 -03488.6 -07.6333 26263.2
 30 09 2013  22 07  -21.0087 26030.4 -03488.5 -07.6332 26263.1
 30 09 2013  22 08  -21.0088 26030.3 -03488.6 -07.6333 26263.0
 30 09 2013  22 09  -21.0087 26030.2 -03488.6 -07.6333 26263.0
 30 09 2013  22 10  -21.0085 26030.2 -03488.6 -07.6334 26262.9
 30 09 2013  22 11  -21.0085 26030.1 -03488.6 -07.6334 26262.8
 30 09 2013  22 12  -21.0085 26030.1 -03488.6 -07.6334 26262.8
 30 09 2013  22 13  -21.0085 26030.2 -03488.7 -07.6336 26262.9
 30 09 2013  22 14  -21.0085 26030.3 -03488.8 -07.6338 26263.1
 30 09 2013  22 15  -21.0085 26030.4 -03488.9 -07.6340 26263.1
 30 09 2013  22 16  -21.0086 26030.4 -03489.0 -07.6340 26263.2
 30 09 2013  22 17  -21.0085 26030.4 -03489.0 -07.6341 26263.2
 30 09 2013  22 18  -21.0086 26030.4 -03489.0 -07.6342 26263.1
 30 09 2013  22 19  -21.0085 26030.3 -03489.0 -07.6341 26263.1
 30 09 2013  22 20  -21.0086 26030.4 -03489.0 -07.6342 26263.2
 30 09 2013  22 21  -21.0087 26030.4 -03489.1 -07.6344 26263.2
 30 09 2013  22 22  -21.0087 26030.4 -03489.1 -07.6344 26263.2
 30 09 2013  22 23  -21.0088 26030.4 -03489.1 -07.6345 26263.2
 30 09 2013  22 24  -21.0087 26030.2 -03489.1 -07.6344 26263.0
 30 09 2013  22 25  -21.0087 26029.9 -03489.0 -07.6343 26262.7
 30 09 2013  22 26  -21.0085 26029.8 -03489.0 -07.6342 26262.6
 30 09 2013  22 27  -21.0085 26029.8 -03488.9 -07.6342 26262.6
 30 09 2013  22 28  -21.0084 26029.8 -03489.0 -07.6343 26262.6
 30 09 2013  22 29  -21.0084 26029.8 -03489.0 -07.6344 26262.6
 30 09 2013  22 30  -21.0084 26029.8 -03489.1 -07.6345 26262.6
 30 09 2013  22 31  -21.0085 26029.8 -03489.1 -07.6346 26262.6
 30 09 2013  22 32  -21.0085 26029.7 -03489.1 -07.6346 26262.5
 30 09 2013  22 33  -21.0085 26029.6 -03489.1 -07.6346 26262.4
 30 09 2013  22 34  -21.0085 26029.5 -03489.1 -07.6346 26262.4
 30 09 2013  22 35  -21.0085 26029.6 -03489.1 -07.6347 26262.4
 30 09 2013  22 36  -21.0085 26029.5 -03489.2 -07.6348 26262.4
 30 09 2013  22 37  -21.0084 26029.5 -03489.2 -07.6349 26262.3
 30 09 2013  22 38  -21.0084 26029.4 -03489.2 -07.6348 26262.3
 30 09 2013  22 39  -21.0084 26029.4 -03489.2 -07.6349 26262.2
 30 09 2013  22 40  -21.0084 26029.4 -03489.2 -07.6350 26262.2
 30 09 2013  22 41  -21.0083 26029.5 -03489.3 -07.6350 26262.3
 30 09 2013  22 42  -21.0083 26029.5 -03489.4 -07.6352 26262.4
 30 09 2013  22 43  -21.0082 26029.5 -03489.4 -07.6352 26262.4
 30 09 2013  22 44  -21.0082 26029.5 -03489.4 -07.6352 26262.3
 30 09 2013  22 45  -21.0079 26029.4 -03489.4 -07.6352 26262.3
 30 09 2013  22 46  -21.0078 26029.5 -03489.4 -07.6352 26262.3
 30 09 2013  22 47  -21.0076 26029.4 -03489.4 -07.6353 26262.2
 30 09 2013  22 48  -21.0073 26029.3 -03489.4 -07.6353 26262.1
 30 09 2013  22 49  -21.0073 26029.2 -03489.4 -07.6353 26262.1
 30 09 2013  22 50  -21.0075 26029.3 -03489.4 -07.6354 26262.1
 30 09 2013  22 51  -21.0077 26029.1 -03489.4 -07.6354 26262.0
 30 09 2013  22 52  -21.0077 26029.2 -03489.4 -07.6354 26262.1
 30 09 2013  22 53  -21.0075 26029.4 -03489.5 -07.6356 26262.2
 30 09 2013  22 54  -21.0076 26029.3 -03489.5 -07.6356 26262.1
 30 09 2013  22 55  -21.0075 26029.1 -03489.4 -07.6355 26262.0
 30 09 2013  22 56  -21.0075 26029.1 -03489.5 -07.6355 26262.0
 30 09 2013  22 57  -21.0076 26029.2 -03489.5 -07.6356 26262.0
 30 09 2013  22 58  -21.0076 26029.3 -03489.6 -07.6358 26262.2
 30 09 2013  22 59  -21.0075 26029.5 -03489.7 -07.6359 26262.4
 30 09 2013  23 00  -21.0074 26029.5 -03489.7 -07.6360 26262.4
 30 09 2013  23 01  -21.0074 26029.4 -03489.7 -07.6359 26262.3
 30 09 2013  23 02  -21.0074 26029.2 -03489.6 -07.6358 26262.1
 30 09 2013  23 03  -21.0073 26029.3 -03489.6 -07.6358 26262.2
 30 09 2013  23 04  -21.0072 26029.5 -03489.7 -07.6359 26262.4
 30 09 2013  23 05  -21.0070 26029.5 -03489.7 -07.6360 26262.4
 30 09 2013  23 06  -21.0068 26029.4 -03489.7 -07.6360 26262.3
 30 09 2013  23 07  -21.0067 26029.5 -03489.8 -07.6360 26262.4
 30 09 2013  23 08  -21.0066 26029.6 -03489.8 -07.6361 26262.5
 30 09 2013  23 09  -21.0066 26029.7 -03489.8 -07.6362 26262.6
 30 09 2013  23 10  -21.0065 26029.7 -03489.9 -07.6362 26262.6
 30 09 2013  23 11  -21.0065 26029.6 -03489.8 -07.6362 26262.5
 30 09 2013  23 12  -21.0065 26029.6 -03489.8 -07.6361 26262.5
 30 09 2013  23 13  -21.0065 26029.5 -03489.8 -07.6361 26262.4
 30 09 2013  23 14  -21.0064 26029.4 -03489.7 -07.6360 26262.3
 30 09 2013  23 15  -21.0064 26029.5 -03489.7 -07.6360 26262.4
 30 09 2013  23 16  -21.0063 26029.5 -03489.7 -07.6360 26262.4
 30 09 2013  23 17  -21.0064 26029.5 -03489.8 -07.6361 26262.4
 30 09 2013  23 18  -21.0064 26029.5 -03489.8 -07.6361 26262.4
 30 09 2013  23 19  -21.0064 26029.5 -03489.8 -07.6362 26262.4
 30 09 2013  23 20  -21.0065 26029.5 -03489.8 -07.6361 26262.4
 30 09 2013  23 21  -21.0065 26029.5 -03489.8 -07.6361 26262.4
 30 09 2013  23 22  -21.0065 26029.5 -03489.8 -07.6361 26262.4
 30 09 2013  23 23  -21.0064 26029.5 -03489.8 -07.6361 26262.4
 30 09 2013  23 24  -21.0064 26029.6 -03489.8 -07.6361 26262.5
 30 09 2013  23 25  -21.0062 26029.4 -03489.7 -07.6360 26262.3
 30 09 2013  23 26  -21.0061 26029.3 -03489.7 -07.6359 26262.2
 30 09 2013  23 27  -21.0061 26029.3 -03489.7 -07.6359 26262.2
 30 09 2013  23 28  -21.0059 26029.3 -03489.6 -07.6359 26262.1
 30 09 2013  23 29  -21.0059 26029.2 -03489.6 -07.6358 26262.1
 30 09 2013  23 30  -21.0057 26029.2 -03489.6 -07.6359 26262.1
 30 09 2013  23 31  -21.0057 26029.2 -03489.7 -07.6359 26262.1
 30 09 2013  23 32  -21.0057 26029.2 -03489.7 -07.6359 26262.1
 30 09 2013  23 33  -21.0056 26029.3 -03489.7 -07.6359 26262.1
 30 09 2013  23 34  -21.0056 26029.2 -03489.6 -07.6359 26262.0
 30 09 2013  23 35  -21.0055 26029.1 -03489.6 -07.6359 26262.0
 30 09 2013  23 36  -21.0054 26029.2 -03489.6 -07.6359 26262.1
 30 09 2013  23 37  -21.0053 26029.2 -03489.7 -07.6360 26262.1
 30 09 2013  23 38  -21.0052 26029.3 -03489.7 -07.6360 26262.2
 30 09 2013  23 39  -21.0052 26029.4 -03489.8 -07.6361 26262.3
 30 09 2013  23 40  -21.0051 26029.4 -03489.8 -07.6362 26262.3
 30 09 2013  23 41  -21.0050 26029.5 -03489.8 -07.6362 26262.4
 30 09 2013  23 42  -21.0049 26029.5 -03489.8 -07.6362 26262.4
 30 09 2013  23 43  -21.0048 26029.4 -03489.8 -07.6362 26262.3
 30 09 2013  23 44  -21.0047 26029.4 -03489.8 -07.6362 26262.3
 30 09 2013  23 45  -21.0046 26029.4 -03489.8 -07.6362 26262.3
 30 09 2013  23 46  -21.0045 26029.3 -03489.7 -07.6361 26262.2
 30 09 2013  23 47  -21.0045 26029.2 -03489.7 -07.6360 26262.1
 30 09 2013  23 48  -21.0044 26029.1 -03489.7 -07.6360 26262.0
 30 09 2013  23 49  -21.0043 26029.0 -03489.7 -07.6360 26261.9
 30 09 2013  23 50  -21.0042 26029.0 -03489.6 -07.6360 26261.9
 30 09 2013  23 51  -21.0042 26028.9 -03489.6 -07.6359 26261.8
 30 09 2013  23 52  -21.0040 26028.9 -03489.6 -07.6360 26261.7
 30 09 2013  23 53  -21.0039 26028.9 -03489.7 -07.6360 26261.8
 30 09 2013  23 54  -21.0039 26028.9 -03489.7 -07.6360 26261.8
 30 09 2013  23 55  -21.0038 26028.8 -03489.7 -07.6361 26261.7
 30 09 2013  23 56  -21.0038 26028.8 -03489.7 -07.6361 26261.7
 30 09 2013  23 57  -21.0039 26028.8 -03489.7 -07.6361 26261.6
