SAO LUIS EMBRACE-03 <334> 1 Min. Reported data

 DD MM YYYY  HH MM   D(Deg)  H(nT)   Z(nT)   I(Deg)   F(nT)

 30 11 2013  00 00  -21.0123 26020.0 -03512.1 -07.6871 26256.0
 30 11 2013  00 01  -21.0125 26020.1 -03512.1 -07.6872 26256.0
 30 11 2013  00 02  -21.0129 26020.1 -03512.2 -07.6874 26256.1
 30 11 2013  00 03  -21.0132 26020.1 -03512.3 -07.6875 26256.1
 30 11 2013  00 04  -21.0135 26020.1 -03512.3 -07.6876 26256.1
 30 11 2013  00 05  -21.0137 26020.1 -03512.3 -07.6875 26256.0
 30 11 2013  00 06  -21.0138 26020.0 -03512.3 -07.6875 26256.0
 30 11 2013  00 07  -21.0138 26020.0 -03512.3 -07.6876 26256.0
 30 11 2013  00 08  -21.0138 26020.0 -03512.3 -07.6875 26256.0
 30 11 2013  00 09  -21.0138 26019.9 -03512.3 -07.6875 26255.9
 30 11 2013  00 10  -21.0138 26019.8 -03512.2 -07.6874 26255.8
 30 11 2013  00 11  -21.0137 26019.8 -03512.2 -07.6874 26255.7
 30 11 2013  00 12  -21.0135 26019.8 -03512.2 -07.6875 26255.8
 30 11 2013  00 13  -21.0132 26019.9 -03512.3 -07.6876 26255.9
 30 11 2013  00 14  -21.0132 26019.9 -03512.3 -07.6876 26255.9
 30 11 2013  00 15  -21.0131 26019.9 -03512.4 -07.6877 26255.9
 30 11 2013  00 16  -21.0129 26019.9 -03512.4 -07.6877 26255.9
 30 11 2013  00 17  -21.0128 26019.9 -03512.4 -07.6878 26255.9
 30 11 2013  00 18  -21.0126 26020.0 -03512.4 -07.6879 26256.0
 30 11 2013  00 19  -21.0125 26020.0 -03512.5 -07.6879 26256.0
 30 11 2013  00 20  -21.0123 26020.0 -03512.5 -07.6879 26256.0
 30 11 2013  00 21  -21.0119 26020.2 -03512.5 -07.6880 26256.2
 30 11 2013  00 22  -21.0116 26020.1 -03512.5 -07.6881 26256.1
 30 11 2013  00 23  -21.0114 26020.1 -03512.6 -07.6881 26256.1
 30 11 2013  00 24  -21.0111 26020.1 -03512.5 -07.6880 26256.1
 30 11 2013  00 25  -21.0111 26020.1 -03512.6 -07.6881 26256.1
 30 11 2013  00 26  -21.0109 26020.0 -03512.6 -07.6881 26256.0
 30 11 2013  00 27  -21.0107 26019.9 -03512.5 -07.6880 26255.9
 30 11 2013  00 28  -21.0106 26019.8 -03512.5 -07.6880 26255.8
 30 11 2013  00 29  -21.0103 26019.7 -03512.4 -07.6879 26255.7
 30 11 2013  00 30  -21.0100 26019.7 -03512.4 -07.6879 26255.7
 30 11 2013  00 31  -21.0100 26019.6 -03512.4 -07.6880 26255.6
 30 11 2013  00 32  -21.0099 26019.5 -03512.4 -07.6879 26255.5
 30 11 2013  00 33  -21.0096 26019.5 -03512.4 -07.6880 26255.5
 30 11 2013  00 34  -21.0094 26019.5 -03512.5 -07.6881 26255.5
 30 11 2013  00 35  -21.0097 26019.5 -03512.5 -07.6882 26255.5
 30 11 2013  00 36  -21.0094 26019.7 -03512.7 -07.6885 26255.8
 30 11 2013  00 37  -21.0094 26019.7 -03512.7 -07.6885 26255.7
 30 11 2013  00 38  -21.0093 26019.8 -03512.8 -07.6886 26255.8
 30 11 2013  00 39  -21.0090 26020.0 -03512.9 -07.6888 26256.0
 30 11 2013  00 40  -21.0086 26020.1 -03513.0 -07.6890 26256.2
 30 11 2013  00 41  -21.0083 26020.2 -03513.0 -07.6891 26256.3
 30 11 2013  00 42  -21.0081 26020.3 -03513.1 -07.6892 26256.4
 30 11 2013  00 43  -21.0079 26020.4 -03513.2 -07.6893 26256.5
 30 11 2013  00 44  -21.0077 26020.3 -03513.2 -07.6893 26256.4
 30 11 2013  00 45  -21.0074 26020.3 -03513.1 -07.6893 26256.4
 30 11 2013  00 46  -21.0072 26020.3 -03513.2 -07.6893 26256.4
 30 11 2013  00 47  -21.0070 26020.3 -03513.2 -07.6894 26256.4
 30 11 2013  00 48  -21.0068 26020.3 -03513.2 -07.6895 26256.4
 30 11 2013  00 49  -21.0068 26020.2 -03513.2 -07.6895 26256.3
 30 11 2013  00 50  -21.0068 26020.3 -03513.3 -07.6896 26256.4
 30 11 2013  00 51  -21.0067 26020.5 -03513.4 -07.6899 26256.6
 30 11 2013  00 52  -21.0069 26020.7 -03513.6 -07.6901 26256.9
 30 11 2013  00 53  -21.0072 26020.9 -03513.7 -07.6904 26257.0
 30 11 2013  00 54  -21.0075 26021.1 -03513.8 -07.6905 26257.2
 30 11 2013  00 55  -21.0076 26021.2 -03513.9 -07.6907 26257.4
 30 11 2013  00 56  -21.0076 26021.2 -03513.9 -07.6906 26257.4
 30 11 2013  00 57  -21.0074 26021.1 -03513.8 -07.6906 26257.3
 30 11 2013  00 58  -21.0073 26020.9 -03513.7 -07.6903 26257.1
 30 11 2013  00 59  -21.0072 26020.7 -03513.5 -07.6901 26256.8
 30 11 2013  01 00  -21.0072 26020.5 -03513.5 -07.6899 26256.6
 30 11 2013  01 01  -21.0073 26020.3 -03513.4 -07.6898 26256.5
 30 11 2013  01 02  -21.0074 26020.3 -03513.4 -07.6900 26256.4
 30 11 2013  01 03  -21.0076 26020.4 -03513.5 -07.6901 26256.6
 30 11 2013  01 04  -21.0077 26020.6 -03513.6 -07.6902 26256.7
 30 11 2013  01 05  -21.0078 26020.7 -03513.8 -07.6905 26256.9
 30 11 2013  01 06  -21.0081 26020.9 -03513.8 -07.6906 26257.1
 30 11 2013  01 07  -21.0083 26021.2 -03514.0 -07.6909 26257.4
 30 11 2013  01 08  -21.0081 26021.5 -03514.1 -07.6911 26257.7
 30 11 2013  01 09  -21.0079 26021.6 -03514.2 -07.6912 26257.9
 30 11 2013  01 10  -21.0079 26021.6 -03514.2 -07.6912 26257.8
 30 11 2013  01 11  -21.0079 26021.7 -03514.2 -07.6912 26257.9
 30 11 2013  01 12  -21.0078 26021.3 -03514.0 -07.6909 26257.5
 30 11 2013  01 13  -21.0075 26021.3 -03514.0 -07.6909 26257.5
 30 11 2013  01 14  -21.0071 26021.0 -03513.9 -07.6908 26257.2
 30 11 2013  01 15  -21.0071 26020.8 -03513.8 -07.6906 26257.0
 30 11 2013  01 16  -21.0073 26020.3 -03513.7 -07.6904 26256.5
 30 11 2013  01 17  -21.0068 26019.8 -03513.5 -07.6901 26256.0
 30 11 2013  01 18  -21.0066 26019.4 -03513.2 -07.6898 26255.5
 30 11 2013  01 19  -21.0068 26019.0 -03513.2 -07.6898 26255.1
 30 11 2013  01 20  -21.0074 26018.7 -03513.2 -07.6898 26254.9
 30 11 2013  01 21  -21.0075 26018.9 -03513.3 -07.6901 26255.0
 30 11 2013  01 22  -21.0078 26019.2 -03513.6 -07.6905 26255.4
 30 11 2013  01 23  -21.0085 26019.8 -03513.9 -07.6912 26256.0
 30 11 2013  01 24  -21.0089 26020.3 -03514.2 -07.6917 26256.6
 30 11 2013  01 25  -21.0087 26020.7 -03514.4 -07.6920 26257.0
 30 11 2013  01 26  -21.0082 26020.9 -03514.5 -07.6921 26257.2
 30 11 2013  01 27  -21.0080 26021.0 -03514.6 -07.6922 26257.3
 30 11 2013  01 28  -21.0078 26020.8 -03514.5 -07.6921 26257.1
 30 11 2013  01 29  -21.0080 26020.8 -03514.5 -07.6921 26257.1
 30 11 2013  01 30  -21.0079 26020.8 -03514.5 -07.6921 26257.1
 30 11 2013  01 31  -21.0082 26020.5 -03514.3 -07.6918 26256.7
 30 11 2013  01 32  -21.0085 26020.2 -03514.2 -07.6915 26256.4
 30 11 2013  01 33  -21.0089 26019.9 -03514.0 -07.6913 26256.1
 30 11 2013  01 34  -21.0093 26019.7 -03513.9 -07.6912 26255.9
 30 11 2013  01 35  -21.0095 26019.4 -03513.8 -07.6911 26255.6
 30 11 2013  01 36  -21.0100 26019.2 -03513.7 -07.6909 26255.3
 30 11 2013  01 37  -21.0105 26019.1 -03513.7 -07.6908 26255.2
 30 11 2013  01 38  -21.0109 26019.0 -03513.7 -07.6909 26255.2
 30 11 2013  01 39  -21.0113 26018.9 -03513.7 -07.6908 26255.1
 30 11 2013  01 40  -21.0118 26018.9 -03513.6 -07.6908 26255.0
 30 11 2013  01 41  -21.0125 26018.9 -03513.6 -07.6908 26255.0
 30 11 2013  01 42  -21.0131 26018.9 -03513.7 -07.6909 26255.1
 30 11 2013  01 43  -21.0136 26018.9 -03513.7 -07.6909 26255.1
 30 11 2013  01 44  -21.0142 26019.0 -03513.7 -07.6909 26255.2
 30 11 2013  01 45  -21.0146 26019.1 -03513.7 -07.6909 26255.2
 30 11 2013  01 46  -21.0151 26019.1 -03513.8 -07.6910 26255.3
 30 11 2013  01 47  -21.0154 26019.2 -03513.8 -07.6910 26255.4
 30 11 2013  01 48  -21.0156 26019.2 -03513.7 -07.6909 26255.4
 30 11 2013  01 49  -21.0158 26019.1 -03513.7 -07.6909 26255.3
 30 11 2013  01 50  -21.0160 26019.1 -03513.7 -07.6909 26255.3
 30 11 2013  01 51  -21.0162 26019.1 -03513.7 -07.6908 26255.3
 30 11 2013  01 52  -21.0164 26019.1 -03513.6 -07.6907 26255.3
 30 11 2013  01 53  -21.0167 26019.0 -03513.7 -07.6908 26255.2
 30 11 2013  01 54  -21.0172 26019.1 -03513.7 -07.6908 26255.3
 30 11 2013  01 55  -21.0175 26019.0 -03513.7 -07.6908 26255.2
 30 11 2013  01 56  -21.0177 26019.0 -03513.6 -07.6907 26255.2
 30 11 2013  01 57  -21.0180 26019.1 -03513.6 -07.6907 26255.2
 30 11 2013  01 58  -21.0183 26019.0 -03513.6 -07.6907 26255.2
 30 11 2013  01 59  -21.0185 26018.8 -03513.5 -07.6906 26255.0
 30 11 2013  02 00  -21.0186 26018.7 -03513.4 -07.6904 26254.8
 30 11 2013  02 01  -21.0187 26018.6 -03513.4 -07.6903 26254.7
 30 11 2013  02 02  -21.0188 26018.4 -03513.3 -07.6901 26254.6
 30 11 2013  02 03  -21.0191 26018.4 -03513.3 -07.6901 26254.5
 30 11 2013  02 04  -21.0193 26018.3 -03513.3 -07.6901 26254.4
 30 11 2013  02 05  -21.0196 26018.2 -03513.2 -07.6901 26254.4
 30 11 2013  02 06  -21.0199 26018.3 -03513.3 -07.6901 26254.4
 30 11 2013  02 07  -21.0203 26018.4 -03513.4 -07.6903 26254.5
 30 11 2013  02 08  -21.0207 26018.6 -03513.5 -07.6905 26254.7
 30 11 2013  02 09  -21.0211 26018.8 -03513.6 -07.6907 26255.0
 30 11 2013  02 10  -21.0213 26019.0 -03513.7 -07.6909 26255.2
 30 11 2013  02 11  -21.0214 26019.2 -03513.7 -07.6909 26255.3
 30 11 2013  02 12  -21.0216 26019.2 -03513.7 -07.6909 26255.4
 30 11 2013  02 13  -21.0215 26019.1 -03513.7 -07.6908 26255.3
 30 11 2013  02 14  -21.0216 26019.1 -03513.6 -07.6906 26255.2
 30 11 2013  02 15  -21.0217 26019.0 -03513.6 -07.6906 26255.2
 30 11 2013  02 16  -21.0218 26018.9 -03513.5 -07.6904 26255.1
 30 11 2013  02 17  -21.0220 26018.8 -03513.4 -07.6904 26255.0
 30 11 2013  02 18  -21.0223 26018.8 -03513.4 -07.6904 26254.9
 30 11 2013  02 19  -21.0224 26018.8 -03513.4 -07.6903 26254.9
 30 11 2013  02 20  -21.0225 26018.7 -03513.3 -07.6902 26254.8
 30 11 2013  02 21  -21.0227 26018.7 -03513.4 -07.6902 26254.8
 30 11 2013  02 22  -21.0228 26018.7 -03513.4 -07.6903 26254.8
 30 11 2013  02 23  -21.0229 26018.7 -03513.4 -07.6903 26254.8
 30 11 2013  02 24  -21.0227 26018.6 -03513.3 -07.6902 26254.8
 30 11 2013  02 25  -21.0226 26018.6 -03513.3 -07.6901 26254.8
 30 11 2013  02 26  -21.0225 26018.6 -03513.2 -07.6900 26254.7
 30 11 2013  02 27  -21.0224 26018.6 -03513.2 -07.6899 26254.7
 30 11 2013  02 28  -21.0222 26018.5 -03513.2 -07.6900 26254.7
 30 11 2013  02 29  -21.0222 26018.5 -03513.3 -07.6901 26254.7
 30 11 2013  02 30  -21.0222 26018.7 -03513.3 -07.6902 26254.8
 30 11 2013  02 31  -21.0222 26018.8 -03513.4 -07.6903 26254.9
 30 11 2013  02 32  -21.0222 26018.9 -03513.4 -07.6903 26255.0
 30 11 2013  02 33  -21.0225 26019.1 -03513.5 -07.6905 26255.3
 30 11 2013  02 34  -21.0226 26019.4 -03513.7 -07.6907 26255.5
 30 11 2013  02 35  -21.0227 26019.8 -03513.8 -07.6909 26255.9
 30 11 2013  02 36  -21.0228 26020.3 -03514.1 -07.6914 26256.5
 30 11 2013  02 37  -21.0227 26020.9 -03514.4 -07.6918 26257.2
 30 11 2013  02 38  -21.0223 26021.4 -03514.5 -07.6920 26257.7
 30 11 2013  02 39  -21.0221 26021.7 -03514.7 -07.6922 26258.0
 30 11 2013  02 40  -21.0217 26021.8 -03514.6 -07.6920 26258.0
 30 11 2013  02 41  -21.0215 26021.7 -03514.6 -07.6919 26258.0
 30 11 2013  02 42  -21.0214 26021.6 -03514.4 -07.6917 26257.9
 30 11 2013  02 43  -21.0213 26021.5 -03514.3 -07.6916 26257.7
 30 11 2013  02 44  -21.0213 26021.2 -03514.2 -07.6913 26257.5
 30 11 2013  02 45  -21.0215 26021.0 -03514.1 -07.6911 26257.2
 30 11 2013  02 46  -21.0215 26020.8 -03513.9 -07.6909 26257.0
 30 11 2013  02 47  -21.0214 26020.4 -03513.7 -07.6905 26256.6
 30 11 2013  02 48  -21.0215 26020.0 -03513.6 -07.6903 26256.2
 30 11 2013  02 49  -21.0218 26019.8 -03513.4 -07.6901 26255.9
 30 11 2013  02 50  -21.0220 26019.7 -03513.4 -07.6901 26255.8
 30 11 2013  02 51  -21.0223 26019.7 -03513.4 -07.6901 26255.8
 30 11 2013  02 52  -21.0224 26019.7 -03513.4 -07.6901 26255.8
 30 11 2013  02 53  -21.0226 26019.7 -03513.4 -07.6901 26255.8
 30 11 2013  02 54  -21.0227 26019.7 -03513.4 -07.6901 26255.8
 30 11 2013  02 55  -21.0229 26019.7 -03513.5 -07.6902 26255.8
 30 11 2013  02 56  -21.0230 26019.8 -03513.5 -07.6903 26255.9
 30 11 2013  02 57  -21.0231 26019.9 -03513.6 -07.6903 26256.0
 30 11 2013  02 58  -21.0232 26020.1 -03513.6 -07.6904 26256.2
 30 11 2013  02 59  -21.0231 26020.2 -03513.7 -07.6905 26256.4
 30 11 2013  03 00  -21.0230 26020.4 -03513.8 -07.6907 26256.6
 30 11 2013  03 01  -21.0228 26020.5 -03513.8 -07.6907 26256.7
 30 11 2013  03 02  -21.0226 26020.7 -03513.9 -07.6907 26256.9
 30 11 2013  03 03  -21.0227 26020.8 -03513.9 -07.6908 26257.0
 30 11 2013  03 04  -21.0229 26020.9 -03513.9 -07.6909 26257.1
 30 11 2013  03 05  -21.0231 26021.0 -03514.0 -07.6909 26257.2
 30 11 2013  03 06  -21.0231 26021.1 -03514.0 -07.6910 26257.3
 30 11 2013  03 07  -21.0228 26021.1 -03514.0 -07.6909 26257.3
 30 11 2013  03 08  -21.0226 26021.3 -03514.0 -07.6908 26257.5
 30 11 2013  03 09  -21.0223 26021.2 -03513.9 -07.6908 26257.4
 30 11 2013  03 10  -21.0222 26021.3 -03513.9 -07.6907 26257.5
 30 11 2013  03 11  -21.0221 26021.4 -03513.9 -07.6907 26257.6
 30 11 2013  03 12  -21.0223 26021.5 -03514.0 -07.6908 26257.7
 30 11 2013  03 13  -21.0224 26021.6 -03514.1 -07.6909 26257.8
 30 11 2013  03 14  -21.0226 26021.7 -03514.1 -07.6909 26257.9
 30 11 2013  03 15  -21.0229 26021.9 -03514.1 -07.6909 26258.1
 30 11 2013  03 16  -21.0230 26022.0 -03514.1 -07.6910 26258.2
 30 11 2013  03 17  -21.0234 26022.1 -03514.2 -07.6910 26258.3
 30 11 2013  03 18  -21.0234 26022.2 -03514.2 -07.6910 26258.4
 30 11 2013  03 19  -21.0234 26022.2 -03514.1 -07.6908 26258.4
 30 11 2013  03 20  -21.0233 26022.3 -03514.0 -07.6907 26258.5
 30 11 2013  03 21  -21.0232 26022.3 -03514.0 -07.6907 26258.5
 30 11 2013  03 22  -21.0231 26022.4 -03514.0 -07.6905 26258.6
 30 11 2013  03 23  -21.0231 26022.5 -03514.0 -07.6905 26258.6
 30 11 2013  03 24  -21.0231 26022.6 -03514.0 -07.6905 26258.8
 30 11 2013  03 25  -21.0232 26022.6 -03514.0 -07.6904 26258.8
 30 11 2013  03 26  -21.0232 26022.6 -03513.9 -07.6903 26258.8
 30 11 2013  03 27  -21.0230 26022.6 -03513.9 -07.6902 26258.7
 30 11 2013  03 28  -21.0229 26022.6 -03513.8 -07.6901 26258.8
 30 11 2013  03 29  -21.0228 26022.6 -03513.8 -07.6901 26258.8
 30 11 2013  03 30  -21.0226 26022.6 -03513.8 -07.6900 26258.7
 30 11 2013  03 31  -21.0227 26022.6 -03513.7 -07.6899 26258.7
 30 11 2013  03 32  -21.0229 26022.8 -03513.8 -07.6900 26259.0
 30 11 2013  03 33  -21.0231 26022.9 -03513.9 -07.6901 26259.1
 30 11 2013  03 34  -21.0233 26023.0 -03513.8 -07.6900 26259.2
 30 11 2013  03 35  -21.0235 26023.2 -03513.9 -07.6900 26259.3
 30 11 2013  03 36  -21.0237 26023.2 -03513.8 -07.6899 26259.4
 30 11 2013  03 37  -21.0237 26023.2 -03513.7 -07.6897 26259.3
 30 11 2013  03 38  -21.0236 26023.1 -03513.6 -07.6896 26259.3
 30 11 2013  03 39  -21.0234 26023.2 -03513.6 -07.6894 26259.4
 30 11 2013  03 40  -21.0232 26023.3 -03513.6 -07.6894 26259.4
 30 11 2013  03 41  -21.0233 26023.4 -03513.6 -07.6893 26259.5
 30 11 2013  03 42  -21.0236 26023.6 -03513.7 -07.6895 26259.7
 30 11 2013  03 43  -21.0236 26023.7 -03513.6 -07.6894 26259.8
 30 11 2013  03 44  -21.0237 26023.8 -03513.7 -07.6894 26260.0
 30 11 2013  03 45  -21.0236 26023.9 -03513.6 -07.6893 26260.0
 30 11 2013  03 46  -21.0234 26023.8 -03513.5 -07.6891 26259.9
 30 11 2013  03 47  -21.0232 26023.8 -03513.4 -07.6889 26259.9
 30 11 2013  03 48  -21.0232 26023.7 -03513.4 -07.6888 26259.8
 30 11 2013  03 49  -21.0231 26023.7 -03513.3 -07.6887 26259.8
 30 11 2013  03 50  -21.0229 26023.7 -03513.3 -07.6887 26259.8
 30 11 2013  03 51  -21.0229 26023.7 -03513.3 -07.6886 26259.8
 30 11 2013  03 52  -21.0228 26023.8 -03513.3 -07.6886 26259.9
 30 11 2013  03 53  -21.0228 26023.9 -03513.4 -07.6888 26260.0
 30 11 2013  03 54  -21.0229 26024.0 -03513.4 -07.6889 26260.1
 30 11 2013  03 55  -21.0229 26024.2 -03513.5 -07.6890 26260.4
 30 11 2013  03 56  -21.0231 26024.5 -03513.7 -07.6892 26260.6
 30 11 2013  03 57  -21.0232 26024.6 -03513.7 -07.6892 26260.7
 30 11 2013  03 58  -21.0231 26024.8 -03513.7 -07.6892 26260.9
 30 11 2013  03 59  -21.0230 26024.9 -03513.7 -07.6892 26261.1
 30 11 2013  04 00  -21.0229 26025.0 -03513.7 -07.6892 26261.2
 30 11 2013  04 01  -21.0230 26025.1 -03513.8 -07.6892 26261.2
 30 11 2013  04 02  -21.0229 26025.0 -03513.7 -07.6891 26261.1
 30 11 2013  04 03  -21.0229 26024.9 -03513.6 -07.6889 26261.1
 30 11 2013  04 04  -21.0229 26024.8 -03513.5 -07.6888 26260.9
 30 11 2013  04 05  -21.0229 26024.7 -03513.4 -07.6886 26260.8
 30 11 2013  04 06  -21.0229 26024.8 -03513.5 -07.6887 26260.9
 30 11 2013  04 07  -21.0230 26024.7 -03513.4 -07.6887 26260.8
 30 11 2013  04 08  -21.0230 26024.8 -03513.5 -07.6887 26260.9
 30 11 2013  04 09  -21.0231 26024.8 -03513.5 -07.6887 26260.9
 30 11 2013  04 10  -21.0232 26024.9 -03513.5 -07.6888 26261.0
 30 11 2013  04 11  -21.0233 26024.9 -03513.6 -07.6889 26261.0
 30 11 2013  04 12  -21.0234 26025.0 -03513.6 -07.6889 26261.1
 30 11 2013  04 13  -21.0235 26025.0 -03513.6 -07.6890 26261.2
 30 11 2013  04 14  -21.0237 26025.0 -03513.6 -07.6890 26261.2
 30 11 2013  04 15  -21.0240 26025.0 -03513.6 -07.6889 26261.2
 30 11 2013  04 16  -21.0242 26025.0 -03513.6 -07.6889 26261.1
 30 11 2013  04 17  -21.0245 26025.1 -03513.7 -07.6890 26261.2
 30 11 2013  04 18  -21.0248 26025.1 -03513.6 -07.6890 26261.2
 30 11 2013  04 19  -21.0252 26025.2 -03513.7 -07.6890 26261.3
 30 11 2013  04 20  -21.0253 26025.3 -03513.7 -07.6890 26261.4
 30 11 2013  04 21  -21.0254 26025.4 -03513.7 -07.6890 26261.6
 30 11 2013  04 22  -21.0255 26025.6 -03513.8 -07.6891 26261.7
 30 11 2013  04 23  -21.0256 26025.7 -03513.8 -07.6892 26261.8
 30 11 2013  04 24  -21.0256 26025.8 -03513.8 -07.6892 26261.9
 30 11 2013  04 25  -21.0255 26025.9 -03513.8 -07.6892 26262.0
 30 11 2013  04 26  -21.0254 26025.9 -03513.8 -07.6891 26262.0
 30 11 2013  04 27  -21.0255 26025.8 -03513.8 -07.6890 26262.0
 30 11 2013  04 28  -21.0255 26025.8 -03513.7 -07.6890 26261.9
 30 11 2013  04 29  -21.0255 26025.7 -03513.6 -07.6888 26261.8
 30 11 2013  04 30  -21.0252 26025.4 -03513.5 -07.6886 26261.5
 30 11 2013  04 31  -21.0248 26025.1 -03513.3 -07.6883 26261.2
 30 11 2013  04 32  -21.0248 26024.6 -03513.1 -07.6879 26260.7
 30 11 2013  04 33  -21.0244 26024.5 -03513.0 -07.6878 26260.5
 30 11 2013  04 34  -21.0243 26024.3 -03513.0 -07.6877 26260.4
 30 11 2013  04 35  -21.0247 26024.6 -03513.2 -07.6881 26260.7
 30 11 2013  04 36  -21.0249 26025.2 -03513.5 -07.6886 26261.3
 30 11 2013  04 37  -21.0252 26025.8 -03513.9 -07.6893 26261.9
 30 11 2013  04 38  -21.0261 26026.6 -03514.3 -07.6900 26262.8
 30 11 2013  04 39  -21.0266 26027.3 -03514.7 -07.6907 26263.5
 30 11 2013  04 40  -21.0266 26027.7 -03514.9 -07.6909 26263.9
 30 11 2013  04 41  -21.0265 26027.9 -03514.9 -07.6910 26264.2
 30 11 2013  04 42  -21.0264 26028.0 -03514.9 -07.6909 26264.3
 30 11 2013  04 43  -21.0261 26028.0 -03514.8 -07.6907 26264.3
 30 11 2013  04 44  -21.0258 26027.8 -03514.7 -07.6904 26264.1
 30 11 2013  04 45  -21.0253 26027.5 -03514.4 -07.6900 26263.7
 30 11 2013  04 46  -21.0250 26027.3 -03514.3 -07.6897 26263.5
 30 11 2013  04 47  -21.0248 26027.2 -03514.2 -07.6895 26263.3
 30 11 2013  04 48  -21.0247 26027.1 -03514.1 -07.6895 26263.3
 30 11 2013  04 49  -21.0247 26027.2 -03514.2 -07.6896 26263.4
 30 11 2013  04 50  -21.0248 26027.3 -03514.3 -07.6898 26263.5
 30 11 2013  04 51  -21.0250 26027.5 -03514.4 -07.6900 26263.7
 30 11 2013  04 52  -21.0253 26027.6 -03514.5 -07.6901 26263.8
 30 11 2013  04 53  -21.0255 26027.8 -03514.6 -07.6902 26264.0
 30 11 2013  04 54  -21.0255 26027.8 -03514.6 -07.6903 26264.0
 30 11 2013  04 55  -21.0258 26027.9 -03514.6 -07.6902 26264.1
 30 11 2013  04 56  -21.0260 26028.0 -03514.6 -07.6903 26264.2
 30 11 2013  04 57  -21.0260 26027.9 -03514.6 -07.6902 26264.1
 30 11 2013  04 58  -21.0261 26027.7 -03514.5 -07.6900 26263.9
 30 11 2013  04 59  -21.0259 26027.3 -03514.2 -07.6896 26263.5
 30 11 2013  05 00  -21.0260 26027.0 -03514.1 -07.6893 26263.2
 30 11 2013  05 01  -21.0259 26026.8 -03513.9 -07.6891 26262.9
 30 11 2013  05 02  -21.0261 26026.5 -03513.8 -07.6890 26262.7
 30 11 2013  05 03  -21.0262 26026.5 -03513.8 -07.6890 26262.6
 30 11 2013  05 04  -21.0264 26026.3 -03513.8 -07.6889 26262.5
 30 11 2013  05 05  -21.0263 26026.3 -03513.8 -07.6889 26262.4
 30 11 2013  05 06  -21.0265 26026.3 -03513.8 -07.6890 26262.4
 30 11 2013  05 07  -21.0269 26026.4 -03513.9 -07.6892 26262.5
 30 11 2013  05 08  -21.0272 26026.5 -03514.0 -07.6893 26262.6
 30 11 2013  05 09  -21.0274 26026.6 -03514.0 -07.6894 26262.8
 30 11 2013  05 10  -21.0278 26026.6 -03514.0 -07.6893 26262.7
 30 11 2013  05 11  -21.0281 26026.6 -03514.0 -07.6893 26262.8
 30 11 2013  05 12  -21.0284 26026.7 -03514.1 -07.6894 26262.9
 30 11 2013  05 13  -21.0287 26026.8 -03514.1 -07.6894 26263.0
 30 11 2013  05 14  -21.0289 26026.9 -03514.1 -07.6894 26263.0
 30 11 2013  05 15  -21.0290 26027.0 -03514.1 -07.6895 26263.2
 30 11 2013  05 16  -21.0293 26027.0 -03514.1 -07.6894 26263.2
 30 11 2013  05 17  -21.0295 26027.1 -03514.1 -07.6895 26263.3
 30 11 2013  05 18  -21.0297 26027.0 -03514.1 -07.6893 26263.2
 30 11 2013  05 19  -21.0299 26027.1 -03514.0 -07.6893 26263.2
 30 11 2013  05 20  -21.0303 26027.2 -03514.1 -07.6893 26263.3
 30 11 2013  05 21  -21.0307 26027.0 -03514.0 -07.6892 26263.2
 30 11 2013  05 22  -21.0307 26027.2 -03514.0 -07.6892 26263.4
 30 11 2013  05 23  -21.0310 26027.4 -03514.1 -07.6893 26263.6
 30 11 2013  05 24  -21.0311 26027.7 -03514.2 -07.6895 26263.9
 30 11 2013  05 25  -21.0311 26028.1 -03514.4 -07.6897 26264.3
 30 11 2013  05 26  -21.0312 26028.4 -03514.5 -07.6899 26264.6
 30 11 2013  05 27  -21.0313 26028.5 -03514.5 -07.6899 26264.7
 30 11 2013  05 28  -21.0312 26028.5 -03514.5 -07.6898 26264.6
 30 11 2013  05 29  -21.0309 26028.5 -03514.4 -07.6896 26264.7
 30 11 2013  05 30  -21.0309 26028.4 -03514.3 -07.6895 26264.6
 30 11 2013  05 31  -21.0311 26028.4 -03514.3 -07.6894 26264.6
 30 11 2013  05 32  -21.0311 26028.3 -03514.2 -07.6893 26264.5
 30 11 2013  05 33  -21.0313 26028.3 -03514.2 -07.6892 26264.4
 30 11 2013  05 34  -21.0314 26028.2 -03514.1 -07.6891 26264.4
 30 11 2013  05 35  -21.0316 26028.3 -03514.1 -07.6891 26264.5
 30 11 2013  05 36  -21.0315 26028.6 -03514.2 -07.6892 26264.7
 30 11 2013  05 37  -21.0314 26028.8 -03514.3 -07.6894 26265.0
 30 11 2013  05 38  -21.0315 26029.0 -03514.4 -07.6895 26265.2
 30 11 2013  05 39  -21.0317 26029.1 -03514.5 -07.6896 26265.3
 30 11 2013  05 40  -21.0318 26029.3 -03514.6 -07.6897 26265.5
 30 11 2013  05 41  -21.0316 26029.5 -03514.5 -07.6896 26265.7
 30 11 2013  05 42  -21.0316 26029.4 -03514.5 -07.6895 26265.5
 30 11 2013  05 43  -21.0316 26029.2 -03514.3 -07.6893 26265.4
 30 11 2013  05 44  -21.0312 26029.3 -03514.3 -07.6892 26265.5
 30 11 2013  05 45  -21.0307 26029.2 -03514.2 -07.6890 26265.3
 30 11 2013  05 46  -21.0303 26029.1 -03514.1 -07.6889 26265.2
 30 11 2013  05 47  -21.0301 26029.2 -03514.2 -07.6889 26265.3
 30 11 2013  05 48  -21.0302 26029.1 -03514.2 -07.6890 26265.3
 30 11 2013  05 49  -21.0299 26029.2 -03514.2 -07.6890 26265.3
 30 11 2013  05 50  -21.0293 26029.0 -03514.1 -07.6888 26265.2
 30 11 2013  05 51  -21.0294 26028.9 -03514.0 -07.6887 26265.1
 30 11 2013  05 52  -21.0296 26029.6 -03514.4 -07.6892 26265.7
 30 11 2013  05 53  -21.0299 26029.9 -03514.6 -07.6896 26266.1
 30 11 2013  05 54  -21.0302 26030.0 -03514.6 -07.6897 26266.2
 30 11 2013  05 55  -21.0306 26030.0 -03514.6 -07.6897 26266.2
 30 11 2013  05 56  -21.0306 26030.3 -03514.7 -07.6898 26266.5
 30 11 2013  05 57  -21.0310 26030.2 -03514.6 -07.6895 26266.4
 30 11 2013  05 58  -21.0310 26030.3 -03514.5 -07.6894 26266.5
 30 11 2013  05 59  -21.0308 26030.4 -03514.5 -07.6894 26266.6
 30 11 2013  06 00  -21.0309 26030.3 -03514.5 -07.6892 26266.5
 30 11 2013  06 01  -21.0311 26030.2 -03514.4 -07.6891 26266.4
 30 11 2013  06 02  -21.0314 26030.1 -03514.3 -07.6890 26266.3
 30 11 2013  06 03  -21.0312 26030.1 -03514.2 -07.6887 26266.2
 30 11 2013  06 04  -21.0311 26030.0 -03514.2 -07.6886 26266.2
 30 11 2013  06 05  -21.0307 26029.7 -03514.0 -07.6883 26265.9
 30 11 2013  06 06  -21.0301 26029.5 -03513.8 -07.6880 26265.6
 30 11 2013  06 07  -21.0293 26029.6 -03513.8 -07.6880 26265.7
 30 11 2013  06 08  -21.0286 26029.7 -03513.8 -07.6879 26265.8
 30 11 2013  06 09  -21.0283 26029.7 -03513.8 -07.6880 26265.8
 30 11 2013  06 10  -21.0277 26029.6 -03513.8 -07.6881 26265.8
 30 11 2013  06 11  -21.0276 26029.5 -03513.8 -07.6880 26265.6
 30 11 2013  06 12  -21.0279 26029.5 -03513.8 -07.6881 26265.6
 30 11 2013  06 13  -21.0281 26029.7 -03514.0 -07.6883 26265.9
 30 11 2013  06 14  -21.0285 26030.0 -03514.1 -07.6886 26266.1
 30 11 2013  06 15  -21.0285 26030.3 -03514.2 -07.6887 26266.5
 30 11 2013  06 16  -21.0288 26030.9 -03514.5 -07.6891 26267.0
 30 11 2013  06 17  -21.0292 26031.3 -03514.8 -07.6896 26267.5
 30 11 2013  06 18  -21.0293 26031.6 -03514.9 -07.6898 26267.9
 30 11 2013  06 19  -21.0292 26031.9 -03515.0 -07.6900 26268.2
 30 11 2013  06 20  -21.0294 26032.0 -03515.1 -07.6900 26268.3
 30 11 2013  06 21  -21.0289 26032.2 -03515.0 -07.6899 26268.4
 30 11 2013  06 22  -21.0286 26032.3 -03515.1 -07.6899 26268.5
 30 11 2013  06 23  -21.0283 26032.3 -03515.0 -07.6899 26268.6
 30 11 2013  06 24  -21.0280 26032.2 -03514.9 -07.6896 26268.4
 30 11 2013  06 25  -21.0276 26032.2 -03514.9 -07.6895 26268.4
 30 11 2013  06 26  -21.0275 26032.2 -03514.9 -07.6895 26268.5
 30 11 2013  06 27  -21.0272 26032.1 -03514.8 -07.6893 26268.3
 30 11 2013  06 28  -21.0268 26032.1 -03514.6 -07.6891 26268.3
 30 11 2013  06 29  -21.0263 26032.1 -03514.6 -07.6891 26268.3
 30 11 2013  06 30  -21.0259 26032.1 -03514.6 -07.6890 26268.3
 30 11 2013  06 31  -21.0252 26032.2 -03514.6 -07.6891 26268.4
 30 11 2013  06 32  -21.0243 26032.3 -03514.7 -07.6891 26268.5
 30 11 2013  06 33  -21.0240 26032.1 -03514.6 -07.6891 26268.3
 30 11 2013  06 34  -21.0239 26032.1 -03514.7 -07.6892 26268.3
 30 11 2013  06 35  -21.0237 26032.1 -03514.7 -07.6893 26268.3
 30 11 2013  06 36  -21.0233 26031.9 -03514.6 -07.6892 26268.1
 30 11 2013  06 37  -21.0233 26031.9 -03514.7 -07.6892 26268.1
 30 11 2013  06 38  -21.0234 26032.1 -03514.8 -07.6895 26268.3
 30 11 2013  06 39  -21.0238 26032.3 -03515.0 -07.6897 26268.5
 30 11 2013  06 40  -21.0239 26032.3 -03515.0 -07.6898 26268.6
 30 11 2013  06 41  -21.0240 26032.5 -03515.0 -07.6898 26268.7
 30 11 2013  06 42  -21.0239 26032.6 -03515.0 -07.6898 26268.8
 30 11 2013  06 43  -21.0241 26032.7 -03515.1 -07.6899 26269.0
 30 11 2013  06 44  -21.0240 26032.9 -03515.1 -07.6899 26269.1
 30 11 2013  06 45  -21.0241 26032.8 -03515.1 -07.6898 26269.1
 30 11 2013  06 46  -21.0240 26032.9 -03515.0 -07.6897 26269.1
 30 11 2013  06 47  -21.0240 26033.1 -03515.0 -07.6897 26269.3
 30 11 2013  06 48  -21.0244 26033.1 -03515.1 -07.6898 26269.4
 30 11 2013  06 49  -21.0242 26033.1 -03515.0 -07.6896 26269.4
 30 11 2013  06 50  -21.0245 26033.2 -03515.0 -07.6896 26269.4
 30 11 2013  06 51  -21.0246 26033.1 -03514.9 -07.6894 26269.3
 30 11 2013  06 52  -21.0246 26033.2 -03514.9 -07.6893 26269.4
 30 11 2013  06 53  -21.0248 26033.2 -03514.9 -07.6892 26269.4
 30 11 2013  06 54  -21.0249 26033.3 -03514.9 -07.6892 26269.5
 30 11 2013  06 55  -21.0245 26033.3 -03514.8 -07.6891 26269.5
 30 11 2013  06 56  -21.0245 26033.4 -03514.8 -07.6891 26269.6
 30 11 2013  06 57  -21.0249 26033.4 -03514.8 -07.6890 26269.6
 30 11 2013  06 58  -21.0252 26033.5 -03514.8 -07.6890 26269.7
 30 11 2013  06 59  -21.0254 26033.6 -03514.8 -07.6891 26269.8
 30 11 2013  07 00  -21.0250 26033.5 -03514.7 -07.6887 26269.7
 30 11 2013  07 01  -21.0250 26033.5 -03514.6 -07.6886 26269.7
 30 11 2013  07 02  -21.0251 26033.5 -03514.6 -07.6886 26269.7
 30 11 2013  07 03  -21.0250 26033.4 -03514.5 -07.6884 26269.5
 30 11 2013  07 04  -21.0250 26033.5 -03514.5 -07.6883 26269.6
 30 11 2013  07 05  -21.0252 26033.6 -03514.5 -07.6884 26269.7
 30 11 2013  07 06  -21.0250 26033.5 -03514.4 -07.6882 26269.6
 30 11 2013  07 07  -21.0248 26033.5 -03514.4 -07.6882 26269.7
 30 11 2013  07 08  -21.0249 26033.7 -03514.5 -07.6883 26269.8
 30 11 2013  07 09  -21.0252 26033.7 -03514.5 -07.6883 26269.9
 30 11 2013  07 10  -21.0252 26033.9 -03514.6 -07.6884 26270.0
 30 11 2013  07 11  -21.0256 26034.2 -03514.7 -07.6885 26270.3
 30 11 2013  07 12  -21.0258 26034.5 -03514.8 -07.6887 26270.7
 30 11 2013  07 13  -21.0262 26034.6 -03514.8 -07.6888 26270.8
 30 11 2013  07 14  -21.0262 26034.5 -03514.7 -07.6885 26270.7
 30 11 2013  07 15  -21.0266 26034.5 -03514.6 -07.6884 26270.6
 30 11 2013  07 16  -21.0265 26034.3 -03514.5 -07.6882 26270.5
 30 11 2013  07 17  -21.0266 26034.3 -03514.5 -07.6881 26270.5
 30 11 2013  07 18  -21.0267 26034.1 -03514.4 -07.6879 26270.3
 30 11 2013  07 19  -21.0266 26034.1 -03514.3 -07.6878 26270.2
 30 11 2013  07 20  -21.0266 26034.0 -03514.2 -07.6875 26270.1
 30 11 2013  07 21  -21.0268 26034.1 -03514.2 -07.6876 26270.2
 30 11 2013  07 22  -21.0265 26034.1 -03514.2 -07.6876 26270.2
 30 11 2013  07 23  -21.0262 26034.1 -03514.2 -07.6876 26270.3
 30 11 2013  07 24  -21.0264 26034.1 -03514.2 -07.6876 26270.2
 30 11 2013  07 25  -21.0266 26034.2 -03514.2 -07.6876 26270.3
 30 11 2013  07 26  -21.0267 26034.2 -03514.2 -07.6876 26270.4
 30 11 2013  07 27  -21.0267 26034.3 -03514.2 -07.6875 26270.4
 30 11 2013  07 28  -21.0269 26034.3 -03514.2 -07.6876 26270.4
 30 11 2013  07 29  -21.0270 26034.2 -03514.1 -07.6873 26270.3
 30 11 2013  07 30  -21.0267 26034.1 -03514.1 -07.6872 26270.2
 30 11 2013  07 31  -21.0265 26034.1 -03514.0 -07.6871 26270.2
 30 11 2013  07 32  -21.0261 26034.4 -03514.1 -07.6873 26270.5
 30 11 2013  07 33  -21.0260 26034.6 -03514.2 -07.6874 26270.7
 30 11 2013  07 34  -21.0260 26034.6 -03514.2 -07.6874 26270.7
 30 11 2013  07 35  -21.0262 26034.8 -03514.2 -07.6874 26270.9
 30 11 2013  07 36  -21.0265 26034.9 -03514.3 -07.6874 26271.0
 30 11 2013  07 37  -21.0264 26034.9 -03514.3 -07.6875 26271.1
 30 11 2013  07 38  -21.0263 26035.1 -03514.3 -07.6875 26271.2
 30 11 2013  07 39  -21.0267 26035.0 -03514.3 -07.6875 26271.1
 30 11 2013  07 40  -21.0266 26034.6 -03514.0 -07.6870 26270.7
 30 11 2013  07 41  -21.0265 26034.5 -03513.9 -07.6869 26270.6
 30 11 2013  07 42  -21.0263 26034.5 -03513.9 -07.6869 26270.6
 30 11 2013  07 43  -21.0261 26034.8 -03514.1 -07.6871 26270.9
 30 11 2013  07 44  -21.0263 26035.0 -03514.2 -07.6873 26271.1
 30 11 2013  07 45  -21.0266 26035.3 -03514.3 -07.6875 26271.4
 30 11 2013  07 46  -21.0267 26035.4 -03514.4 -07.6876 26271.5
 30 11 2013  07 47  -21.0267 26035.1 -03514.2 -07.6873 26271.2
 30 11 2013  07 48  -21.0267 26035.1 -03514.1 -07.6871 26271.2
 30 11 2013  07 49  -21.0271 26035.1 -03514.1 -07.6870 26271.2
 30 11 2013  07 50  -21.0271 26035.2 -03514.2 -07.6871 26271.3
 30 11 2013  07 51  -21.0270 26035.2 -03514.1 -07.6871 26271.3
 30 11 2013  07 52  -21.0267 26035.2 -03514.1 -07.6869 26271.2
 30 11 2013  07 53  -21.0266 26035.2 -03514.1 -07.6870 26271.3
 30 11 2013  07 54  -21.0260 26035.2 -03514.0 -07.6868 26271.3
 30 11 2013  07 55  -21.0258 26035.2 -03514.0 -07.6867 26271.2
 30 11 2013  07 56  -21.0257 26035.1 -03513.9 -07.6866 26271.1
 30 11 2013  07 57  -21.0253 26035.1 -03513.9 -07.6867 26271.2
 30 11 2013  07 58  -21.0248 26035.2 -03513.9 -07.6866 26271.2
 30 11 2013  07 59  -21.0247 26035.4 -03514.0 -07.6868 26271.5
 30 11 2013  08 00  -21.0243 26035.5 -03514.1 -07.6869 26271.6
 30 11 2013  08 01  -21.0241 26035.6 -03514.1 -07.6870 26271.7
 30 11 2013  08 02  -21.0241 26035.8 -03514.3 -07.6872 26271.9
 30 11 2013  08 03  -21.0241 26036.0 -03514.3 -07.6873 26272.1
 30 11 2013  08 04  -21.0242 26036.1 -03514.4 -07.6874 26272.2
 30 11 2013  08 05  -21.0243 26036.1 -03514.4 -07.6874 26272.2
 30 11 2013  08 06  -21.0243 26036.0 -03514.3 -07.6873 26272.1
 30 11 2013  08 07  -21.0241 26036.0 -03514.3 -07.6871 26272.1
 30 11 2013  08 08  -21.0241 26036.0 -03514.2 -07.6871 26272.1
 30 11 2013  08 09  -21.0239 26036.2 -03514.2 -07.6870 26272.3
 30 11 2013  08 10  -21.0241 26036.1 -03514.2 -07.6869 26272.2
 30 11 2013  08 11  -21.0240 26036.1 -03514.1 -07.6868 26272.2
 30 11 2013  08 12  -21.0237 26036.2 -03514.2 -07.6868 26272.3
 30 11 2013  08 13  -21.0235 26036.2 -03514.2 -07.6869 26272.3
 30 11 2013  08 14  -21.0236 26036.3 -03514.2 -07.6868 26272.4
 30 11 2013  08 15  -21.0236 26036.4 -03514.2 -07.6869 26272.5
 30 11 2013  08 16  -21.0238 26036.4 -03514.2 -07.6869 26272.5
 30 11 2013  08 17  -21.0240 26036.5 -03514.2 -07.6868 26272.6
 30 11 2013  08 18  -21.0241 26036.6 -03514.2 -07.6868 26272.6
 30 11 2013  08 19  -21.0241 26036.4 -03514.0 -07.6865 26272.4
 30 11 2013  08 20  -21.0239 26036.4 -03513.9 -07.6863 26272.5
 30 11 2013  08 21  -21.0237 26036.2 -03513.7 -07.6859 26272.3
 30 11 2013  08 22  -21.0238 26036.5 -03513.8 -07.6860 26272.5
 30 11 2013  08 23  -21.0238 26036.4 -03513.7 -07.6859 26272.4
 30 11 2013  08 24  -21.0234 26036.3 -03513.7 -07.6858 26272.4
 30 11 2013  08 25  -21.0230 26036.2 -03513.5 -07.6855 26272.2
 30 11 2013  08 26  -21.0229 26036.2 -03513.5 -07.6854 26272.2
 30 11 2013  08 27  -21.0228 26036.2 -03513.5 -07.6854 26272.2
 30 11 2013  08 28  -21.0225 26036.4 -03513.5 -07.6854 26272.3
 30 11 2013  08 29  -21.0224 26036.4 -03513.5 -07.6853 26272.4
 30 11 2013  08 30  -21.0222 26036.4 -03513.5 -07.6853 26272.4
 30 11 2013  08 31  -21.0221 26036.4 -03513.5 -07.6853 26272.4
 30 11 2013  08 32  -21.0216 26036.6 -03513.5 -07.6853 26272.6
 30 11 2013  08 33  -21.0212 26036.4 -03513.5 -07.6853 26272.4
 30 11 2013  08 34  -21.0210 26036.4 -03513.4 -07.6852 26272.4
 30 11 2013  08 35  -21.0213 26036.5 -03513.5 -07.6854 26272.5
 30 11 2013  08 36  -21.0212 26036.4 -03513.5 -07.6854 26272.4
 30 11 2013  08 37  -21.0212 26036.1 -03513.4 -07.6852 26272.1
 30 11 2013  08 38  -21.0210 26035.9 -03513.3 -07.6851 26271.9
 30 11 2013  08 39  -21.0209 26035.9 -03513.3 -07.6852 26271.9
 30 11 2013  08 40  -21.0209 26035.8 -03513.3 -07.6852 26271.8
 30 11 2013  08 41  -21.0209 26035.5 -03513.2 -07.6851 26271.5
 30 11 2013  08 42  -21.0208 26035.3 -03513.2 -07.6850 26271.3
 30 11 2013  08 43  -21.0206 26035.0 -03513.1 -07.6849 26271.0
 30 11 2013  08 44  -21.0203 26034.8 -03513.0 -07.6848 26270.8
 30 11 2013  08 45  -21.0202 26034.6 -03513.0 -07.6848 26270.6
 30 11 2013  08 46  -21.0199 26034.3 -03512.9 -07.6847 26270.3
 30 11 2013  08 47  -21.0197 26034.2 -03512.9 -07.6847 26270.1
 30 11 2013  08 48  -21.0199 26033.9 -03512.8 -07.6846 26269.8
 30 11 2013  08 49  -21.0199 26033.6 -03512.8 -07.6846 26269.6
 30 11 2013  08 50  -21.0197 26033.3 -03512.6 -07.6844 26269.2
 30 11 2013  08 51  -21.0191 26032.8 -03512.4 -07.6841 26268.7
 30 11 2013  08 52  -21.0188 26032.1 -03512.1 -07.6837 26267.9
 30 11 2013  08 53  -21.0191 26031.4 -03511.9 -07.6833 26267.2
 30 11 2013  08 54  -21.0195 26030.9 -03511.7 -07.6831 26266.7
 30 11 2013  08 55  -21.0200 26030.5 -03511.6 -07.6830 26266.3
 30 11 2013  08 56  -21.0199 26030.2 -03511.4 -07.6827 26266.0
 30 11 2013  08 57  -21.0201 26030.0 -03511.4 -07.6826 26265.7
 30 11 2013  08 58  -21.0207 26029.8 -03511.3 -07.6826 26265.6
 30 11 2013  08 59  -21.0209 26029.6 -03511.3 -07.6825 26265.3
 30 11 2013  09 00  -21.0212 26029.4 -03511.2 -07.6824 26265.2
 30 11 2013  09 01  -21.0215 26029.5 -03511.3 -07.6826 26265.3
 30 11 2013  09 02  -21.0218 26029.5 -03511.3 -07.6826 26265.3
 30 11 2013  09 03  -21.0220 26029.4 -03511.3 -07.6826 26265.2
 30 11 2013  09 04  -21.0223 26029.4 -03511.3 -07.6826 26265.2
 30 11 2013  09 05  -21.0227 26029.4 -03511.3 -07.6827 26265.2
 30 11 2013  09 06  -21.0234 26029.5 -03511.3 -07.6826 26265.3
 30 11 2013  09 07  -21.0240 26029.7 -03511.3 -07.6827 26265.4
 30 11 2013  09 08  -21.0246 26029.9 -03511.4 -07.6827 26265.7
 30 11 2013  09 09  -21.0252 26030.2 -03511.4 -07.6827 26265.9
 30 11 2013  09 10  -21.0257 26030.3 -03511.4 -07.6825 26266.1
 30 11 2013  09 11  -21.0262 26030.6 -03511.4 -07.6824 26266.3
 30 11 2013  09 12  -21.0267 26030.9 -03511.4 -07.6825 26266.6
 30 11 2013  09 13  -21.0273 26031.5 -03511.5 -07.6826 26267.3
 30 11 2013  09 14  -21.0277 26032.0 -03511.6 -07.6826 26267.8
 30 11 2013  09 15  -21.0279 26032.3 -03511.6 -07.6824 26268.1
 30 11 2013  09 16  -21.0278 26032.3 -03511.4 -07.6821 26268.1
 30 11 2013  09 17  -21.0280 26032.4 -03511.3 -07.6818 26268.1
 30 11 2013  09 18  -21.0283 26032.5 -03511.1 -07.6813 26268.2
 30 11 2013  09 19  -21.0287 26032.6 -03511.0 -07.6810 26268.3
 30 11 2013  09 20  -21.0286 26032.5 -03510.7 -07.6804 26268.2
 30 11 2013  09 21  -21.0284 26032.4 -03510.5 -07.6802 26268.0
 30 11 2013  09 22  -21.0283 26032.5 -03510.5 -07.6800 26268.1
 30 11 2013  09 23  -21.0285 26032.8 -03510.5 -07.6800 26268.4
 30 11 2013  09 24  -21.0285 26033.1 -03510.5 -07.6800 26268.7
 30 11 2013  09 25  -21.0287 26033.6 -03510.6 -07.6800 26269.2
 30 11 2013  09 26  -21.0287 26034.0 -03510.7 -07.6801 26269.6
 30 11 2013  09 27  -21.0291 26034.4 -03510.8 -07.6802 26270.1
 30 11 2013  09 28  -21.0294 26035.0 -03511.0 -07.6803 26270.6
 30 11 2013  09 29  -21.0295 26035.5 -03511.0 -07.6803 26271.2
 30 11 2013  09 30  -21.0294 26035.8 -03511.0 -07.6802 26271.5
 30 11 2013  09 31  -21.0299 26036.1 -03511.0 -07.6801 26271.8
 30 11 2013  09 32  -21.0305 26036.5 -03511.0 -07.6800 26272.1
 30 11 2013  09 33  -21.0304 26036.5 -03510.8 -07.6795 26272.1
 30 11 2013  09 34  -21.0301 26036.4 -03510.5 -07.6790 26272.0
 30 11 2013  09 35  -21.0303 26036.5 -03510.5 -07.6788 26272.1
 30 11 2013  09 36  -21.0309 26036.5 -03510.3 -07.6785 26272.1
 30 11 2013  09 37  -21.0310 26036.4 -03510.2 -07.6782 26272.0
 30 11 2013  09 38  -21.0309 26036.2 -03510.0 -07.6778 26271.7
 30 11 2013  09 39  -21.0310 26036.2 -03509.9 -07.6776 26271.7
 30 11 2013  09 40  -21.0307 26036.1 -03509.8 -07.6774 26271.6
 30 11 2013  09 41  -21.0305 26036.1 -03509.7 -07.6773 26271.6
 30 11 2013  09 42  -21.0307 26036.1 -03509.8 -07.6774 26271.7
 30 11 2013  09 43  -21.0306 26035.9 -03509.6 -07.6772 26271.4
 30 11 2013  09 44  -21.0304 26035.9 -03509.6 -07.6770 26271.3
 30 11 2013  09 45  -21.0308 26035.9 -03509.6 -07.6771 26271.4
 30 11 2013  09 46  -21.0315 26036.1 -03509.7 -07.6772 26271.6
 30 11 2013  09 47  -21.0316 26036.0 -03509.6 -07.6771 26271.5
 30 11 2013  09 48  -21.0314 26035.7 -03509.4 -07.6768 26271.2
 30 11 2013  09 49  -21.0314 26035.6 -03509.3 -07.6766 26271.0
 30 11 2013  09 50  -21.0315 26035.5 -03509.2 -07.6764 26270.9
 30 11 2013  09 51  -21.0316 26035.5 -03509.2 -07.6764 26270.9
 30 11 2013  09 52  -21.0317 26035.6 -03509.2 -07.6764 26271.0
 30 11 2013  09 53  -21.0320 26036.0 -03509.4 -07.6766 26271.4
 30 11 2013  09 54  -21.0322 26036.2 -03509.4 -07.6767 26271.6
 30 11 2013  09 55  -21.0322 26036.1 -03509.3 -07.6765 26271.5
 30 11 2013  09 56  -21.0322 26036.1 -03509.3 -07.6763 26271.6
 30 11 2013  09 57  -21.0323 26036.4 -03509.3 -07.6763 26271.8
 30 11 2013  09 58  -21.0330 26036.8 -03509.4 -07.6764 26272.2
 30 11 2013  09 59  -21.0334 26037.1 -03509.4 -07.6763 26272.6
 30 11 2013  10 00  -21.0340 26037.6 -03509.5 -07.6763 26273.1
 30 11 2013  10 01  -21.0346 26037.8 -03509.4 -07.6761 26273.2
 30 11 2013  10 02  -21.0350 26037.7 -03509.2 -07.6757 26273.1
 30 11 2013  10 03  -21.0346 26037.3 -03508.8 -07.6749 26272.6
 30 11 2013  10 04  -21.0344 26037.1 -03508.5 -07.6744 26272.4
 30 11 2013  10 05  -21.0350 26037.2 -03508.4 -07.6742 26272.5
 30 11 2013  10 06  -21.0360 26037.7 -03508.6 -07.6744 26273.0
 30 11 2013  10 07  -21.0355 26037.4 -03508.3 -07.6739 26272.7
 30 11 2013  10 08  -21.0348 26037.1 -03508.1 -07.6735 26272.4
 30 11 2013  10 09  -21.0347 26037.0 -03507.9 -07.6732 26272.2
 30 11 2013  10 10  -21.0341 26036.9 -03507.8 -07.6729 26272.1
 30 11 2013  10 11  -21.0335 26037.0 -03507.8 -07.6729 26272.2
 30 11 2013  10 12  -21.0334 26037.4 -03508.0 -07.6732 26272.6
 30 11 2013  10 13  -21.0333 26037.6 -03508.1 -07.6733 26272.8
 30 11 2013  10 14  -21.0336 26037.7 -03508.2 -07.6734 26273.0
 30 11 2013  10 15  -21.0336 26037.7 -03508.1 -07.6733 26273.0
 30 11 2013  10 16  -21.0335 26037.7 -03508.0 -07.6731 26273.0
 30 11 2013  10 17  -21.0338 26037.4 -03507.8 -07.6728 26272.6
 30 11 2013  10 18  -21.0331 26036.7 -03507.4 -07.6722 26271.9
 30 11 2013  10 19  -21.0328 26036.1 -03507.2 -07.6718 26271.3
 30 11 2013  10 20  -21.0323 26035.9 -03507.2 -07.6720 26271.1
 30 11 2013  10 21  -21.0322 26036.0 -03507.4 -07.6723 26271.2
 30 11 2013  10 22  -21.0317 26036.2 -03507.5 -07.6724 26271.3
 30 11 2013  10 23  -21.0319 26036.3 -03507.6 -07.6726 26271.5
 30 11 2013  10 24  -21.0318 26036.4 -03507.6 -07.6727 26271.6
 30 11 2013  10 25  -21.0314 26036.3 -03507.6 -07.6725 26271.5
 30 11 2013  10 26  -21.0309 26036.2 -03507.5 -07.6724 26271.4
 30 11 2013  10 27  -21.0310 26036.4 -03507.5 -07.6725 26271.6
 30 11 2013  10 28  -21.0310 26036.6 -03507.6 -07.6726 26271.8
 30 11 2013  10 29  -21.0308 26036.9 -03507.7 -07.6727 26272.1
 30 11 2013  10 30  -21.0314 26037.2 -03507.8 -07.6729 26272.5
 30 11 2013  10 31  -21.0320 26037.5 -03507.8 -07.6728 26272.7
 30 11 2013  10 32  -21.0317 26037.5 -03507.6 -07.6724 26272.7
 30 11 2013  10 33  -21.0315 26037.6 -03507.6 -07.6722 26272.8
 30 11 2013  10 34  -21.0315 26037.8 -03507.6 -07.6722 26273.0
 30 11 2013  10 35  -21.0313 26038.2 -03507.7 -07.6723 26273.4
 30 11 2013  10 36  -21.0321 26038.9 -03508.0 -07.6727 26274.1
 30 11 2013  10 37  -21.0320 26039.5 -03508.1 -07.6729 26274.7
 30 11 2013  10 38  -21.0317 26039.8 -03508.1 -07.6728 26275.0
 30 11 2013  10 39  -21.0317 26039.9 -03508.1 -07.6727 26275.1
 30 11 2013  10 40  -21.0312 26039.8 -03508.0 -07.6724 26275.1
 30 11 2013  10 41  -21.0310 26039.6 -03507.8 -07.6722 26274.9
 30 11 2013  10 42  -21.0306 26039.7 -03507.8 -07.6720 26274.9
 30 11 2013  10 43  -21.0300 26039.6 -03507.7 -07.6719 26274.8
 30 11 2013  10 44  -21.0301 26039.9 -03507.8 -07.6721 26275.1
 30 11 2013  10 45  -21.0300 26040.3 -03508.0 -07.6723 26275.5
 30 11 2013  10 46  -21.0295 26040.5 -03508.0 -07.6724 26275.7
 30 11 2013  10 47  -21.0295 26040.6 -03508.1 -07.6724 26275.9
 30 11 2013  10 48  -21.0291 26040.9 -03508.2 -07.6725 26276.1
 30 11 2013  10 49  -21.0275 26040.8 -03508.0 -07.6723 26276.0
 30 11 2013  10 50  -21.0264 26040.2 -03507.9 -07.6721 26275.5
 30 11 2013  10 51  -21.0266 26040.5 -03508.1 -07.6725 26275.7
 30 11 2013  10 52  -21.0262 26040.9 -03508.3 -07.6728 26276.1
 30 11 2013  10 53  -21.0256 26040.8 -03508.3 -07.6728 26276.0
 30 11 2013  10 54  -21.0248 26040.3 -03508.1 -07.6725 26275.6
 30 11 2013  10 55  -21.0241 26040.3 -03508.2 -07.6729 26275.6
 30 11 2013  10 56  -21.0244 26040.9 -03508.6 -07.6735 26276.2
 30 11 2013  10 57  -21.0245 26041.9 -03509.1 -07.6742 26277.3
 30 11 2013  10 58  -21.0245 26042.7 -03509.4 -07.6746 26278.1
 30 11 2013  10 59  -21.0236 26043.2 -03509.4 -07.6745 26278.6
 30 11 2013  11 00  -21.0232 26043.5 -03509.3 -07.6743 26278.9
 30 11 2013  11 01  -21.0234 26044.2 -03509.5 -07.6743 26279.6
 30 11 2013  11 02  -21.0232 26045.3 -03509.7 -07.6745 26280.8
 30 11 2013  11 03  -21.0218 26046.0 -03509.7 -07.6744 26281.4
 30 11 2013  11 04  -21.0211 26046.0 -03509.5 -07.6740 26281.4
 30 11 2013  11 05  -21.0209 26046.3 -03509.5 -07.6739 26281.7
 30 11 2013  11 06  -21.0203 26046.4 -03509.3 -07.6735 26281.7
 30 11 2013  11 07  -21.0196 26046.3 -03509.1 -07.6729 26281.6
 30 11 2013  11 08  -21.0192 26046.3 -03509.0 -07.6727 26281.6
 30 11 2013  11 09  -21.0194 26046.4 -03509.0 -07.6727 26281.7
 30 11 2013  11 10  -21.0194 26046.7 -03509.0 -07.6728 26282.0
 30 11 2013  11 11  -21.0184 26046.5 -03508.9 -07.6724 26281.8
 30 11 2013  11 12  -21.0180 26046.1 -03508.7 -07.6721 26281.4
 30 11 2013  11 13  -21.0188 26046.6 -03508.9 -07.6724 26281.9
 30 11 2013  11 14  -21.0191 26047.0 -03508.9 -07.6724 26282.3
 30 11 2013  11 15  -21.0174 26045.8 -03508.2 -07.6711 26281.0
 30 11 2013  11 16  -21.0169 26044.2 -03507.4 -07.6700 26279.3
 30 11 2013  11 17  -21.0165 26043.7 -03507.3 -07.6699 26278.8
 30 11 2013  11 18  -21.0157 26043.6 -03507.5 -07.6702 26278.7
 30 11 2013  11 19  -21.0156 26043.1 -03507.4 -07.6703 26278.2
 30 11 2013  11 20  -21.0145 26043.1 -03507.5 -07.6705 26278.2
 30 11 2013  11 21  -21.0138 26042.3 -03507.3 -07.6702 26277.4
 30 11 2013  11 22  -21.0127 26042.2 -03507.3 -07.6704 26277.3
 30 11 2013  11 23  -21.0126 26042.2 -03507.6 -07.6708 26277.3
 30 11 2013  11 24  -21.0123 26042.1 -03507.8 -07.6714 26277.3
 30 11 2013  11 25  -21.0113 26041.4 -03507.8 -07.6715 26276.6
 30 11 2013  11 26  -21.0104 26040.6 -03507.8 -07.6718 26275.8
 30 11 2013  11 27  -21.0104 26040.2 -03508.0 -07.6723 26275.4
 30 11 2013  11 28  -21.0105 26039.9 -03508.2 -07.6728 26275.2
 30 11 2013  11 29  -21.0108 26039.8 -03508.5 -07.6735 26275.1
 30 11 2013  11 30  -21.0117 26039.8 -03508.8 -07.6742 26275.1
 30 11 2013  11 31  -21.0123 26039.4 -03508.8 -07.6744 26274.7
 30 11 2013  11 32  -21.0126 26038.9 -03508.8 -07.6746 26274.2
 30 11 2013  11 33  -21.0128 26038.2 -03508.8 -07.6748 26273.6
 30 11 2013  11 34  -21.0129 26037.3 -03508.8 -07.6749 26272.7
 30 11 2013  11 35  -21.0132 26036.7 -03508.9 -07.6753 26272.0
 30 11 2013  11 36  -21.0133 26036.1 -03509.0 -07.6757 26271.5
 30 11 2013  11 37  -21.0129 26035.8 -03509.2 -07.6764 26271.2
 30 11 2013  11 38  -21.0126 26035.7 -03509.5 -07.6770 26271.2
 30 11 2013  11 39  -21.0122 26035.8 -03509.9 -07.6778 26271.3
 30 11 2013  11 40  -21.0125 26035.7 -03510.1 -07.6783 26271.2
 30 11 2013  11 41  -21.0121 26035.5 -03510.3 -07.6787 26271.1
 30 11 2013  11 42  -21.0117 26035.5 -03510.5 -07.6792 26271.1
 30 11 2013  11 43  -21.0116 26035.7 -03510.9 -07.6800 26271.4
 30 11 2013  11 44  -21.0110 26035.8 -03511.2 -07.6805 26271.5
 30 11 2013  11 45  -21.0107 26036.1 -03511.5 -07.6811 26271.8
 30 11 2013  11 46  -21.0108 26036.5 -03511.8 -07.6817 26272.2
 30 11 2013  11 47  -21.0107 26036.9 -03512.1 -07.6822 26272.7
 30 11 2013  11 48  -21.0105 26037.2 -03512.3 -07.6825 26273.0
 30 11 2013  11 49  -21.0104 26037.4 -03512.4 -07.6828 26273.2
 30 11 2013  11 50  -21.0101 26037.6 -03512.6 -07.6831 26273.4
 30 11 2013  11 51  -21.0104 26037.8 -03512.7 -07.6833 26273.7
 30 11 2013  11 52  -21.0105 26038.4 -03513.0 -07.6837 26274.3
 30 11 2013  11 53  -21.0105 26038.4 -03512.9 -07.6836 26274.3
 30 11 2013  11 54  -21.0099 26038.6 -03513.0 -07.6837 26274.5
 30 11 2013  11 55  -21.0102 26038.7 -03513.1 -07.6838 26274.6
 30 11 2013  11 56  -21.0095 26039.1 -03513.2 -07.6840 26275.1
 30 11 2013  11 57  -21.0093 26039.2 -03513.3 -07.6841 26275.1
 30 11 2013  11 58  -21.0094 26039.7 -03513.5 -07.6845 26275.7
 30 11 2013  11 59  -21.0088 26039.8 -03513.5 -07.6843 26275.8
 30 11 2013  12 00  -21.0083 26039.9 -03513.5 -07.6843 26275.9
 30 11 2013  12 01  -21.0079 26040.3 -03513.7 -07.6847 26276.3
 30 11 2013  12 02  -21.0073 26040.6 -03513.9 -07.6849 26276.6
 30 11 2013  12 03  -21.0070 26040.9 -03514.0 -07.6852 26276.9
 30 11 2013  12 04  -21.0069 26041.1 -03514.2 -07.6854 26277.2
 30 11 2013  12 05  -21.0067 26041.3 -03514.3 -07.6856 26277.4
 30 11 2013  12 06  -21.0068 26041.6 -03514.3 -07.6857 26277.7
 30 11 2013  12 07  -21.0068 26041.8 -03514.4 -07.6858 26277.9
 30 11 2013  12 08  -21.0071 26042.0 -03514.5 -07.6859 26278.1
 30 11 2013  12 09  -21.0075 26042.1 -03514.6 -07.6860 26278.2
 30 11 2013  12 10  -21.0077 26042.2 -03514.6 -07.6860 26278.3
 30 11 2013  12 11  -21.0082 26042.2 -03514.6 -07.6861 26278.3
 30 11 2013  12 12  -21.0087 26042.3 -03514.7 -07.6862 26278.4
 30 11 2013  12 13  -21.0087 26042.7 -03514.8 -07.6864 26278.8
 30 11 2013  12 14  -21.0089 26043.1 -03515.0 -07.6866 26279.2
 30 11 2013  12 15  -21.0091 26043.4 -03515.1 -07.6867 26279.6
 30 11 2013  12 16  -21.0094 26043.9 -03515.2 -07.6869 26280.0
 30 11 2013  12 17  -21.0095 26044.4 -03515.4 -07.6871 26280.6
 30 11 2013  12 18  -21.0095 26044.8 -03515.4 -07.6870 26281.0
 30 11 2013  12 19  -21.0095 26045.2 -03515.4 -07.6870 26281.4
 30 11 2013  12 20  -21.0095 26045.6 -03515.5 -07.6871 26281.8
 30 11 2013  12 21  -21.0097 26046.2 -03515.7 -07.6872 26282.4
 30 11 2013  12 22  -21.0099 26046.6 -03515.7 -07.6872 26282.8
 30 11 2013  12 23  -21.0100 26046.9 -03515.7 -07.6871 26283.1
 30 11 2013  12 24  -21.0103 26047.2 -03515.7 -07.6871 26283.4
 30 11 2013  12 25  -21.0105 26047.5 -03515.7 -07.6870 26283.7
 30 11 2013  12 26  -21.0107 26047.7 -03515.7 -07.6868 26283.9
 30 11 2013  12 27  -21.0107 26047.8 -03515.6 -07.6865 26284.0
 30 11 2013  12 28  -21.0108 26048.1 -03515.6 -07.6865 26284.2
 30 11 2013  12 29  -21.0111 26048.3 -03515.6 -07.6865 26284.5
 30 11 2013  12 30  -21.0113 26048.6 -03515.6 -07.6864 26284.7
 30 11 2013  12 31  -21.0114 26048.8 -03515.6 -07.6863 26285.0
 30 11 2013  12 32  -21.0115 26049.1 -03515.6 -07.6863 26285.2
 30 11 2013  12 33  -21.0118 26049.3 -03515.7 -07.6863 26285.5
 30 11 2013  12 34  -21.0121 26049.8 -03515.8 -07.6864 26286.0
 30 11 2013  12 35  -21.0123 26050.1 -03515.8 -07.6863 26286.3
 30 11 2013  12 36  -21.0125 26050.2 -03515.7 -07.6862 26286.4
 30 11 2013  12 37  -21.0128 26050.4 -03515.7 -07.6861 26286.6
 30 11 2013  12 38  -21.0132 26050.6 -03515.8 -07.6861 26286.8
 30 11 2013  12 39  -21.0132 26050.8 -03515.8 -07.6862 26287.0
 30 11 2013  12 40  -21.0131 26050.9 -03515.8 -07.6861 26287.1
 30 11 2013  12 41  -21.0130 26051.2 -03515.9 -07.6862 26287.4
 30 11 2013  12 42  -21.0131 26051.7 -03516.0 -07.6864 26287.9
 30 11 2013  12 43  -21.0132 26052.2 -03516.2 -07.6866 26288.4
 30 11 2013  12 44  -21.0136 26052.8 -03516.3 -07.6867 26289.0
 30 11 2013  12 45  -21.0141 26053.6 -03516.6 -07.6870 26289.9
 30 11 2013  12 46  -21.0146 26054.2 -03516.6 -07.6870 26290.5
 30 11 2013  12 47  -21.0149 26054.7 -03516.6 -07.6867 26290.9
 30 11 2013  12 48  -21.0154 26055.2 -03516.6 -07.6866 26291.4
 30 11 2013  12 49  -21.0158 26055.4 -03516.5 -07.6862 26291.6
 30 11 2013  12 50  -21.0161 26055.5 -03516.3 -07.6859 26291.7
 30 11 2013  12 51  -21.0161 26055.9 -03516.3 -07.6857 26292.1
 30 11 2013  12 52  -21.0164 26056.0 -03516.2 -07.6854 26292.1
 30 11 2013  12 53  -21.0167 26056.0 -03516.0 -07.6851 26292.2
 30 11 2013  12 54  -21.0168 26056.1 -03516.0 -07.6850 26292.2
 30 11 2013  12 55  -21.0170 26056.1 -03515.8 -07.6847 26292.3
 30 11 2013  12 56  -21.0172 26056.2 -03515.8 -07.6847 26292.3
 30 11 2013  12 57  -21.0168 26056.3 -03515.8 -07.6845 26292.5
 30 11 2013  12 58  -21.0163 26056.4 -03515.7 -07.6844 26292.6
 30 11 2013  12 59  -21.0157 26056.5 -03515.7 -07.6842 26292.6
 30 11 2013  13 00  -21.0151 26056.9 -03515.7 -07.6841 26293.0
 30 11 2013  13 01  -21.0144 26057.3 -03515.8 -07.6841 26293.4
 30 11 2013  13 02  -21.0139 26057.8 -03515.8 -07.6841 26293.9
 30 11 2013  13 03  -21.0133 26058.4 -03515.8 -07.6840 26294.5
 30 11 2013  13 04  -21.0128 26058.8 -03515.8 -07.6839 26294.9
 30 11 2013  13 05  -21.0126 26059.3 -03515.9 -07.6838 26295.4
 30 11 2013  13 06  -21.0125 26059.8 -03515.9 -07.6837 26296.0
 30 11 2013  13 07  -21.0126 26060.2 -03515.9 -07.6837 26296.3
 30 11 2013  13 08  -21.0129 26060.4 -03515.8 -07.6834 26296.5
 30 11 2013  13 09  -21.0132 26060.5 -03515.7 -07.6832 26296.6
 30 11 2013  13 10  -21.0138 26060.6 -03515.6 -07.6829 26296.6
 30 11 2013  13 11  -21.0146 26060.6 -03515.5 -07.6827 26296.6
 30 11 2013  13 12  -21.0155 26060.6 -03515.4 -07.6824 26296.6
 30 11 2013  13 13  -21.0163 26060.5 -03515.3 -07.6822 26296.6
 30 11 2013  13 14  -21.0169 26060.8 -03515.2 -07.6820 26296.8
 30 11 2013  13 15  -21.0173 26061.1 -03515.2 -07.6819 26297.1
 30 11 2013  13 16  -21.0175 26061.0 -03515.0 -07.6814 26296.9
 30 11 2013  13 17  -21.0175 26060.6 -03514.6 -07.6808 26296.5
 30 11 2013  13 18  -21.0175 26060.2 -03514.4 -07.6805 26296.1
 30 11 2013  13 19  -21.0175 26060.0 -03514.3 -07.6802 26295.9
 30 11 2013  13 20  -21.0173 26059.8 -03514.2 -07.6800 26295.6
 30 11 2013  13 21  -21.0172 26059.6 -03514.1 -07.6800 26295.5
 30 11 2013  13 22  -21.0172 26059.7 -03514.1 -07.6799 26295.6
 30 11 2013  13 23  -21.0172 26059.8 -03514.1 -07.6798 26295.7
 30 11 2013  13 24  -21.0170 26059.8 -03514.0 -07.6796 26295.6
 30 11 2013  13 25  -21.0172 26059.7 -03513.9 -07.6794 26295.5
 30 11 2013  13 26  -21.0172 26060.0 -03513.8 -07.6793 26295.8
 30 11 2013  13 27  -21.0172 26060.1 -03513.8 -07.6790 26295.9
 30 11 2013  13 28  -21.0172 26060.0 -03513.6 -07.6787 26295.8
 30 11 2013  13 29  -21.0172 26060.1 -03513.5 -07.6784 26295.9
 30 11 2013  13 30  -21.0172 26060.5 -03513.4 -07.6782 26296.2
 30 11 2013  13 31  -21.0170 26060.8 -03513.4 -07.6780 26296.5
 30 11 2013  13 32  -21.0165 26060.9 -03513.2 -07.6776 26296.7
 30 11 2013  13 33  -21.0161 26061.2 -03513.1 -07.6772 26296.9
 30 11 2013  13 34  -21.0155 26061.7 -03513.0 -07.6770 26297.4
 30 11 2013  13 35  -21.0151 26062.1 -03512.9 -07.6766 26297.8
 30 11 2013  13 36  -21.0147 26062.4 -03512.8 -07.6762 26298.1
 30 11 2013  13 37  -21.0146 26062.3 -03512.5 -07.6756 26297.9
 30 11 2013  13 38  -21.0138 26061.9 -03512.1 -07.6748 26297.5
 30 11 2013  13 39  -21.0132 26062.1 -03512.0 -07.6748 26297.7
 30 11 2013  13 40  -21.0126 26062.4 -03512.0 -07.6746 26298.0
 30 11 2013  13 41  -21.0122 26063.2 -03512.1 -07.6746 26298.7
 30 11 2013  13 42  -21.0120 26063.8 -03512.1 -07.6744 26299.3
 30 11 2013  13 43  -21.0113 26063.8 -03511.9 -07.6738 26299.3
 30 11 2013  13 44  -21.0108 26063.9 -03511.6 -07.6733 26299.4
 30 11 2013  13 45  -21.0108 26064.1 -03511.5 -07.6729 26299.5
 30 11 2013  13 46  -21.0111 26063.7 -03511.1 -07.6722 26299.1
 30 11 2013  13 47  -21.0106 26063.0 -03510.7 -07.6715 26298.4
 30 11 2013  13 48  -21.0101 26062.5 -03510.5 -07.6712 26297.9
 30 11 2013  13 49  -21.0095 26062.9 -03510.7 -07.6716 26298.3
 30 11 2013  13 50  -21.0089 26063.4 -03510.9 -07.6719 26298.8
 30 11 2013  13 51  -21.0087 26063.4 -03510.8 -07.6717 26298.8
 30 11 2013  13 52  -21.0094 26063.4 -03510.8 -07.6717 26298.8
 30 11 2013  13 53  -21.0099 26063.5 -03510.8 -07.6717 26298.9
 30 11 2013  13 54  -21.0102 26063.6 -03510.8 -07.6716 26299.0
 30 11 2013  13 55  -21.0100 26063.7 -03510.7 -07.6715 26299.0
 30 11 2013  13 56  -21.0095 26063.6 -03510.6 -07.6712 26298.9
 30 11 2013  13 57  -21.0090 26064.3 -03510.8 -07.6714 26299.7
 30 11 2013  13 58  -21.0094 26064.9 -03510.8 -07.6713 26300.3
 30 11 2013  13 59  -21.0097 26064.7 -03510.5 -07.6705 26300.1
 30 11 2013  14 00  -21.0097 26064.5 -03510.2 -07.6700 26299.8
 30 11 2013  14 01  -21.0100 26065.0 -03510.2 -07.6700 26300.3
 30 11 2013  14 02  -21.0108 26066.1 -03510.4 -07.6700 26301.4
 30 11 2013  14 03  -21.0107 26066.2 -03510.1 -07.6694 26301.4
 30 11 2013  14 04  -21.0090 26065.2 -03509.4 -07.6682 26300.4
 30 11 2013  14 05  -21.0078 26064.8 -03509.2 -07.6678 26300.0
 30 11 2013  14 06  -21.0080 26065.2 -03509.3 -07.6679 26300.4
 30 11 2013  14 07  -21.0082 26064.9 -03509.0 -07.6674 26300.1
 30 11 2013  14 08  -21.0078 26063.9 -03508.5 -07.6665 26299.0
 30 11 2013  14 09  -21.0078 26062.1 -03507.7 -07.6654 26297.1
 30 11 2013  14 10  -21.0081 26061.7 -03507.8 -07.6657 26296.7
 30 11 2013  14 11  -21.0084 26061.5 -03507.9 -07.6660 26296.6
 30 11 2013  14 12  -21.0076 26061.3 -03507.8 -07.6659 26296.3
 30 11 2013  14 13  -21.0072 26060.4 -03507.4 -07.6653 26295.4
 30 11 2013  14 14  -21.0071 26060.5 -03507.7 -07.6658 26295.5
 30 11 2013  14 15  -21.0057 26060.3 -03507.7 -07.6659 26295.3
 30 11 2013  14 16  -21.0056 26060.3 -03507.8 -07.6662 26295.3
 30 11 2013  14 17  -21.0063 26060.8 -03508.2 -07.6668 26295.9
 30 11 2013  14 18  -21.0074 26060.8 -03508.2 -07.6669 26295.9
 30 11 2013  14 19  -21.0078 26060.8 -03508.2 -07.6669 26295.9
 30 11 2013  14 20  -21.0073 26060.5 -03508.0 -07.6665 26295.5
 30 11 2013  14 21  -21.0074 26060.7 -03508.1 -07.6666 26295.7
 30 11 2013  14 22  -21.0079 26060.2 -03507.9 -07.6663 26295.2
 30 11 2013  14 23  -21.0078 26060.2 -03507.8 -07.6661 26295.2
 30 11 2013  14 24  -21.0084 26060.0 -03507.6 -07.6657 26295.0
 30 11 2013  14 25  -21.0088 26060.3 -03507.6 -07.6658 26295.3
 30 11 2013  14 26  -21.0082 26059.8 -03507.3 -07.6652 26294.7
 30 11 2013  14 27  -21.0089 26059.8 -03507.3 -07.6652 26294.7
 30 11 2013  14 28  -21.0098 26059.9 -03507.4 -07.6653 26294.9
 30 11 2013  14 29  -21.0094 26059.0 -03507.0 -07.6646 26294.0
 30 11 2013  14 30  -21.0090 26058.5 -03506.7 -07.6643 26293.4
 30 11 2013  14 31  -21.0092 26058.5 -03506.8 -07.6646 26293.4
 30 11 2013  14 32  -21.0092 26058.2 -03506.8 -07.6645 26293.1
 30 11 2013  14 33  -21.0095 26058.0 -03506.7 -07.6643 26292.9
 30 11 2013  14 34  -21.0098 26058.0 -03506.6 -07.6643 26292.9
 30 11 2013  14 35  -21.0099 26057.7 -03506.5 -07.6640 26292.6
 30 11 2013  14 36  -21.0100 26057.5 -03506.4 -07.6638 26292.4
 30 11 2013  14 37  -21.0105 26057.6 -03506.4 -07.6639 26292.4
 30 11 2013  14 38  -21.0112 26057.6 -03506.4 -07.6639 26292.5
 30 11 2013  14 39  -21.0121 26057.6 -03506.3 -07.6636 26292.4
 30 11 2013  14 40  -21.0129 26057.6 -03506.2 -07.6634 26292.4
 30 11 2013  14 41  -21.0129 26057.4 -03506.0 -07.6630 26292.2
 30 11 2013  14 42  -21.0125 26057.3 -03505.8 -07.6627 26292.1
 30 11 2013  14 43  -21.0118 26057.0 -03505.6 -07.6623 26291.8
 30 11 2013  14 44  -21.0118 26057.1 -03505.7 -07.6625 26291.9
 30 11 2013  14 45  -21.0124 26057.4 -03505.7 -07.6625 26292.2
 30 11 2013  14 46  -21.0119 26057.2 -03505.5 -07.6620 26291.9
 30 11 2013  14 47  -21.0106 26056.9 -03505.2 -07.6616 26291.6
 30 11 2013  14 48  -21.0107 26057.3 -03505.4 -07.6617 26292.0
 30 11 2013  14 49  -21.0118 26058.2 -03505.8 -07.6624 26293.0
 30 11 2013  14 50  -21.0122 26059.3 -03506.0 -07.6626 26294.1
 30 11 2013  14 51  -21.0121 26059.7 -03505.9 -07.6621 26294.4
 30 11 2013  14 52  -21.0118 26060.0 -03505.7 -07.6617 26294.7
 30 11 2013  14 53  -21.0119 26059.9 -03505.5 -07.6612 26294.6
 30 11 2013  14 54  -21.0137 26061.5 -03505.9 -07.6617 26296.3
 30 11 2013  14 55  -21.0150 26061.7 -03505.6 -07.6609 26296.4
 30 11 2013  14 56  -21.0144 26061.0 -03504.8 -07.6595 26295.6
 30 11 2013  14 57  -21.0137 26060.9 -03504.7 -07.6592 26295.5
 30 11 2013  14 58  -21.0126 26060.1 -03504.3 -07.6585 26294.6
 30 11 2013  14 59  -21.0108 26058.5 -03503.7 -07.6577 26293.0
 30 11 2013  15 00  -21.0095 26057.6 -03503.5 -07.6576 26292.0
 30 11 2013  15 01  -21.0108 26057.8 -03504.0 -07.6586 26292.3
 30 11 2013  15 02  -21.0129 26058.1 -03504.4 -07.6594 26292.6
 30 11 2013  15 03  -21.0134 26057.5 -03504.2 -07.6591 26292.1
 30 11 2013  15 04  -21.0123 26056.0 -03503.6 -07.6583 26290.5
 30 11 2013  15 05  -21.0102 26054.6 -03503.3 -07.6581 26289.1
 30 11 2013  15 06  -21.0089 26053.7 -03503.4 -07.6586 26288.2
 30 11 2013  15 07  -21.0077 26052.9 -03503.7 -07.6593 26287.4
 30 11 2013  15 08  -21.0074 26052.7 -03504.1 -07.6604 26287.3
 30 11 2013  15 09  -21.0088 26053.7 -03505.0 -07.6620 26288.5
 30 11 2013  15 10  -21.0106 26055.1 -03505.7 -07.6631 26289.9
 30 11 2013  15 11  -21.0121 26056.0 -03506.0 -07.6635 26290.8
 30 11 2013  15 12  -21.0117 26055.7 -03505.7 -07.6629 26290.5
 30 11 2013  15 13  -21.0114 26055.4 -03505.4 -07.6624 26290.2
 30 11 2013  15 14  -21.0125 26055.4 -03505.5 -07.6625 26290.1
 30 11 2013  15 15  -21.0124 26054.6 -03505.2 -07.6621 26289.3
 30 11 2013  15 16  -21.0131 26054.1 -03505.0 -07.6618 26288.8
 30 11 2013  15 17  -21.0129 26053.4 -03504.8 -07.6616 26288.1
 30 11 2013  15 18  -21.0114 26052.6 -03504.6 -07.6615 26287.2
 30 11 2013  15 19  -21.0092 26051.6 -03504.6 -07.6617 26286.3
 30 11 2013  15 20  -21.0078 26051.1 -03504.9 -07.6624 26285.8
 30 11 2013  15 21  -21.0086 26051.5 -03505.4 -07.6635 26286.3
 30 11 2013  15 22  -21.0090 26052.8 -03506.1 -07.6646 26287.7
 30 11 2013  15 23  -21.0080 26053.8 -03506.5 -07.6653 26288.7
 30 11 2013  15 24  -21.0067 26054.2 -03506.8 -07.6657 26289.1
 30 11 2013  15 25  -21.0074 26054.4 -03507.0 -07.6660 26289.4
 30 11 2013  15 26  -21.0088 26055.6 -03507.2 -07.6663 26290.5
 30 11 2013  15 27  -21.0097 26056.7 -03507.4 -07.6664 26291.7
 30 11 2013  15 28  -21.0090 26056.8 -03507.0 -07.6654 26291.7
 30 11 2013  15 29  -21.0082 26056.2 -03506.5 -07.6645 26291.1
 30 11 2013  15 30  -21.0087 26056.1 -03506.4 -07.6642 26291.0
 30 11 2013  15 31  -21.0084 26056.1 -03506.2 -07.6638 26290.9
 30 11 2013  15 32  -21.0074 26056.0 -03506.0 -07.6634 26290.8
 30 11 2013  15 33  -21.0063 26056.2 -03505.9 -07.6632 26291.1
 30 11 2013  15 34  -21.0064 26056.1 -03505.7 -07.6629 26290.9
 30 11 2013  15 35  -21.0061 26056.8 -03505.9 -07.6631 26291.6
 30 11 2013  15 36  -21.0044 26056.7 -03505.8 -07.6628 26291.5
 30 11 2013  15 37  -21.0034 26056.7 -03505.7 -07.6626 26291.4
 30 11 2013  15 38  -21.0031 26057.0 -03505.8 -07.6628 26291.8
 30 11 2013  15 39  -21.0035 26057.3 -03505.9 -07.6629 26292.1
 30 11 2013  15 40  -21.0031 26057.2 -03505.8 -07.6626 26292.0
 30 11 2013  15 41  -21.0026 26056.9 -03505.5 -07.6622 26291.7
 30 11 2013  15 42  -21.0022 26056.2 -03505.3 -07.6618 26290.9
 30 11 2013  15 43  -21.0026 26055.7 -03505.2 -07.6618 26290.5
 30 11 2013  15 44  -21.0020 26055.4 -03505.1 -07.6616 26290.1
 30 11 2013  15 45  -21.0018 26055.4 -03505.2 -07.6619 26290.1
 30 11 2013  15 46  -21.0020 26056.0 -03505.6 -07.6625 26290.7
 30 11 2013  15 47  -21.0020 26056.0 -03505.6 -07.6627 26290.8
 30 11 2013  15 48  -21.0016 26055.6 -03505.5 -07.6626 26290.3
 30 11 2013  15 49  -21.0008 26055.3 -03505.6 -07.6627 26290.1
 30 11 2013  15 50  -21.0012 26055.5 -03505.8 -07.6632 26290.3
 30 11 2013  15 51  -21.0025 26055.9 -03506.1 -07.6637 26290.8
 30 11 2013  15 52  -21.0023 26056.0 -03506.2 -07.6638 26290.8
 30 11 2013  15 53  -21.0016 26055.1 -03505.8 -07.6633 26289.9
 30 11 2013  15 54  -21.0023 26055.0 -03505.9 -07.6635 26289.8
 30 11 2013  15 55  -21.0035 26055.2 -03506.1 -07.6640 26290.1
 30 11 2013  15 56  -21.0034 26054.9 -03506.0 -07.6638 26289.7
 30 11 2013  15 57  -21.0039 26054.4 -03506.0 -07.6638 26289.2
 30 11 2013  15 58  -21.0046 26054.3 -03506.1 -07.6641 26289.1
 30 11 2013  15 59  -21.0051 26054.2 -03506.2 -07.6643 26289.1
 30 11 2013  16 00  -21.0057 26054.1 -03506.2 -07.6645 26289.0
 30 11 2013  16 01  -21.0055 26053.8 -03506.2 -07.6645 26288.6
 30 11 2013  16 02  -21.0059 26053.7 -03506.3 -07.6647 26288.6
 30 11 2013  16 03  -21.0070 26053.7 -03506.4 -07.6651 26288.6
 30 11 2013  16 04  -21.0075 26053.6 -03506.4 -07.6651 26288.5
 30 11 2013  16 05  -21.0079 26053.5 -03506.5 -07.6652 26288.4
 30 11 2013  16 06  -21.0084 26053.6 -03506.5 -07.6653 26288.5
 30 11 2013  16 07  -21.0087 26053.8 -03506.5 -07.6652 26288.7
 30 11 2013  16 08  -21.0097 26054.0 -03506.6 -07.6654 26288.9
 30 11 2013  16 09  -21.0100 26054.0 -03506.5 -07.6652 26288.9
 30 11 2013  16 10  -21.0097 26054.2 -03506.5 -07.6650 26289.1
 30 11 2013  16 11  -21.0109 26054.8 -03506.7 -07.6654 26289.7
 30 11 2013  16 12  -21.0119 26055.0 -03506.7 -07.6652 26289.9
 30 11 2013  16 13  -21.0125 26055.1 -03506.6 -07.6649 26290.0
 30 11 2013  16 14  -21.0121 26054.8 -03506.3 -07.6644 26289.6
 30 11 2013  16 15  -21.0117 26054.2 -03506.0 -07.6639 26289.1
 30 11 2013  16 16  -21.0117 26054.3 -03506.0 -07.6639 26289.1
 30 11 2013  16 17  -21.0120 26054.1 -03506.0 -07.6640 26289.0
 30 11 2013  16 18  -21.0115 26053.6 -03505.8 -07.6638 26288.4
 30 11 2013  16 19  -21.0114 26053.2 -03505.8 -07.6638 26288.0
 30 11 2013  16 20  -21.0116 26053.0 -03505.9 -07.6641 26287.8
 30 11 2013  16 21  -21.0120 26052.7 -03506.0 -07.6644 26287.5
 30 11 2013  16 22  -21.0124 26052.6 -03506.1 -07.6647 26287.5
 30 11 2013  16 23  -21.0131 26052.7 -03506.3 -07.6651 26287.6
 30 11 2013  16 24  -21.0137 26052.3 -03506.3 -07.6651 26287.2
 30 11 2013  16 25  -21.0144 26051.8 -03506.2 -07.6650 26286.7
 30 11 2013  16 26  -21.0156 26051.5 -03506.1 -07.6649 26286.4
 30 11 2013  16 27  -21.0167 26051.4 -03506.1 -07.6650 26286.3
 30 11 2013  16 28  -21.0176 26051.2 -03506.1 -07.6650 26286.1
 30 11 2013  16 29  -21.0181 26051.0 -03505.9 -07.6647 26285.9
 30 11 2013  16 30  -21.0195 26050.9 -03505.9 -07.6647 26285.8
 30 11 2013  16 31  -21.0206 26050.9 -03505.9 -07.6647 26285.7
 30 11 2013  16 32  -21.0210 26050.6 -03505.8 -07.6645 26285.4
 30 11 2013  16 33  -21.0197 26049.9 -03505.5 -07.6642 26284.7
 30 11 2013  16 34  -21.0196 26049.9 -03505.8 -07.6647 26284.8
 30 11 2013  16 35  -21.0199 26050.2 -03506.0 -07.6652 26285.1
 30 11 2013  16 36  -21.0206 26050.5 -03506.2 -07.6656 26285.4
 30 11 2013  16 37  -21.0219 26050.8 -03506.4 -07.6659 26285.7
 30 11 2013  16 38  -21.0235 26050.5 -03506.2 -07.6656 26285.4
 30 11 2013  16 39  -21.0236 26049.8 -03505.8 -07.6648 26284.6
 30 11 2013  16 40  -21.0243 26049.2 -03505.4 -07.6643 26284.0
 30 11 2013  16 41  -21.0245 26048.7 -03505.2 -07.6640 26283.5
 30 11 2013  16 42  -21.0252 26048.5 -03505.3 -07.6642 26283.3
 30 11 2013  16 43  -21.0261 26048.3 -03505.3 -07.6643 26283.1
 30 11 2013  16 44  -21.0268 26048.2 -03505.4 -07.6645 26283.1
 30 11 2013  16 45  -21.0270 26048.4 -03505.6 -07.6648 26283.2
 30 11 2013  16 46  -21.0272 26048.5 -03505.7 -07.6650 26283.4
 30 11 2013  16 47  -21.0273 26048.5 -03505.8 -07.6652 26283.4
 30 11 2013  16 48  -21.0272 26048.5 -03505.9 -07.6654 26283.4
 30 11 2013  16 49  -21.0279 26048.7 -03506.0 -07.6655 26283.6
 30 11 2013  16 50  -21.0306 26049.5 -03506.2 -07.6659 26284.4
 30 11 2013  16 51  -21.0332 26049.9 -03506.1 -07.6654 26284.8
 30 11 2013  16 52  -21.0347 26049.5 -03505.5 -07.6644 26284.3
 30 11 2013  16 53  -21.0350 26049.1 -03505.0 -07.6633 26283.8
 30 11 2013  16 54  -21.0349 26049.0 -03504.8 -07.6628 26283.7
 30 11 2013  16 55  -21.0358 26049.2 -03504.7 -07.6627 26283.9
 30 11 2013  16 56  -21.0362 26049.1 -03504.5 -07.6622 26283.8
 30 11 2013  16 57  -21.0368 26048.8 -03504.2 -07.6617 26283.5
 30 11 2013  16 58  -21.0372 26048.6 -03503.9 -07.6612 26283.2
 30 11 2013  16 59  -21.0373 26048.4 -03503.7 -07.6607 26283.0
 30 11 2013  17 00  -21.0377 26048.5 -03503.5 -07.6603 26283.1
 30 11 2013  17 01  -21.0383 26048.3 -03503.3 -07.6598 26282.9
 30 11 2013  17 02  -21.0390 26048.3 -03503.1 -07.6595 26282.8
 30 11 2013  17 03  -21.0395 26048.1 -03502.9 -07.6591 26282.5
 30 11 2013  17 04  -21.0391 26047.6 -03502.5 -07.6583 26282.1
 30 11 2013  17 05  -21.0389 26047.6 -03502.4 -07.6581 26282.0
 30 11 2013  17 06  -21.0395 26047.2 -03502.2 -07.6579 26281.6
 30 11 2013  17 07  -21.0392 26047.2 -03502.1 -07.6577 26281.6
 30 11 2013  17 08  -21.0391 26047.2 -03502.1 -07.6577 26281.5
 30 11 2013  17 09  -21.0393 26047.2 -03502.2 -07.6578 26281.6
 30 11 2013  17 10  -21.0404 26047.0 -03502.0 -07.6575 26281.4
 30 11 2013  17 11  -21.0409 26046.6 -03501.8 -07.6570 26281.0
 30 11 2013  17 12  -21.0408 26046.2 -03501.6 -07.6568 26280.6
 30 11 2013  17 13  -21.0406 26045.9 -03501.6 -07.6569 26280.2
 30 11 2013  17 14  -21.0404 26045.5 -03501.5 -07.6568 26279.8
 30 11 2013  17 15  -21.0405 26045.3 -03501.5 -07.6569 26279.6
 30 11 2013  17 16  -21.0400 26045.1 -03501.4 -07.6567 26279.4
 30 11 2013  17 17  -21.0397 26044.8 -03501.4 -07.6567 26279.1
 30 11 2013  17 18  -21.0405 26045.1 -03501.6 -07.6572 26279.5
 30 11 2013  17 19  -21.0408 26045.3 -03501.7 -07.6573 26279.6
 30 11 2013  17 20  -21.0412 26045.5 -03501.8 -07.6574 26279.9
 30 11 2013  17 21  -21.0417 26045.4 -03501.7 -07.6573 26279.8
 30 11 2013  17 22  -21.0420 26045.6 -03501.8 -07.6574 26280.0
 30 11 2013  17 23  -21.0418 26045.3 -03501.6 -07.6571 26279.7
 30 11 2013  17 24  -21.0416 26045.2 -03501.6 -07.6571 26279.5
 30 11 2013  17 25  -21.0417 26045.2 -03501.7 -07.6573 26279.6
 30 11 2013  17 26  -21.0415 26045.1 -03501.7 -07.6574 26279.5
 30 11 2013  17 27  -21.0417 26045.1 -03501.9 -07.6577 26279.5
 30 11 2013  17 28  -21.0418 26045.1 -03501.9 -07.6579 26279.4
 30 11 2013  17 29  -21.0416 26044.5 -03501.8 -07.6577 26278.9
 30 11 2013  17 30  -21.0417 26044.1 -03501.7 -07.6577 26278.5
 30 11 2013  17 31  -21.0424 26043.8 -03501.7 -07.6577 26278.2
 30 11 2013  17 32  -21.0428 26043.4 -03501.6 -07.6577 26277.7
 30 11 2013  17 33  -21.0431 26042.9 -03501.6 -07.6577 26277.3
 30 11 2013  17 34  -21.0436 26042.2 -03501.4 -07.6575 26276.5
 30 11 2013  17 35  -21.0439 26041.9 -03501.3 -07.6575 26276.2
 30 11 2013  17 36  -21.0439 26042.2 -03501.6 -07.6579 26276.5
 30 11 2013  17 37  -21.0442 26042.1 -03501.7 -07.6582 26276.4
 30 11 2013  17 38  -21.0447 26041.8 -03501.6 -07.6581 26276.2
 30 11 2013  17 39  -21.0449 26041.7 -03501.6 -07.6582 26276.1
 30 11 2013  17 40  -21.0446 26041.4 -03501.6 -07.6581 26275.7
 30 11 2013  17 41  -21.0443 26040.9 -03501.4 -07.6579 26275.2
 30 11 2013  17 42  -21.0444 26040.8 -03501.4 -07.6579 26275.1
 30 11 2013  17 43  -21.0445 26040.7 -03501.5 -07.6581 26275.1
 30 11 2013  17 44  -21.0445 26040.5 -03501.4 -07.6581 26274.8
 30 11 2013  17 45  -21.0447 26040.2 -03501.3 -07.6579 26274.5
 30 11 2013  17 46  -21.0452 26040.0 -03501.3 -07.6580 26274.3
 30 11 2013  17 47  -21.0457 26040.0 -03501.4 -07.6582 26274.3
 30 11 2013  17 48  -21.0460 26039.8 -03501.3 -07.6581 26274.2
 30 11 2013  17 49  -21.0462 26039.8 -03501.3 -07.6580 26274.2
 30 11 2013  17 50  -21.0466 26040.0 -03501.4 -07.6582 26274.3
 30 11 2013  17 51  -21.0470 26040.1 -03501.5 -07.6583 26274.4
 30 11 2013  17 52  -21.0475 26040.0 -03501.5 -07.6583 26274.3
 30 11 2013  17 53  -21.0476 26039.7 -03501.4 -07.6582 26274.1
 30 11 2013  17 54  -21.0477 26039.5 -03501.3 -07.6581 26273.9
 30 11 2013  17 55  -21.0480 26039.4 -03501.4 -07.6583 26273.8
 30 11 2013  17 56  -21.0486 26039.5 -03501.4 -07.6584 26273.8
 30 11 2013  17 57  -21.0487 26039.4 -03501.4 -07.6584 26273.8
 30 11 2013  17 58  -21.0484 26039.1 -03501.3 -07.6582 26273.5
 30 11 2013  17 59  -21.0484 26038.7 -03501.2 -07.6580 26273.1
 30 11 2013  18 00  -21.0484 26038.6 -03501.1 -07.6580 26272.9
 30 11 2013  18 01  -21.0487 26038.5 -03501.1 -07.6579 26272.9
 30 11 2013  18 02  -21.0490 26038.6 -03501.1 -07.6579 26272.9
 30 11 2013  18 03  -21.0493 26038.2 -03500.9 -07.6576 26272.5
 30 11 2013  18 04  -21.0499 26038.0 -03500.8 -07.6574 26272.3
 30 11 2013  18 05  -21.0503 26037.9 -03500.7 -07.6573 26272.2
 30 11 2013  18 06  -21.0501 26037.9 -03500.6 -07.6571 26272.1
 30 11 2013  18 07  -21.0503 26037.8 -03500.6 -07.6571 26272.1
 30 11 2013  18 08  -21.0506 26037.9 -03500.7 -07.6573 26272.2
 30 11 2013  18 09  -21.0508 26037.8 -03500.7 -07.6573 26272.1
 30 11 2013  18 10  -21.0511 26037.9 -03500.7 -07.6574 26272.1
 30 11 2013  18 11  -21.0514 26037.6 -03500.6 -07.6572 26271.9
 30 11 2013  18 12  -21.0515 26037.4 -03500.6 -07.6571 26271.6
 30 11 2013  18 13  -21.0515 26037.1 -03500.5 -07.6571 26271.4
 30 11 2013  18 14  -21.0517 26036.8 -03500.5 -07.6571 26271.1
 30 11 2013  18 15  -21.0514 26036.4 -03500.4 -07.6570 26270.6
 30 11 2013  18 16  -21.0515 26036.0 -03500.3 -07.6571 26270.2
 30 11 2013  18 17  -21.0516 26035.7 -03500.4 -07.6572 26270.0
 30 11 2013  18 18  -21.0514 26035.6 -03500.4 -07.6573 26269.8
 30 11 2013  18 19  -21.0515 26035.5 -03500.5 -07.6575 26269.7
 30 11 2013  18 20  -21.0521 26035.4 -03500.6 -07.6577 26269.6
 30 11 2013  18 21  -21.0521 26035.2 -03500.5 -07.6577 26269.4
 30 11 2013  18 22  -21.0519 26035.0 -03500.5 -07.6578 26269.3
 30 11 2013  18 23  -21.0519 26034.9 -03500.7 -07.6580 26269.2
 30 11 2013  18 24  -21.0514 26034.8 -03500.7 -07.6581 26269.1
 30 11 2013  18 25  -21.0506 26034.9 -03500.8 -07.6583 26269.2
 30 11 2013  18 26  -21.0502 26035.1 -03501.0 -07.6588 26269.4
 30 11 2013  18 27  -21.0496 26035.5 -03501.3 -07.6594 26269.9
 30 11 2013  18 28  -21.0489 26035.9 -03501.7 -07.6600 26270.3
 30 11 2013  18 29  -21.0489 26036.0 -03501.9 -07.6604 26270.4
 30 11 2013  18 30  -21.0494 26036.3 -03502.1 -07.6608 26270.7
 30 11 2013  18 31  -21.0505 26036.0 -03501.9 -07.6605 26270.5
 30 11 2013  18 32  -21.0518 26035.9 -03501.7 -07.6601 26270.3
 30 11 2013  18 33  -21.0528 26035.3 -03501.3 -07.6593 26269.7
 30 11 2013  18 34  -21.0530 26034.4 -03500.7 -07.6584 26268.7
 30 11 2013  18 35  -21.0530 26033.7 -03500.4 -07.6578 26268.0
 30 11 2013  18 36  -21.0521 26033.7 -03500.5 -07.6580 26268.0
 30 11 2013  18 37  -21.0512 26033.8 -03500.7 -07.6584 26268.1
 30 11 2013  18 38  -21.0513 26034.3 -03501.1 -07.6592 26268.7
 30 11 2013  18 39  -21.0512 26034.7 -03501.4 -07.6598 26269.1
 30 11 2013  18 40  -21.0515 26035.0 -03501.6 -07.6601 26269.4
 30 11 2013  18 41  -21.0520 26035.1 -03501.7 -07.6602 26269.5
 30 11 2013  18 42  -21.0525 26034.7 -03501.4 -07.6597 26269.1
 30 11 2013  18 43  -21.0531 26034.4 -03501.2 -07.6593 26268.7
 30 11 2013  18 44  -21.0538 26033.9 -03500.9 -07.6589 26268.2
 30 11 2013  18 45  -21.0542 26033.4 -03500.6 -07.6585 26267.7
 30 11 2013  18 46  -21.0552 26033.4 -03500.6 -07.6585 26267.7
 30 11 2013  18 47  -21.0554 26033.0 -03500.5 -07.6582 26267.3
 30 11 2013  18 48  -21.0559 26032.6 -03500.3 -07.6580 26266.9
 30 11 2013  18 49  -21.0565 26032.5 -03500.3 -07.6581 26266.8
 30 11 2013  18 50  -21.0572 26031.9 -03500.1 -07.6577 26266.1
 30 11 2013  18 51  -21.0577 26031.1 -03499.7 -07.6571 26265.3
 30 11 2013  18 52  -21.0576 26031.0 -03499.8 -07.6572 26265.2
 30 11 2013  18 53  -21.0574 26030.9 -03499.9 -07.6575 26265.1
 30 11 2013  18 54  -21.0567 26030.8 -03500.0 -07.6578 26265.1
 30 11 2013  18 55  -21.0558 26030.8 -03500.2 -07.6584 26265.1
 30 11 2013  18 56  -21.0553 26030.8 -03500.5 -07.6588 26265.1
 30 11 2013  18 57  -21.0543 26030.4 -03500.5 -07.6591 26264.7
 30 11 2013  18 58  -21.0536 26030.2 -03500.6 -07.6593 26264.6
 30 11 2013  18 59  -21.0528 26030.0 -03500.7 -07.6595 26264.4
 30 11 2013  19 00  -21.0535 26029.9 -03500.8 -07.6598 26264.3
 30 11 2013  19 01  -21.0542 26029.7 -03500.8 -07.6598 26264.1
 30 11 2013  19 02  -21.0535 26029.4 -03500.8 -07.6599 26263.7
 30 11 2013  19 03  -21.0537 26029.7 -03501.0 -07.6603 26264.0
 30 11 2013  19 04  -21.0548 26029.6 -03501.1 -07.6605 26264.0
 30 11 2013  19 05  -21.0550 26029.2 -03500.9 -07.6603 26263.6
 30 11 2013  19 06  -21.0550 26029.1 -03501.0 -07.6604 26263.5
 30 11 2013  19 07  -21.0545 26028.8 -03501.0 -07.6605 26263.2
 30 11 2013  19 08  -21.0541 26028.7 -03501.1 -07.6607 26263.1
 30 11 2013  19 09  -21.0542 26028.6 -03501.2 -07.6610 26263.1
 30 11 2013  19 10  -21.0543 26028.3 -03501.1 -07.6610 26262.7
 30 11 2013  19 11  -21.0543 26027.9 -03501.1 -07.6610 26262.4
 30 11 2013  19 12  -21.0545 26027.8 -03501.2 -07.6613 26262.2
 30 11 2013  19 13  -21.0546 26027.4 -03501.2 -07.6613 26261.9
 30 11 2013  19 14  -21.0542 26027.4 -03501.2 -07.6614 26261.8
 30 11 2013  19 15  -21.0540 26027.3 -03501.4 -07.6618 26261.7
 30 11 2013  19 16  -21.0537 26027.2 -03501.5 -07.6620 26261.7
 30 11 2013  19 17  -21.0542 26027.4 -03501.7 -07.6624 26261.9
 30 11 2013  19 18  -21.0547 26027.2 -03501.7 -07.6625 26261.7
 30 11 2013  19 19  -21.0547 26027.0 -03501.6 -07.6624 26261.5
 30 11 2013  19 20  -21.0550 26026.8 -03501.6 -07.6625 26261.3
 30 11 2013  19 21  -21.0549 26026.6 -03501.6 -07.6625 26261.1
 30 11 2013  19 22  -21.0545 26026.5 -03501.7 -07.6628 26261.0
 30 11 2013  19 23  -21.0545 26026.3 -03501.8 -07.6629 26260.9
 30 11 2013  19 24  -21.0543 26026.4 -03501.9 -07.6632 26260.9
 30 11 2013  19 25  -21.0542 26026.5 -03502.1 -07.6636 26261.1
 30 11 2013  19 26  -21.0542 26026.4 -03502.2 -07.6638 26261.0
 30 11 2013  19 27  -21.0540 26026.3 -03502.2 -07.6639 26260.8
 30 11 2013  19 28  -21.0535 26026.1 -03502.2 -07.6640 26260.7
 30 11 2013  19 29  -21.0527 26026.0 -03502.3 -07.6642 26260.6
 30 11 2013  19 30  -21.0523 26026.0 -03502.4 -07.6645 26260.6
 30 11 2013  19 31  -21.0520 26025.7 -03502.5 -07.6646 26260.3
 30 11 2013  19 32  -21.0516 26025.5 -03502.5 -07.6647 26260.1
 30 11 2013  19 33  -21.0513 26025.3 -03502.5 -07.6648 26260.0
 30 11 2013  19 34  -21.0508 26025.3 -03502.6 -07.6650 26259.9
 30 11 2013  19 35  -21.0502 26025.2 -03502.7 -07.6652 26259.9
 30 11 2013  19 36  -21.0499 26025.1 -03502.7 -07.6654 26259.7
 30 11 2013  19 37  -21.0496 26025.2 -03502.9 -07.6658 26259.9
 30 11 2013  19 38  -21.0491 26025.3 -03503.1 -07.6661 26260.0
 30 11 2013  19 39  -21.0486 26025.3 -03503.2 -07.6664 26260.0
 30 11 2013  19 40  -21.0482 26025.4 -03503.4 -07.6668 26260.1
 30 11 2013  19 41  -21.0479 26025.3 -03503.5 -07.6670 26260.0
 30 11 2013  19 42  -21.0476 26025.4 -03503.6 -07.6672 26260.1
 30 11 2013  19 43  -21.0474 26025.5 -03503.8 -07.6677 26260.3
 30 11 2013  19 44  -21.0473 26025.2 -03503.8 -07.6677 26260.0
 30 11 2013  19 45  -21.0470 26025.1 -03503.8 -07.6677 26259.9
 30 11 2013  19 46  -21.0464 26025.3 -03504.0 -07.6681 26260.1
 30 11 2013  19 47  -21.0459 26025.2 -03504.1 -07.6683 26260.0
 30 11 2013  19 48  -21.0456 26025.2 -03504.2 -07.6685 26260.1
 30 11 2013  19 49  -21.0455 26025.1 -03504.3 -07.6688 26260.0
 30 11 2013  19 50  -21.0453 26025.0 -03504.3 -07.6688 26259.9
 30 11 2013  19 51  -21.0450 26025.0 -03504.4 -07.6691 26259.9
 30 11 2013  19 52  -21.0446 26025.0 -03504.6 -07.6694 26259.9
 30 11 2013  19 53  -21.0444 26024.7 -03504.6 -07.6695 26259.6
 30 11 2013  19 54  -21.0438 26024.8 -03504.7 -07.6698 26259.7
 30 11 2013  19 55  -21.0431 26024.7 -03504.9 -07.6701 26259.7
 30 11 2013  19 56  -21.0427 26024.6 -03504.9 -07.6703 26259.6
 30 11 2013  19 57  -21.0423 26024.6 -03505.1 -07.6706 26259.6
 30 11 2013  19 58  -21.0416 26025.0 -03505.4 -07.6711 26260.1
 30 11 2013  19 59  -21.0409 26025.3 -03505.7 -07.6717 26260.4
 30 11 2013  20 00  -21.0407 26025.1 -03505.8 -07.6719 26260.1
 30 11 2013  20 01  -21.0403 26025.2 -03505.9 -07.6722 26260.2
 30 11 2013  20 02  -21.0400 26025.0 -03505.9 -07.6723 26260.1
 30 11 2013  20 03  -21.0398 26024.7 -03505.9 -07.6723 26259.8
 30 11 2013  20 04  -21.0399 26024.6 -03505.9 -07.6724 26259.7
 30 11 2013  20 05  -21.0398 26024.5 -03506.0 -07.6726 26259.6
 30 11 2013  20 06  -21.0399 26024.5 -03506.1 -07.6728 26259.6
 30 11 2013  20 07  -21.0399 26024.7 -03506.3 -07.6732 26259.8
 30 11 2013  20 08  -21.0400 26024.8 -03506.5 -07.6736 26260.0
 30 11 2013  20 09  -21.0402 26025.0 -03506.7 -07.6740 26260.2
 30 11 2013  20 10  -21.0404 26025.2 -03506.9 -07.6744 26260.4
 30 11 2013  20 11  -21.0405 26025.0 -03506.9 -07.6745 26260.3
 30 11 2013  20 12  -21.0405 26024.9 -03506.9 -07.6745 26260.1
 30 11 2013  20 13  -21.0405 26024.8 -03506.9 -07.6746 26260.1
 30 11 2013  20 14  -21.0404 26024.8 -03507.0 -07.6747 26260.0
 30 11 2013  20 15  -21.0402 26024.8 -03507.1 -07.6750 26260.1
 30 11 2013  20 16  -21.0399 26024.9 -03507.2 -07.6752 26260.2
 30 11 2013  20 17  -21.0397 26025.0 -03507.4 -07.6754 26260.3
 30 11 2013  20 18  -21.0394 26025.1 -03507.5 -07.6757 26260.4
 30 11 2013  20 19  -21.0391 26025.0 -03507.5 -07.6758 26260.3
 30 11 2013  20 20  -21.0388 26025.1 -03507.6 -07.6760 26260.4
 30 11 2013  20 21  -21.0385 26024.9 -03507.6 -07.6760 26260.2
 30 11 2013  20 22  -21.0382 26024.9 -03507.7 -07.6761 26260.2
 30 11 2013  20 23  -21.0379 26024.9 -03507.8 -07.6763 26260.3
 30 11 2013  20 24  -21.0375 26025.1 -03508.0 -07.6767 26260.5
 30 11 2013  20 25  -21.0371 26025.5 -03508.2 -07.6771 26260.8
 30 11 2013  20 26  -21.0367 26025.9 -03508.5 -07.6776 26261.3
 30 11 2013  20 27  -21.0365 26026.2 -03508.8 -07.6781 26261.7
 30 11 2013  20 28  -21.0361 26026.5 -03509.0 -07.6785 26262.0
 30 11 2013  20 29  -21.0358 26026.7 -03509.1 -07.6787 26262.2
 30 11 2013  20 30  -21.0356 26026.7 -03509.2 -07.6788 26262.2
 30 11 2013  20 31  -21.0352 26026.8 -03509.2 -07.6789 26262.3
 30 11 2013  20 32  -21.0349 26026.7 -03509.2 -07.6789 26262.2
 30 11 2013  20 33  -21.0346 26026.4 -03509.1 -07.6788 26261.9
 30 11 2013  20 34  -21.0341 26026.4 -03509.1 -07.6788 26261.9
 30 11 2013  20 35  -21.0338 26026.2 -03509.1 -07.6788 26261.7
 30 11 2013  20 36  -21.0333 26026.3 -03509.1 -07.6789 26261.8
 30 11 2013  20 37  -21.0329 26026.3 -03509.2 -07.6791 26261.9
 30 11 2013  20 38  -21.0324 26026.4 -03509.4 -07.6793 26261.9
 30 11 2013  20 39  -21.0320 26026.5 -03509.4 -07.6795 26262.0
 30 11 2013  20 40  -21.0314 26026.5 -03509.6 -07.6797 26262.1
 30 11 2013  20 41  -21.0309 26026.5 -03509.6 -07.6798 26262.0
 30 11 2013  20 42  -21.0303 26026.4 -03509.7 -07.6800 26262.0
 30 11 2013  20 43  -21.0296 26026.6 -03509.8 -07.6803 26262.2
 30 11 2013  20 44  -21.0293 26026.5 -03509.8 -07.6803 26262.1
 30 11 2013  20 45  -21.0290 26026.6 -03510.0 -07.6807 26262.3
 30 11 2013  20 46  -21.0291 26026.2 -03509.8 -07.6805 26261.8
 30 11 2013  20 47  -21.0291 26026.4 -03510.0 -07.6808 26262.1
 30 11 2013  20 48  -21.0291 26026.6 -03510.2 -07.6811 26262.2
 30 11 2013  20 49  -21.0289 26026.8 -03510.3 -07.6813 26262.4
 30 11 2013  20 50  -21.0288 26027.3 -03510.6 -07.6818 26263.0
 30 11 2013  20 51  -21.0287 26028.4 -03511.2 -07.6827 26264.2
 30 11 2013  20 52  -21.0274 26031.2 -03512.6 -07.6850 26267.2
 30 11 2013  20 53  -21.0278 26031.6 -03513.0 -07.6857 26267.6
 30 11 2013  20 54  -21.0280 26032.1 -03513.1 -07.6859 26268.1
 30 11 2013  20 55  -21.0278 26032.7 -03513.4 -07.6863 26268.7
 30 11 2013  20 56  -21.0276 26033.3 -03513.7 -07.6867 26269.3
 30 11 2013  20 57  -21.0273 26032.8 -03513.4 -07.6862 26268.8
 30 11 2013  20 58  -21.0271 26032.7 -03513.2 -07.6859 26268.7
 30 11 2013  20 59  -21.0270 26032.5 -03513.1 -07.6856 26268.4
 30 11 2013  21 00  -21.0271 26031.6 -03512.6 -07.6848 26267.5
 30 11 2013  21 01  -21.0270 26030.9 -03512.2 -07.6841 26266.8
 30 11 2013  21 02  -21.0265 26031.1 -03512.2 -07.6842 26267.0
 30 11 2013  21 03  -21.0264 26030.8 -03512.2 -07.6841 26266.6
 30 11 2013  21 04  -21.0263 26030.9 -03512.2 -07.6842 26266.8
 30 11 2013  21 05  -21.0258 26031.3 -03512.5 -07.6846 26267.2
 30 11 2013  21 06  -21.0255 26031.4 -03512.6 -07.6849 26267.4
 30 11 2013  21 07  -21.0251 26031.5 -03512.7 -07.6852 26267.5
 30 11 2013  21 08  -21.0253 26030.5 -03512.4 -07.6847 26266.4
 30 11 2013  21 09  -21.0252 26029.8 -03512.0 -07.6840 26265.7
 30 11 2013  21 10  -21.0259 26028.6 -03511.5 -07.6832 26264.4
 30 11 2013  21 11  -21.0259 26028.6 -03511.5 -07.6832 26264.4
 30 11 2013  21 12  -21.0254 26028.7 -03511.6 -07.6835 26264.5
 30 11 2013  21 13  -21.0256 26028.7 -03511.6 -07.6836 26264.5
 30 11 2013  21 14  -21.0249 26029.2 -03512.0 -07.6842 26265.0
 30 11 2013  21 15  -21.0250 26029.0 -03512.0 -07.6843 26264.9
 30 11 2013  21 16  -21.0247 26029.0 -03512.0 -07.6844 26264.9
 30 11 2013  21 17  -21.0249 26028.3 -03511.7 -07.6839 26264.1
 30 11 2013  21 18  -21.0246 26028.4 -03511.8 -07.6840 26264.2
 30 11 2013  21 19  -21.0248 26028.1 -03511.7 -07.6839 26263.9
 30 11 2013  21 20  -21.0244 26028.0 -03511.7 -07.6839 26263.8
 30 11 2013  21 21  -21.0241 26027.8 -03511.6 -07.6838 26263.6
 30 11 2013  21 22  -21.0239 26027.6 -03511.6 -07.6837 26263.4
 30 11 2013  21 23  -21.0236 26027.4 -03511.5 -07.6837 26263.2
 30 11 2013  21 24  -21.0232 26027.5 -03511.6 -07.6839 26263.4
 30 11 2013  21 25  -21.0225 26027.9 -03511.8 -07.6842 26263.7
 30 11 2013  21 26  -21.0217 26028.3 -03512.1 -07.6847 26264.2
 30 11 2013  21 27  -21.0209 26028.3 -03512.2 -07.6848 26264.2
 30 11 2013  21 28  -21.0204 26028.0 -03512.1 -07.6847 26263.9
 30 11 2013  21 29  -21.0197 26027.5 -03511.8 -07.6844 26263.3
 30 11 2013  21 30  -21.0191 26027.1 -03511.7 -07.6843 26263.0
 30 11 2013  21 31  -21.0181 26026.7 -03511.6 -07.6840 26262.6
 30 11 2013  21 32  -21.0174 26025.8 -03511.2 -07.6835 26261.6
 30 11 2013  21 33  -21.0173 26024.9 -03510.8 -07.6830 26260.7
 30 11 2013  21 34  -21.0166 26024.2 -03510.6 -07.6826 26259.9
 30 11 2013  21 35  -21.0163 26023.4 -03510.3 -07.6823 26259.1
 30 11 2013  21 36  -21.0158 26023.0 -03510.3 -07.6823 26258.7
 30 11 2013  21 37  -21.0155 26022.4 -03510.2 -07.6823 26258.1
 30 11 2013  21 38  -21.0152 26022.0 -03510.1 -07.6822 26257.6
 30 11 2013  21 39  -21.0145 26021.7 -03510.1 -07.6824 26257.4
 30 11 2013  21 40  -21.0140 26021.8 -03510.3 -07.6827 26257.5
 30 11 2013  21 41  -21.0133 26021.8 -03510.5 -07.6832 26257.5
 30 11 2013  21 42  -21.0131 26021.7 -03510.7 -07.6836 26257.5
 30 11 2013  21 43  -21.0129 26021.6 -03510.8 -07.6838 26257.3
 30 11 2013  21 44  -21.0127 26021.3 -03510.8 -07.6840 26257.1
 30 11 2013  21 45  -21.0125 26021.2 -03510.9 -07.6841 26256.9
 30 11 2013  21 46  -21.0122 26020.8 -03510.8 -07.6841 26256.6
 30 11 2013  21 47  -21.0119 26020.4 -03510.7 -07.6840 26256.2
 30 11 2013  21 48  -21.0118 26020.3 -03510.8 -07.6842 26256.0
 30 11 2013  21 49  -21.0118 26020.4 -03511.0 -07.6847 26256.2
 30 11 2013  21 50  -21.0115 26021.1 -03511.5 -07.6855 26256.9
 30 11 2013  21 51  -21.0116 26021.9 -03512.0 -07.6864 26257.8
 30 11 2013  21 52  -21.0111 26022.8 -03512.6 -07.6874 26258.8
 30 11 2013  21 53  -21.0101 26023.8 -03513.1 -07.6883 26259.8
 30 11 2013  21 54  -21.0099 26024.4 -03513.6 -07.6890 26260.6
 30 11 2013  21 55  -21.0095 26024.6 -03513.8 -07.6894 26260.8
 30 11 2013  21 56  -21.0092 26024.6 -03513.7 -07.6892 26260.7
 30 11 2013  21 57  -21.0096 26024.1 -03513.5 -07.6890 26260.2
 30 11 2013  21 58  -21.0105 26023.6 -03513.3 -07.6887 26259.7
 30 11 2013  21 59  -21.0112 26023.2 -03513.1 -07.6883 26259.3
 30 11 2013  22 00  -21.0120 26023.2 -03513.1 -07.6884 26259.3
 30 11 2013  22 01  -21.0126 26023.2 -03513.1 -07.6883 26259.3
 30 11 2013  22 02  -21.0132 26023.4 -03513.3 -07.6886 26259.5
 30 11 2013  22 03  -21.0137 26023.5 -03513.3 -07.6886 26259.5
 30 11 2013  22 04  -21.0144 26023.2 -03513.2 -07.6885 26259.3
 30 11 2013  22 05  -21.0150 26022.7 -03512.9 -07.6882 26258.7
 30 11 2013  22 06  -21.0157 26022.3 -03512.7 -07.6877 26258.3
 30 11 2013  22 07  -21.0157 26022.3 -03512.7 -07.6877 26258.3
 30 11 2013  22 08  -21.0161 26021.9 -03512.5 -07.6875 26257.9
 30 11 2013  22 09  -21.0167 26021.8 -03512.4 -07.6873 26257.8
 30 11 2013  22 10  -21.0172 26021.8 -03512.5 -07.6874 26257.7
 30 11 2013  22 11  -21.0172 26021.8 -03512.5 -07.6874 26257.7
 30 11 2013  22 12  -21.0170 26022.1 -03512.6 -07.6877 26258.1
 30 11 2013  22 13  -21.0167 26022.0 -03512.6 -07.6876 26258.0
 30 11 2013  22 14  -21.0166 26021.5 -03512.4 -07.6873 26257.5
 30 11 2013  22 15  -21.0161 26021.5 -03512.3 -07.6872 26257.5
 30 11 2013  22 16  -21.0153 26021.4 -03512.3 -07.6872 26257.4
 30 11 2013  22 17  -21.0151 26021.0 -03512.2 -07.6870 26257.0
 30 11 2013  22 18  -21.0156 26020.3 -03511.9 -07.6867 26256.3
 30 11 2013  22 19  -21.0163 26019.5 -03511.6 -07.6862 26255.4
 30 11 2013  22 20  -21.0173 26018.8 -03511.3 -07.6858 26254.7
 30 11 2013  22 21  -21.0182 26018.4 -03511.2 -07.6856 26254.2
 30 11 2013  22 22  -21.0186 26017.9 -03511.0 -07.6854 26253.7
 30 11 2013  22 23  -21.0192 26017.0 -03510.7 -07.6849 26252.8
 30 11 2013  22 24  -21.0206 26016.0 -03510.3 -07.6843 26251.8
 30 11 2013  22 25  -21.0224 26015.6 -03510.2 -07.6842 26251.3
 30 11 2013  22 26  -21.0237 26015.1 -03510.0 -07.6840 26250.8
 30 11 2013  22 27  -21.0251 26014.6 -03509.9 -07.6839 26250.3
 30 11 2013  22 28  -21.0259 26014.2 -03509.7 -07.6836 26249.8
 30 11 2013  22 29  -21.0264 26013.2 -03509.3 -07.6830 26248.8
 30 11 2013  22 30  -21.0276 26012.2 -03508.8 -07.6823 26247.8
 30 11 2013  22 31  -21.0289 26011.3 -03508.4 -07.6817 26246.8
 30 11 2013  22 32  -21.0299 26010.8 -03508.3 -07.6815 26246.3
 30 11 2013  22 33  -21.0289 26010.1 -03507.9 -07.6809 26245.5
 30 11 2013  22 34  -21.0279 26009.8 -03507.8 -07.6807 26245.2
 30 11 2013  22 35  -21.0274 26009.0 -03507.5 -07.6804 26244.5
 30 11 2013  22 36  -21.0270 26008.5 -03507.4 -07.6804 26243.9
 30 11 2013  22 37  -21.0268 26008.1 -03507.4 -07.6804 26243.6
 30 11 2013  22 38  -21.0267 26007.8 -03507.4 -07.6805 26243.3
 30 11 2013  22 39  -21.0264 26007.4 -03507.4 -07.6806 26242.8
 30 11 2013  22 40  -21.0264 26006.5 -03507.1 -07.6804 26241.9
 30 11 2013  22 41  -21.0266 26005.4 -03506.7 -07.6798 26240.8
 30 11 2013  22 42  -21.0264 26004.8 -03506.6 -07.6796 26240.2
 30 11 2013  22 43  -21.0258 26004.9 -03506.7 -07.6798 26240.2
 30 11 2013  22 44  -21.0254 26004.6 -03506.7 -07.6801 26239.9
 30 11 2013  22 45  -21.0258 26004.0 -03506.7 -07.6801 26239.4
 30 11 2013  22 46  -21.0255 26003.6 -03506.7 -07.6802 26239.0
 30 11 2013  22 47  -21.0256 26003.3 -03506.7 -07.6803 26238.7
 30 11 2013  22 48  -21.0253 26002.9 -03506.6 -07.6803 26238.3
 30 11 2013  22 49  -21.0247 26002.4 -03506.5 -07.6801 26237.7
 30 11 2013  22 50  -21.0239 26002.2 -03506.5 -07.6802 26237.6
 30 11 2013  22 51  -21.0229 26002.1 -03506.7 -07.6806 26237.5
 30 11 2013  22 52  -21.0223 26001.2 -03506.4 -07.6803 26236.5
 30 11 2013  22 53  -21.0216 26000.5 -03506.2 -07.6801 26235.8
 30 11 2013  22 54  -21.0208 26000.0 -03506.2 -07.6802 26235.3
 30 11 2013  22 55  -21.0207 26000.0 -03506.4 -07.6806 26235.4
 30 11 2013  22 56  -21.0199 26000.6 -03506.9 -07.6816 26236.0
 30 11 2013  22 57  -21.0197 26000.8 -03507.3 -07.6823 26236.3
 30 11 2013  22 58  -21.0193 26001.5 -03507.8 -07.6833 26237.0
 30 11 2013  22 59  -21.0184 26001.9 -03508.2 -07.6841 26237.5
 30 11 2013  23 00  -21.0176 26002.1 -03508.5 -07.6846 26237.8
 30 11 2013  23 01  -21.0164 26002.4 -03508.7 -07.6849 26238.1
 30 11 2013  23 02  -21.0154 26002.5 -03508.9 -07.6852 26238.2
 30 11 2013  23 03  -21.0150 26002.6 -03509.0 -07.6855 26238.3
 30 11 2013  23 04  -21.0147 26002.5 -03509.1 -07.6857 26238.2
 30 11 2013  23 05  -21.0147 26002.6 -03509.2 -07.6860 26238.4
 30 11 2013  23 06  -21.0152 26002.4 -03509.3 -07.6862 26238.2
 30 11 2013  23 07  -21.0162 26002.4 -03509.4 -07.6864 26238.1
 30 11 2013  23 08  -21.0171 26002.5 -03509.5 -07.6867 26238.2
 30 11 2013  23 09  -21.0183 26002.3 -03509.6 -07.6869 26238.1
 30 11 2013  23 10  -21.0188 26002.4 -03509.6 -07.6869 26238.2
 30 11 2013  23 11  -21.0187 26003.0 -03509.9 -07.6873 26238.8
 30 11 2013  23 12  -21.0184 26003.6 -03510.2 -07.6878 26239.5
 30 11 2013  23 13  -21.0180 26003.7 -03510.3 -07.6879 26239.6
 30 11 2013  23 14  -21.0176 26003.8 -03510.3 -07.6880 26239.6
 30 11 2013  23 15  -21.0174 26003.6 -03510.2 -07.6879 26239.4
 30 11 2013  23 16  -21.0173 26003.5 -03510.2 -07.6878 26239.3
 30 11 2013  23 17  -21.0168 26003.5 -03510.2 -07.6878 26239.4
 30 11 2013  23 18  -21.0163 26003.6 -03510.3 -07.6880 26239.5
 30 11 2013  23 19  -21.0163 26003.7 -03510.3 -07.6881 26239.5
 30 11 2013  23 20  -21.0164 26003.6 -03510.3 -07.6881 26239.4
 30 11 2013  23 21  -21.0164 26003.8 -03510.5 -07.6884 26239.7
 30 11 2013  23 22  -21.0165 26003.7 -03510.5 -07.6885 26239.6
 30 11 2013  23 23  -21.0168 26003.4 -03510.4 -07.6883 26239.3
 30 11 2013  23 24  -21.0166 26003.8 -03510.6 -07.6886 26239.7
 30 11 2013  23 25  -21.0160 26004.5 -03511.0 -07.6892 26240.5
 30 11 2013  23 26  -21.0162 26005.0 -03511.3 -07.6898 26241.0
 30 11 2013  23 27  -21.0164 26005.2 -03511.5 -07.6900 26241.2
 30 11 2013  23 28  -21.0168 26005.3 -03511.6 -07.6902 26241.4
 30 11 2013  23 29  -21.0172 26005.3 -03511.6 -07.6903 26241.3
 30 11 2013  23 30  -21.0172 26005.2 -03511.5 -07.6901 26241.2
 30 11 2013  23 31  -21.0171 26004.9 -03511.3 -07.6897 26240.9
 30 11 2013  23 32  -21.0164 26004.7 -03511.1 -07.6894 26240.7
 30 11 2013  23 33  -21.0158 26004.8 -03511.1 -07.6895 26240.8
 30 11 2013  23 34  -21.0151 26005.0 -03511.3 -07.6897 26241.0
 30 11 2013  23 35  -21.0148 26005.0 -03511.4 -07.6899 26241.0
 30 11 2013  23 36  -21.0142 26005.3 -03511.5 -07.6902 26241.3
 30 11 2013  23 37  -21.0135 26005.7 -03511.8 -07.6906 26241.8
 30 11 2013  23 38  -21.0129 26006.0 -03511.9 -07.6909 26242.0
 30 11 2013  23 39  -21.0124 26006.0 -03512.0 -07.6910 26242.1
 30 11 2013  23 40  -21.0119 26006.2 -03512.2 -07.6913 26242.3
 30 11 2013  23 41  -21.0115 26006.3 -03512.3 -07.6915 26242.5
 30 11 2013  23 42  -21.0110 26007.0 -03512.6 -07.6921 26243.1
 30 11 2013  23 43  -21.0104 26007.7 -03513.0 -07.6928 26243.9
 30 11 2013  23 44  -21.0108 26007.9 -03513.2 -07.6931 26244.1
 30 11 2013  23 45  -21.0107 26008.4 -03513.5 -07.6935 26244.7
 30 11 2013  23 46  -21.0112 26008.9 -03513.7 -07.6939 26245.1
 30 11 2013  23 47  -21.0115 26009.4 -03514.0 -07.6943 26245.7
 30 11 2013  23 48  -21.0119 26009.7 -03514.1 -07.6945 26246.0
 30 11 2013  23 49  -21.0123 26009.7 -03514.1 -07.6944 26246.0
 30 11 2013  23 50  -21.0127 26009.1 -03513.7 -07.6938 26245.4
 30 11 2013  23 51  -21.0132 26008.6 -03513.4 -07.6932 26244.9
 30 11 2013  23 52  -21.0131 26007.9 -03512.9 -07.6924 26244.1
 30 11 2013  23 53  -21.0133 26007.2 -03512.5 -07.6918 26243.3
 30 11 2013  23 54  -21.0133 26007.0 -03512.4 -07.6915 26243.1
 30 11 2013  23 55  -21.0131 26007.0 -03512.3 -07.6914 26243.1
 30 11 2013  23 56  -21.0136 26006.9 -03512.3 -07.6915 26243.0
 30 11 2013  23 57  -21.0138 26007.3 -03512.5 -07.6918 26243.4
