SAO LUIS EMBRACE-03 <120> 1 Min. Reported data

 DD MM YYYY  HH MM   D(Deg)  H(nT)   Z(nT)   I(Deg)   F(nT)

 30 04 2013  00 00  -21.0454 26031.7 -03434.3 -07.5155 26257.3
 30 04 2013  00 01  -21.0454 26031.8 -03434.4 -07.5156 26257.3
 30 04 2013  00 02  -21.0454 26031.9 -03434.4 -07.5157 26257.5
 30 04 2013  00 03  -21.0454 26032.0 -03434.5 -07.5159 26257.6
 30 04 2013  00 04  -21.0454 26032.1 -03434.5 -07.5159 26257.6
 30 04 2013  00 05  -21.0453 26032.1 -03434.6 -07.5160 26257.7
 30 04 2013  00 06  -21.0453 26032.2 -03434.6 -07.5160 26257.8
 30 04 2013  00 07  -21.0453 26032.1 -03434.6 -07.5159 26257.7
 30 04 2013  00 08  -21.0454 26032.0 -03434.5 -07.5158 26257.6
 30 04 2013  00 09  -21.0455 26032.0 -03434.5 -07.5158 26257.6
 30 04 2013  00 10  -21.0455 26031.9 -03434.5 -07.5158 26257.5
 30 04 2013  00 11  -21.0455 26031.9 -03434.4 -07.5157 26257.5
 30 04 2013  00 12  -21.0453 26031.9 -03434.4 -07.5157 26257.4
 30 04 2013  00 13  -21.0453 26031.8 -03434.4 -07.5157 26257.4
 30 04 2013  00 14  -21.0452 26031.7 -03434.3 -07.5155 26257.2
 30 04 2013  00 15  -21.0451 26031.6 -03434.3 -07.5155 26257.1
 30 04 2013  00 16  -21.0452 26031.5 -03434.3 -07.5155 26257.1
 30 04 2013  00 17  -21.0452 26031.5 -03434.3 -07.5154 26257.1
 30 04 2013  00 18  -21.0453 26031.4 -03434.2 -07.5154 26257.0
 30 04 2013  00 19  -21.0454 26031.4 -03434.2 -07.5154 26257.0
 30 04 2013  00 20  -21.0454 26031.4 -03434.3 -07.5155 26257.0
 30 04 2013  00 21  -21.0456 26031.4 -03434.3 -07.5155 26257.0
 30 04 2013  00 22  -21.0457 26031.2 -03434.2 -07.5154 26256.8
 30 04 2013  00 23  -21.0458 26030.9 -03434.0 -07.5151 26256.5
 30 04 2013  00 24  -21.0459 26030.8 -03434.0 -07.5150 26256.3
 30 04 2013  00 25  -21.0460 26030.5 -03433.9 -07.5149 26256.1
 30 04 2013  00 26  -21.0460 26030.3 -03433.8 -07.5147 26255.8
 30 04 2013  00 27  -21.0459 26030.3 -03433.8 -07.5147 26255.8
 30 04 2013  00 28  -21.0458 26030.3 -03433.8 -07.5147 26255.8
 30 04 2013  00 29  -21.0458 26030.2 -03433.8 -07.5147 26255.7
 30 04 2013  00 30  -21.0457 26030.2 -03433.8 -07.5148 26255.7
 30 04 2013  00 31  -21.0456 26030.2 -03433.8 -07.5148 26255.7
 30 04 2013  00 32  -21.0455 26030.3 -03433.9 -07.5149 26255.8
 30 04 2013  00 33  -21.0455 26030.4 -03433.9 -07.5150 26255.9
 30 04 2013  00 34  -21.0455 26030.4 -03434.0 -07.5151 26256.0
 30 04 2013  00 35  -21.0455 26030.5 -03434.0 -07.5152 26256.0
 30 04 2013  00 36  -21.0456 26030.6 -03434.1 -07.5153 26256.1
 30 04 2013  00 37  -21.0456 26030.8 -03434.1 -07.5154 26256.3
 30 04 2013  00 38  -21.0456 26030.9 -03434.2 -07.5156 26256.5
 30 04 2013  00 39  -21.0457 26031.2 -03434.3 -07.5157 26256.7
 30 04 2013  00 40  -21.0457 26031.2 -03434.4 -07.5157 26256.8
 30 04 2013  00 41  -21.0457 26031.3 -03434.4 -07.5157 26256.8
 30 04 2013  00 42  -21.0458 26031.1 -03434.3 -07.5156 26256.7
 30 04 2013  00 43  -21.0459 26031.1 -03434.3 -07.5155 26256.6
 30 04 2013  00 44  -21.0460 26031.1 -03434.2 -07.5155 26256.7
 30 04 2013  00 45  -21.0460 26031.1 -03434.2 -07.5155 26256.7
 30 04 2013  00 46  -21.0461 26031.1 -03434.2 -07.5155 26256.7
 30 04 2013  00 47  -21.0462 26030.9 -03434.1 -07.5153 26256.5
 30 04 2013  00 48  -21.0463 26030.8 -03434.0 -07.5152 26256.4
 30 04 2013  00 49  -21.0465 26030.7 -03434.0 -07.5151 26256.3
 30 04 2013  00 50  -21.0466 26030.5 -03433.9 -07.5150 26256.1
 30 04 2013  00 51  -21.0468 26030.4 -03433.8 -07.5148 26255.9
 30 04 2013  00 52  -21.0469 26030.3 -03433.8 -07.5148 26255.8
 30 04 2013  00 53  -21.0471 26030.2 -03433.8 -07.5147 26255.7
 30 04 2013  00 54  -21.0471 26030.2 -03433.7 -07.5147 26255.7
 30 04 2013  00 55  -21.0471 26030.1 -03433.7 -07.5147 26255.6
 30 04 2013  00 56  -21.0470 26030.1 -03433.7 -07.5147 26255.6
 30 04 2013  00 57  -21.0470 26030.1 -03433.7 -07.5147 26255.6
 30 04 2013  00 58  -21.0470 26030.1 -03433.8 -07.5148 26255.7
 30 04 2013  00 59  -21.0471 26030.1 -03433.8 -07.5149 26255.6
 30 04 2013  01 00  -21.0471 26030.1 -03433.8 -07.5149 26255.6
 30 04 2013  01 01  -21.0472 26030.2 -03433.9 -07.5149 26255.7
 30 04 2013  01 02  -21.0471 26030.3 -03433.9 -07.5150 26255.8
 30 04 2013  01 03  -21.0471 26030.3 -03433.9 -07.5150 26255.8
 30 04 2013  01 04  -21.0469 26030.2 -03433.9 -07.5150 26255.7
 30 04 2013  01 05  -21.0468 26030.2 -03433.9 -07.5151 26255.7
 30 04 2013  01 06  -21.0466 26030.3 -03433.9 -07.5150 26255.8
 30 04 2013  01 07  -21.0464 26030.4 -03434.0 -07.5151 26255.9
 30 04 2013  01 08  -21.0462 26030.5 -03434.0 -07.5153 26256.0
 30 04 2013  01 09  -21.0461 26030.5 -03434.1 -07.5154 26256.1
 30 04 2013  01 10  -21.0461 26030.5 -03434.1 -07.5154 26256.0
 30 04 2013  01 11  -21.0461 26030.3 -03434.0 -07.5153 26255.9
 30 04 2013  01 12  -21.0463 26030.3 -03434.0 -07.5152 26255.8
 30 04 2013  01 13  -21.0463 26030.3 -03434.0 -07.5153 26255.8
 30 04 2013  01 14  -21.0465 26030.2 -03434.0 -07.5152 26255.8
 30 04 2013  01 15  -21.0465 26030.0 -03433.9 -07.5151 26255.6
 30 04 2013  01 16  -21.0466 26030.0 -03433.9 -07.5151 26255.5
 30 04 2013  01 17  -21.0467 26029.9 -03433.9 -07.5151 26255.4
 30 04 2013  01 18  -21.0467 26030.1 -03433.9 -07.5151 26255.6
 30 04 2013  01 19  -21.0465 26030.3 -03434.0 -07.5153 26255.8
 30 04 2013  01 20  -21.0466 26030.1 -03434.0 -07.5153 26255.7
 30 04 2013  01 21  -21.0466 26029.9 -03433.9 -07.5151 26255.5
 30 04 2013  01 22  -21.0464 26029.9 -03433.9 -07.5151 26255.4
 30 04 2013  01 23  -21.0464 26029.7 -03433.8 -07.5149 26255.2
 30 04 2013  01 24  -21.0465 26029.6 -03433.7 -07.5149 26255.1
 30 04 2013  01 25  -21.0466 26029.4 -03433.7 -07.5148 26254.9
 30 04 2013  01 26  -21.0466 26029.3 -03433.6 -07.5147 26254.8
 30 04 2013  01 27  -21.0465 26029.1 -03433.6 -07.5147 26254.6
 30 04 2013  01 28  -21.0466 26029.2 -03433.6 -07.5148 26254.7
 30 04 2013  01 29  -21.0466 26029.3 -03433.7 -07.5149 26254.8
 30 04 2013  01 30  -21.0467 26029.3 -03433.8 -07.5150 26254.8
 30 04 2013  01 31  -21.0467 26029.6 -03433.9 -07.5153 26255.1
 30 04 2013  01 32  -21.0470 26029.6 -03434.0 -07.5154 26255.1
 30 04 2013  01 33  -21.0473 26029.6 -03434.0 -07.5155 26255.1
 30 04 2013  01 34  -21.0476 26029.6 -03434.1 -07.5155 26255.2
 30 04 2013  01 35  -21.0478 26029.9 -03434.2 -07.5157 26255.4
 30 04 2013  01 36  -21.0482 26030.0 -03434.3 -07.5159 26255.6
 30 04 2013  01 37  -21.0486 26030.0 -03434.3 -07.5159 26255.6
 30 04 2013  01 38  -21.0489 26030.0 -03434.2 -07.5158 26255.6
 30 04 2013  01 39  -21.0492 26030.0 -03434.1 -07.5156 26255.5
 30 04 2013  01 40  -21.0494 26030.1 -03434.2 -07.5157 26255.7
 30 04 2013  01 41  -21.0497 26030.0 -03434.1 -07.5156 26255.6
 30 04 2013  01 42  -21.0500 26030.1 -03434.1 -07.5156 26255.7
 30 04 2013  01 43  -21.0500 26030.1 -03434.0 -07.5154 26255.7
 30 04 2013  01 44  -21.0500 26030.2 -03434.0 -07.5153 26255.7
 30 04 2013  01 45  -21.0499 26030.2 -03434.0 -07.5153 26255.8
 30 04 2013  01 46  -21.0497 26030.4 -03434.1 -07.5153 26256.0
 30 04 2013  01 47  -21.0495 26030.6 -03434.1 -07.5154 26256.2
 30 04 2013  01 48  -21.0496 26030.6 -03434.2 -07.5155 26256.2
 30 04 2013  01 49  -21.0497 26030.8 -03434.2 -07.5156 26256.3
 30 04 2013  01 50  -21.0495 26031.1 -03434.4 -07.5159 26256.7
 30 04 2013  01 51  -21.0496 26031.1 -03434.4 -07.5159 26256.6
 30 04 2013  01 52  -21.0498 26031.1 -03434.4 -07.5159 26256.7
 30 04 2013  01 53  -21.0499 26031.2 -03434.4 -07.5159 26256.8
 30 04 2013  01 54  -21.0500 26031.3 -03434.4 -07.5159 26256.9
 30 04 2013  01 55  -21.0501 26031.2 -03434.4 -07.5158 26256.8
 30 04 2013  01 56  -21.0500 26031.3 -03434.4 -07.5157 26256.8
 30 04 2013  01 57  -21.0502 26031.1 -03434.3 -07.5156 26256.7
 30 04 2013  01 58  -21.0501 26031.1 -03434.2 -07.5155 26256.6
 30 04 2013  01 59  -21.0499 26031.0 -03434.2 -07.5154 26256.5
 30 04 2013  02 00  -21.0497 26030.9 -03434.1 -07.5152 26256.4
 30 04 2013  02 01  -21.0495 26030.8 -03434.0 -07.5151 26256.3
 30 04 2013  02 02  -21.0493 26030.7 -03434.0 -07.5150 26256.2
 30 04 2013  02 03  -21.0488 26030.7 -03433.9 -07.5150 26256.2
 30 04 2013  02 04  -21.0485 26030.6 -03433.9 -07.5149 26256.1
 30 04 2013  02 05  -21.0482 26030.5 -03433.9 -07.5149 26256.1
 30 04 2013  02 06  -21.0480 26030.5 -03433.9 -07.5149 26256.0
 30 04 2013  02 07  -21.0476 26030.4 -03433.9 -07.5149 26255.9
 30 04 2013  02 08  -21.0473 26030.4 -03433.9 -07.5150 26255.9
 30 04 2013  02 09  -21.0471 26030.4 -03434.0 -07.5151 26256.0
 30 04 2013  02 10  -21.0468 26030.4 -03434.0 -07.5152 26255.9
 30 04 2013  02 11  -21.0466 26030.3 -03434.0 -07.5152 26255.8
 30 04 2013  02 12  -21.0463 26030.1 -03433.9 -07.5151 26255.6
 30 04 2013  02 13  -21.0461 26029.9 -03433.9 -07.5150 26255.5
 30 04 2013  02 14  -21.0459 26029.8 -03433.8 -07.5150 26255.4
 30 04 2013  02 15  -21.0458 26029.7 -03433.8 -07.5150 26255.2
 30 04 2013  02 16  -21.0454 26029.7 -03433.8 -07.5151 26255.2
 30 04 2013  02 17  -21.0452 26029.6 -03433.8 -07.5151 26255.1
 30 04 2013  02 18  -21.0449 26029.6 -03433.9 -07.5152 26255.1
 30 04 2013  02 19  -21.0447 26029.6 -03433.9 -07.5153 26255.1
 30 04 2013  02 20  -21.0446 26029.5 -03434.0 -07.5154 26255.1
 30 04 2013  02 21  -21.0445 26029.5 -03434.0 -07.5154 26255.0
 30 04 2013  02 22  -21.0444 26029.5 -03434.0 -07.5155 26255.0
 30 04 2013  02 23  -21.0443 26029.5 -03434.1 -07.5156 26255.1
 30 04 2013  02 24  -21.0441 26029.7 -03434.2 -07.5158 26255.2
 30 04 2013  02 25  -21.0440 26029.8 -03434.3 -07.5159 26255.4
 30 04 2013  02 26  -21.0439 26029.9 -03434.3 -07.5161 26255.5
 30 04 2013  02 27  -21.0436 26030.0 -03434.4 -07.5162 26255.6
 30 04 2013  02 28  -21.0436 26030.1 -03434.5 -07.5163 26255.7
 30 04 2013  02 29  -21.0435 26030.2 -03434.5 -07.5164 26255.8
 30 04 2013  02 30  -21.0435 26030.2 -03434.6 -07.5164 26255.8
 30 04 2013  02 31  -21.0435 26030.3 -03434.6 -07.5165 26255.9
 30 04 2013  02 32  -21.0436 26030.3 -03434.6 -07.5165 26255.9
 30 04 2013  02 33  -21.0437 26030.2 -03434.6 -07.5165 26255.8
 30 04 2013  02 34  -21.0439 26030.2 -03434.6 -07.5165 26255.8
 30 04 2013  02 35  -21.0440 26030.1 -03434.5 -07.5164 26255.7
 30 04 2013  02 36  -21.0441 26030.0 -03434.5 -07.5163 26255.6
 30 04 2013  02 37  -21.0442 26029.9 -03434.4 -07.5163 26255.5
 30 04 2013  02 38  -21.0444 26029.8 -03434.4 -07.5162 26255.4
 30 04 2013  02 39  -21.0446 26029.7 -03434.4 -07.5162 26255.3
 30 04 2013  02 40  -21.0448 26029.6 -03434.3 -07.5162 26255.2
 30 04 2013  02 41  -21.0450 26029.5 -03434.3 -07.5161 26255.1
 30 04 2013  02 42  -21.0450 26029.5 -03434.3 -07.5160 26255.1
 30 04 2013  02 43  -21.0450 26029.4 -03434.2 -07.5160 26255.0
 30 04 2013  02 44  -21.0450 26029.3 -03434.2 -07.5160 26254.9
 30 04 2013  02 45  -21.0450 26029.1 -03434.2 -07.5159 26254.7
 30 04 2013  02 46  -21.0450 26029.0 -03434.1 -07.5158 26254.6
 30 04 2013  02 47  -21.0450 26029.0 -03434.2 -07.5159 26254.6
 30 04 2013  02 48  -21.0451 26029.0 -03434.2 -07.5160 26254.6
 30 04 2013  02 49  -21.0451 26029.1 -03434.2 -07.5161 26254.7
 30 04 2013  02 50  -21.0451 26029.2 -03434.3 -07.5161 26254.8
 30 04 2013  02 51  -21.0450 26029.2 -03434.3 -07.5162 26254.8
 30 04 2013  02 52  -21.0449 26029.1 -03434.3 -07.5162 26254.7
 30 04 2013  02 53  -21.0447 26029.1 -03434.3 -07.5161 26254.6
 30 04 2013  02 54  -21.0445 26029.1 -03434.3 -07.5163 26254.7
 30 04 2013  02 55  -21.0444 26029.1 -03434.3 -07.5163 26254.7
 30 04 2013  02 56  -21.0441 26029.2 -03434.3 -07.5163 26254.8
 30 04 2013  02 57  -21.0439 26029.3 -03434.4 -07.5164 26254.9
 30 04 2013  02 58  -21.0440 26029.3 -03434.4 -07.5165 26254.9
 30 04 2013  02 59  -21.0443 26029.3 -03434.5 -07.5166 26254.9
 30 04 2013  03 00  -21.0445 26029.4 -03434.6 -07.5167 26255.1
 30 04 2013  03 01  -21.0446 26029.6 -03434.7 -07.5169 26255.2
 30 04 2013  03 02  -21.0445 26029.8 -03434.7 -07.5170 26255.4
 30 04 2013  03 03  -21.0444 26029.8 -03434.8 -07.5170 26255.4
 30 04 2013  03 04  -21.0444 26029.8 -03434.7 -07.5170 26255.4
 30 04 2013  03 05  -21.0444 26029.9 -03434.8 -07.5170 26255.5
 30 04 2013  03 06  -21.0443 26030.0 -03434.8 -07.5171 26255.6
 30 04 2013  03 07  -21.0442 26029.9 -03434.8 -07.5170 26255.5
 30 04 2013  03 08  -21.0440 26029.8 -03434.7 -07.5169 26255.5
 30 04 2013  03 09  -21.0438 26029.7 -03434.7 -07.5168 26255.4
 30 04 2013  03 10  -21.0435 26029.6 -03434.6 -07.5168 26255.3
 30 04 2013  03 11  -21.0433 26029.6 -03434.6 -07.5168 26255.2
 30 04 2013  03 12  -21.0433 26029.5 -03434.6 -07.5168 26255.2
 30 04 2013  03 13  -21.0431 26029.5 -03434.6 -07.5167 26255.1
 30 04 2013  03 14  -21.0430 26029.4 -03434.6 -07.5167 26255.1
 30 04 2013  03 15  -21.0427 26029.4 -03434.6 -07.5168 26255.0
 30 04 2013  03 16  -21.0425 26029.4 -03434.6 -07.5168 26255.0
 30 04 2013  03 17  -21.0423 26029.4 -03434.6 -07.5169 26255.0
 30 04 2013  03 18  -21.0419 26029.3 -03434.6 -07.5169 26254.9
 30 04 2013  03 19  -21.0416 26029.3 -03434.6 -07.5169 26255.0
 30 04 2013  03 20  -21.0414 26029.3 -03434.7 -07.5170 26254.9
 30 04 2013  03 21  -21.0413 26029.4 -03434.7 -07.5171 26255.0
 30 04 2013  03 22  -21.0412 26029.4 -03434.8 -07.5172 26255.1
 30 04 2013  03 23  -21.0412 26029.4 -03434.9 -07.5174 26255.1
 30 04 2013  03 24  -21.0412 26029.4 -03434.9 -07.5174 26255.1
 30 04 2013  03 25  -21.0411 26029.5 -03434.9 -07.5174 26255.2
 30 04 2013  03 26  -21.0411 26029.4 -03434.9 -07.5174 26255.1
 30 04 2013  03 27  -21.0410 26029.3 -03434.9 -07.5174 26255.0
 30 04 2013  03 28  -21.0409 26029.3 -03434.9 -07.5174 26254.9
 30 04 2013  03 29  -21.0408 26029.2 -03434.9 -07.5174 26254.8
 30 04 2013  03 30  -21.0406 26029.1 -03434.9 -07.5174 26254.8
 30 04 2013  03 31  -21.0406 26029.2 -03434.9 -07.5175 26254.8
 30 04 2013  03 32  -21.0403 26029.3 -03435.0 -07.5176 26254.9
 30 04 2013  03 33  -21.0401 26029.4 -03435.1 -07.5179 26255.1
 30 04 2013  03 34  -21.0398 26029.5 -03435.2 -07.5180 26255.2
 30 04 2013  03 35  -21.0397 26029.5 -03435.2 -07.5180 26255.2
 30 04 2013  03 36  -21.0397 26029.4 -03435.2 -07.5181 26255.1
 30 04 2013  03 37  -21.0398 26029.5 -03435.2 -07.5181 26255.2
 30 04 2013  03 38  -21.0399 26029.5 -03435.3 -07.5182 26255.2
 30 04 2013  03 39  -21.0401 26029.5 -03435.3 -07.5183 26255.2
 30 04 2013  03 40  -21.0402 26029.5 -03435.4 -07.5184 26255.2
 30 04 2013  03 41  -21.0403 26029.6 -03435.4 -07.5184 26255.3
 30 04 2013  03 42  -21.0403 26029.6 -03435.4 -07.5185 26255.3
 30 04 2013  03 43  -21.0403 26029.6 -03435.4 -07.5185 26255.3
 30 04 2013  03 44  -21.0402 26029.5 -03435.4 -07.5184 26255.2
 30 04 2013  03 45  -21.0401 26029.4 -03435.3 -07.5183 26255.1
 30 04 2013  03 46  -21.0402 26029.4 -03435.3 -07.5183 26255.1
 30 04 2013  03 47  -21.0403 26029.4 -03435.3 -07.5183 26255.1
 30 04 2013  03 48  -21.0405 26029.3 -03435.3 -07.5183 26255.0
 30 04 2013  03 49  -21.0407 26029.3 -03435.3 -07.5184 26255.0
 30 04 2013  03 50  -21.0409 26029.3 -03435.4 -07.5185 26255.0
 30 04 2013  03 51  -21.0411 26029.3 -03435.4 -07.5185 26255.0
 30 04 2013  03 52  -21.0413 26029.3 -03435.4 -07.5185 26255.0
 30 04 2013  03 53  -21.0416 26029.3 -03435.4 -07.5186 26255.1
 30 04 2013  03 54  -21.0417 26029.4 -03435.5 -07.5186 26255.2
 30 04 2013  03 55  -21.0418 26029.5 -03435.5 -07.5187 26255.2
 30 04 2013  03 56  -21.0419 26029.5 -03435.5 -07.5188 26255.3
 30 04 2013  03 57  -21.0419 26029.6 -03435.6 -07.5188 26255.4
 30 04 2013  03 58  -21.0417 26029.6 -03435.6 -07.5189 26255.4
 30 04 2013  03 59  -21.0415 26029.8 -03435.7 -07.5190 26255.5
 30 04 2013  04 00  -21.0413 26029.8 -03435.6 -07.5189 26255.5
 30 04 2013  04 01  -21.0409 26029.8 -03435.6 -07.5189 26255.5
 30 04 2013  04 02  -21.0407 26029.7 -03435.6 -07.5188 26255.5
 30 04 2013  04 03  -21.0407 26029.7 -03435.6 -07.5188 26255.4
 30 04 2013  04 04  -21.0408 26029.6 -03435.6 -07.5188 26255.4
 30 04 2013  04 05  -21.0408 26029.6 -03435.6 -07.5189 26255.4
 30 04 2013  04 06  -21.0408 26029.6 -03435.6 -07.5189 26255.3
 30 04 2013  04 07  -21.0406 26029.6 -03435.6 -07.5189 26255.4
 30 04 2013  04 08  -21.0403 26029.6 -03435.7 -07.5190 26255.4
 30 04 2013  04 09  -21.0399 26029.7 -03435.7 -07.5191 26255.5
 30 04 2013  04 10  -21.0397 26029.7 -03435.7 -07.5191 26255.5
 30 04 2013  04 11  -21.0395 26029.6 -03435.7 -07.5192 26255.4
 30 04 2013  04 12  -21.0391 26029.6 -03435.7 -07.5191 26255.3
 30 04 2013  04 13  -21.0390 26029.5 -03435.7 -07.5191 26255.2
 30 04 2013  04 14  -21.0390 26029.4 -03435.7 -07.5192 26255.2
 30 04 2013  04 15  -21.0392 26029.3 -03435.7 -07.5192 26255.1
 30 04 2013  04 16  -21.0393 26029.2 -03435.7 -07.5193 26255.0
 30 04 2013  04 17  -21.0396 26029.1 -03435.7 -07.5192 26254.9
 30 04 2013  04 18  -21.0396 26029.1 -03435.7 -07.5192 26254.8
 30 04 2013  04 19  -21.0397 26029.0 -03435.7 -07.5192 26254.8
 30 04 2013  04 20  -21.0397 26028.9 -03435.7 -07.5192 26254.7
 30 04 2013  04 21  -21.0397 26028.9 -03435.7 -07.5192 26254.7
 30 04 2013  04 22  -21.0397 26028.9 -03435.7 -07.5192 26254.6
 30 04 2013  04 23  -21.0397 26028.9 -03435.7 -07.5194 26254.6
 30 04 2013  04 24  -21.0396 26028.9 -03435.8 -07.5195 26254.7
 30 04 2013  04 25  -21.0396 26029.0 -03435.8 -07.5196 26254.8
 30 04 2013  04 26  -21.0395 26029.1 -03435.9 -07.5197 26254.9
 30 04 2013  04 27  -21.0396 26029.1 -03435.9 -07.5197 26254.9
 30 04 2013  04 28  -21.0395 26029.1 -03435.9 -07.5197 26254.9
 30 04 2013  04 29  -21.0395 26029.2 -03436.0 -07.5198 26255.0
 30 04 2013  04 30  -21.0395 26029.3 -03436.0 -07.5199 26255.1
 30 04 2013  04 31  -21.0395 26029.4 -03436.1 -07.5200 26255.2
 30 04 2013  04 32  -21.0395 26029.4 -03436.1 -07.5200 26255.2
 30 04 2013  04 33  -21.0394 26029.4 -03436.1 -07.5201 26255.2
 30 04 2013  04 34  -21.0395 26029.4 -03436.1 -07.5201 26255.2
 30 04 2013  04 35  -21.0395 26029.3 -03436.1 -07.5200 26255.2
 30 04 2013  04 36  -21.0394 26029.3 -03436.1 -07.5200 26255.1
 30 04 2013  04 37  -21.0393 26029.2 -03436.0 -07.5199 26255.0
 30 04 2013  04 38  -21.0392 26029.2 -03436.0 -07.5200 26255.0
 30 04 2013  04 39  -21.0393 26029.2 -03436.1 -07.5200 26255.0
 30 04 2013  04 40  -21.0393 26029.2 -03436.0 -07.5200 26255.0
 30 04 2013  04 41  -21.0393 26029.1 -03436.1 -07.5200 26254.9
 30 04 2013  04 42  -21.0393 26029.1 -03436.1 -07.5201 26254.9
 30 04 2013  04 43  -21.0394 26029.0 -03436.1 -07.5200 26254.9
 30 04 2013  04 44  -21.0395 26029.0 -03436.1 -07.5201 26254.8
 30 04 2013  04 45  -21.0397 26029.0 -03436.1 -07.5202 26254.8
 30 04 2013  04 46  -21.0398 26029.0 -03436.1 -07.5202 26254.8
 30 04 2013  04 47  -21.0400 26029.1 -03436.2 -07.5203 26254.9
 30 04 2013  04 48  -21.0401 26029.2 -03436.2 -07.5204 26255.0
 30 04 2013  04 49  -21.0401 26029.3 -03436.3 -07.5205 26255.1
 30 04 2013  04 50  -21.0400 26029.3 -03436.3 -07.5205 26255.2
 30 04 2013  04 51  -21.0399 26029.4 -03436.4 -07.5206 26255.2
 30 04 2013  04 52  -21.0399 26029.4 -03436.4 -07.5207 26255.3
 30 04 2013  04 53  -21.0398 26029.5 -03436.4 -07.5207 26255.4
 30 04 2013  04 54  -21.0397 26029.6 -03436.5 -07.5208 26255.5
 30 04 2013  04 55  -21.0396 26029.8 -03436.5 -07.5209 26255.6
 30 04 2013  04 56  -21.0397 26029.9 -03436.6 -07.5210 26255.7
 30 04 2013  04 57  -21.0396 26029.9 -03436.6 -07.5210 26255.8
 30 04 2013  04 58  -21.0395 26030.0 -03436.7 -07.5211 26255.9
 30 04 2013  04 59  -21.0393 26030.1 -03436.7 -07.5211 26256.0
 30 04 2013  05 00  -21.0391 26030.2 -03436.8 -07.5212 26256.1
 30 04 2013  05 01  -21.0390 26030.2 -03436.8 -07.5213 26256.2
 30 04 2013  05 02  -21.0389 26030.3 -03436.9 -07.5214 26256.2
 30 04 2013  05 03  -21.0390 26030.4 -03436.9 -07.5215 26256.3
 30 04 2013  05 04  -21.0391 26030.5 -03437.0 -07.5216 26256.4
 30 04 2013  05 05  -21.0393 26030.6 -03437.0 -07.5216 26256.5
 30 04 2013  05 06  -21.0395 26030.6 -03437.0 -07.5217 26256.6
 30 04 2013  05 07  -21.0395 26030.7 -03437.0 -07.5217 26256.6
 30 04 2013  05 08  -21.0395 26030.7 -03437.1 -07.5217 26256.7
 30 04 2013  05 09  -21.0396 26030.8 -03437.1 -07.5218 26256.8
 30 04 2013  05 10  -21.0396 26030.9 -03437.1 -07.5218 26256.8
 30 04 2013  05 11  -21.0397 26030.9 -03437.1 -07.5218 26256.8
 30 04 2013  05 12  -21.0398 26030.9 -03437.1 -07.5218 26256.8
 30 04 2013  05 13  -21.0399 26030.9 -03437.1 -07.5217 26256.9
 30 04 2013  05 14  -21.0401 26031.0 -03437.1 -07.5217 26256.9
 30 04 2013  05 15  -21.0402 26031.0 -03437.1 -07.5217 26257.0
 30 04 2013  05 16  -21.0403 26031.1 -03437.1 -07.5218 26257.0
 30 04 2013  05 17  -21.0405 26031.1 -03437.1 -07.5218 26257.1
 30 04 2013  05 18  -21.0406 26031.1 -03437.1 -07.5217 26257.0
 30 04 2013  05 19  -21.0407 26031.1 -03437.1 -07.5217 26257.0
 30 04 2013  05 20  -21.0408 26031.0 -03437.1 -07.5216 26257.0
 30 04 2013  05 21  -21.0409 26031.0 -03437.0 -07.5215 26257.0
 30 04 2013  05 22  -21.0410 26031.0 -03437.0 -07.5215 26256.9
 30 04 2013  05 23  -21.0410 26031.0 -03437.0 -07.5215 26257.0
 30 04 2013  05 24  -21.0409 26031.1 -03437.0 -07.5216 26257.0
 30 04 2013  05 25  -21.0409 26031.2 -03437.1 -07.5216 26257.1
 30 04 2013  05 26  -21.0408 26031.2 -03437.1 -07.5216 26257.1
 30 04 2013  05 27  -21.0406 26031.2 -03437.1 -07.5216 26257.1
 30 04 2013  05 28  -21.0404 26031.3 -03437.1 -07.5217 26257.2
 30 04 2013  05 29  -21.0403 26031.4 -03437.2 -07.5217 26257.3
 30 04 2013  05 30  -21.0401 26031.4 -03437.2 -07.5219 26257.4
 30 04 2013  05 31  -21.0401 26031.5 -03437.2 -07.5219 26257.4
 30 04 2013  05 32  -21.0400 26031.5 -03437.2 -07.5219 26257.4
 30 04 2013  05 33  -21.0398 26031.4 -03437.2 -07.5219 26257.4
 30 04 2013  05 34  -21.0396 26031.4 -03437.2 -07.5219 26257.4
 30 04 2013  05 35  -21.0395 26031.4 -03437.2 -07.5219 26257.3
 30 04 2013  05 36  -21.0395 26031.3 -03437.2 -07.5219 26257.3
 30 04 2013  05 37  -21.0396 26031.2 -03437.2 -07.5219 26257.2
 30 04 2013  05 38  -21.0395 26031.2 -03437.2 -07.5218 26257.1
 30 04 2013  05 39  -21.0395 26031.1 -03437.2 -07.5219 26257.0
 30 04 2013  05 40  -21.0396 26031.1 -03437.2 -07.5219 26257.0
 30 04 2013  05 41  -21.0395 26031.1 -03437.2 -07.5219 26257.0
 30 04 2013  05 42  -21.0394 26031.1 -03437.3 -07.5220 26257.1
 30 04 2013  05 43  -21.0393 26031.2 -03437.3 -07.5221 26257.1
 30 04 2013  05 44  -21.0391 26031.3 -03437.4 -07.5222 26257.2
 30 04 2013  05 45  -21.0389 26031.3 -03437.4 -07.5223 26257.3
 30 04 2013  05 46  -21.0389 26031.4 -03437.5 -07.5224 26257.3
 30 04 2013  05 47  -21.0388 26031.3 -03437.4 -07.5224 26257.3
 30 04 2013  05 48  -21.0388 26031.3 -03437.5 -07.5225 26257.3
 30 04 2013  05 49  -21.0388 26031.3 -03437.5 -07.5225 26257.3
 30 04 2013  05 50  -21.0388 26031.3 -03437.5 -07.5225 26257.3
 30 04 2013  05 51  -21.0388 26031.3 -03437.5 -07.5225 26257.3
 30 04 2013  05 52  -21.0388 26031.2 -03437.5 -07.5225 26257.2
 30 04 2013  05 53  -21.0388 26031.3 -03437.5 -07.5225 26257.3
 30 04 2013  05 54  -21.0388 26031.4 -03437.6 -07.5226 26257.4
 30 04 2013  05 55  -21.0388 26031.3 -03437.6 -07.5226 26257.3
 30 04 2013  05 56  -21.0387 26031.3 -03437.5 -07.5226 26257.3
 30 04 2013  05 57  -21.0386 26031.3 -03437.6 -07.5226 26257.3
 30 04 2013  05 58  -21.0386 26031.2 -03437.5 -07.5226 26257.2
 30 04 2013  05 59  -21.0386 26031.0 -03437.4 -07.5225 26257.0
 30 04 2013  06 00  -21.0385 26030.9 -03437.4 -07.5223 26256.9
 30 04 2013  06 01  -21.0386 26030.7 -03437.3 -07.5223 26256.7
 30 04 2013  06 02  -21.0387 26030.7 -03437.3 -07.5223 26256.7
 30 04 2013  06 03  -21.0389 26030.6 -03437.4 -07.5224 26256.6
 30 04 2013  06 04  -21.0391 26030.7 -03437.4 -07.5225 26256.6
 30 04 2013  06 05  -21.0393 26030.6 -03437.4 -07.5226 26256.6
 30 04 2013  06 06  -21.0395 26030.7 -03437.5 -07.5226 26256.6
 30 04 2013  06 07  -21.0395 26030.7 -03437.5 -07.5226 26256.6
 30 04 2013  06 08  -21.0396 26030.7 -03437.5 -07.5226 26256.7
 30 04 2013  06 09  -21.0397 26030.7 -03437.5 -07.5227 26256.7
 30 04 2013  06 10  -21.0397 26030.7 -03437.5 -07.5227 26256.7
 30 04 2013  06 11  -21.0398 26030.7 -03437.5 -07.5227 26256.7
 30 04 2013  06 12  -21.0398 26030.7 -03437.5 -07.5227 26256.7
 30 04 2013  06 13  -21.0398 26030.7 -03437.5 -07.5227 26256.7
 30 04 2013  06 14  -21.0399 26030.8 -03437.6 -07.5228 26256.8
 30 04 2013  06 15  -21.0398 26030.9 -03437.6 -07.5229 26256.9
 30 04 2013  06 16  -21.0398 26030.9 -03437.6 -07.5229 26256.9
 30 04 2013  06 17  -21.0397 26030.8 -03437.6 -07.5229 26256.8
 30 04 2013  06 18  -21.0396 26030.8 -03437.6 -07.5228 26256.8
 30 04 2013  06 19  -21.0395 26030.8 -03437.6 -07.5228 26256.8
 30 04 2013  06 20  -21.0395 26030.7 -03437.6 -07.5228 26256.7
 30 04 2013  06 21  -21.0395 26030.7 -03437.6 -07.5228 26256.7
 30 04 2013  06 22  -21.0394 26030.7 -03437.6 -07.5228 26256.7
 30 04 2013  06 23  -21.0394 26030.8 -03437.6 -07.5229 26256.8
 30 04 2013  06 24  -21.0392 26030.8 -03437.6 -07.5229 26256.8
 30 04 2013  06 25  -21.0390 26030.7 -03437.6 -07.5229 26256.7
 30 04 2013  06 26  -21.0386 26030.6 -03437.6 -07.5229 26256.6
 30 04 2013  06 27  -21.0384 26030.4 -03437.5 -07.5228 26256.4
 30 04 2013  06 28  -21.0383 26030.4 -03437.6 -07.5229 26256.4
 30 04 2013  06 29  -21.0383 26030.3 -03437.6 -07.5230 26256.4
 30 04 2013  06 30  -21.0383 26030.4 -03437.7 -07.5232 26256.5
 30 04 2013  06 31  -21.0383 26030.5 -03437.7 -07.5233 26256.5
 30 04 2013  06 32  -21.0382 26030.6 -03437.8 -07.5234 26256.6
 30 04 2013  06 33  -21.0381 26030.6 -03437.9 -07.5235 26256.7
 30 04 2013  06 34  -21.0380 26030.7 -03437.9 -07.5236 26256.7
 30 04 2013  06 35  -21.0380 26030.8 -03438.0 -07.5237 26256.8
 30 04 2013  06 36  -21.0379 26030.9 -03438.1 -07.5239 26257.0
 30 04 2013  06 37  -21.0379 26031.0 -03438.1 -07.5239 26257.0
 30 04 2013  06 38  -21.0377 26031.2 -03438.3 -07.5242 26257.3
 30 04 2013  06 39  -21.0377 26031.3 -03438.3 -07.5243 26257.4
 30 04 2013  06 40  -21.0376 26031.2 -03438.3 -07.5242 26257.3
 30 04 2013  06 41  -21.0375 26031.4 -03438.4 -07.5243 26257.5
 30 04 2013  06 42  -21.0374 26031.5 -03438.4 -07.5244 26257.6
 30 04 2013  06 43  -21.0373 26031.5 -03438.4 -07.5245 26257.6
 30 04 2013  06 44  -21.0371 26031.6 -03438.5 -07.5245 26257.7
 30 04 2013  06 45  -21.0370 26031.7 -03438.5 -07.5246 26257.9
 30 04 2013  06 46  -21.0370 26031.7 -03438.5 -07.5245 26257.8
 30 04 2013  06 47  -21.0369 26031.8 -03438.5 -07.5246 26257.9
 30 04 2013  06 48  -21.0368 26031.8 -03438.6 -07.5247 26258.0
 30 04 2013  06 49  -21.0368 26031.7 -03438.5 -07.5246 26257.8
 30 04 2013  06 50  -21.0367 26031.8 -03438.6 -07.5247 26258.0
 30 04 2013  06 51  -21.0366 26031.9 -03438.6 -07.5246 26258.0
 30 04 2013  06 52  -21.0365 26032.1 -03438.6 -07.5247 26258.2
 30 04 2013  06 53  -21.0364 26031.9 -03438.6 -07.5247 26258.0
 30 04 2013  06 54  -21.0363 26032.0 -03438.6 -07.5247 26258.2
 30 04 2013  06 55  -21.0363 26031.9 -03438.6 -07.5246 26258.1
 30 04 2013  06 56  -21.0362 26032.0 -03438.6 -07.5247 26258.1
 30 04 2013  06 57  -21.0360 26032.1 -03438.6 -07.5248 26258.3
 30 04 2013  06 58  -21.0361 26032.0 -03438.6 -07.5247 26258.1
 30 04 2013  06 59  -21.0361 26031.9 -03438.5 -07.5246 26258.1
 30 04 2013  07 00  -21.0360 26032.0 -03438.6 -07.5247 26258.2
 30 04 2013  07 01  -21.0361 26031.9 -03438.6 -07.5246 26258.1
 30 04 2013  07 02  -21.0360 26032.1 -03438.6 -07.5247 26258.3
 30 04 2013  07 03  -21.0360 26031.9 -03438.5 -07.5245 26258.1
 30 04 2013  07 04  -21.0359 26032.3 -03438.7 -07.5248 26258.4
 30 04 2013  07 05  -21.0361 26032.4 -03438.8 -07.5249 26258.5
 30 04 2013  07 06  -21.0361 26032.6 -03438.8 -07.5250 26258.7
 30 04 2013  07 07  -21.0362 26032.7 -03438.9 -07.5251 26258.8
 30 04 2013  07 08  -21.0361 26033.0 -03439.0 -07.5253 26259.2
 30 04 2013  07 09  -21.0363 26033.0 -03439.0 -07.5253 26259.2
 30 04 2013  07 10  -21.0366 26033.2 -03439.1 -07.5253 26259.3
 30 04 2013  07 11  -21.0368 26033.3 -03439.1 -07.5253 26259.4
 30 04 2013  07 12  -21.0369 26033.3 -03439.0 -07.5253 26259.5
 30 04 2013  07 13  -21.0370 26033.3 -03439.0 -07.5252 26259.5
 30 04 2013  07 14  -21.0368 26033.3 -03439.0 -07.5251 26259.5
 30 04 2013  07 15  -21.0368 26033.3 -03438.9 -07.5250 26259.5
 30 04 2013  07 16  -21.0366 26033.5 -03439.0 -07.5251 26259.7
 30 04 2013  07 17  -21.0364 26033.7 -03439.0 -07.5251 26259.9
 30 04 2013  07 18  -21.0361 26033.8 -03439.0 -07.5252 26260.0
 30 04 2013  07 19  -21.0358 26033.8 -03439.0 -07.5251 26260.0
 30 04 2013  07 20  -21.0355 26034.0 -03439.1 -07.5252 26260.1
 30 04 2013  07 21  -21.0352 26034.1 -03439.1 -07.5253 26260.3
 30 04 2013  07 22  -21.0349 26034.4 -03439.3 -07.5255 26260.6
 30 04 2013  07 23  -21.0346 26034.6 -03439.4 -07.5257 26260.8
 30 04 2013  07 24  -21.0344 26034.7 -03439.4 -07.5257 26260.9
 30 04 2013  07 25  -21.0341 26034.7 -03439.4 -07.5256 26260.9
 30 04 2013  07 26  -21.0339 26034.8 -03439.4 -07.5257 26261.0
 30 04 2013  07 27  -21.0337 26034.9 -03439.5 -07.5258 26261.1
 30 04 2013  07 28  -21.0337 26035.0 -03439.5 -07.5258 26261.2
 30 04 2013  07 29  -21.0338 26035.0 -03439.5 -07.5259 26261.2
 30 04 2013  07 30  -21.0339 26035.0 -03439.5 -07.5259 26261.3
 30 04 2013  07 31  -21.0341 26035.1 -03439.6 -07.5259 26261.3
 30 04 2013  07 32  -21.0342 26035.2 -03439.6 -07.5259 26261.4
 30 04 2013  07 33  -21.0344 26035.3 -03439.6 -07.5260 26261.5
 30 04 2013  07 34  -21.0345 26035.3 -03439.6 -07.5260 26261.5
 30 04 2013  07 35  -21.0346 26035.3 -03439.6 -07.5260 26261.6
 30 04 2013  07 36  -21.0346 26035.4 -03439.6 -07.5260 26261.6
 30 04 2013  07 37  -21.0345 26035.5 -03439.6 -07.5259 26261.7
 30 04 2013  07 38  -21.0346 26035.4 -03439.6 -07.5258 26261.6
 30 04 2013  07 39  -21.0346 26035.4 -03439.6 -07.5258 26261.6
 30 04 2013  07 40  -21.0345 26035.5 -03439.6 -07.5258 26261.7
 30 04 2013  07 41  -21.0343 26035.5 -03439.6 -07.5258 26261.7
 30 04 2013  07 42  -21.0340 26035.6 -03439.6 -07.5258 26261.8
 30 04 2013  07 43  -21.0339 26035.5 -03439.6 -07.5258 26261.8
 30 04 2013  07 44  -21.0339 26035.5 -03439.5 -07.5257 26261.8
 30 04 2013  07 45  -21.0340 26035.5 -03439.5 -07.5257 26261.7
 30 04 2013  07 46  -21.0340 26035.5 -03439.5 -07.5256 26261.7
 30 04 2013  07 47  -21.0340 26035.5 -03439.5 -07.5256 26261.7
 30 04 2013  07 48  -21.0340 26035.5 -03439.5 -07.5256 26261.7
 30 04 2013  07 49  -21.0339 26035.4 -03439.5 -07.5256 26261.6
 30 04 2013  07 50  -21.0339 26035.5 -03439.5 -07.5256 26261.7
 30 04 2013  07 51  -21.0340 26035.4 -03439.4 -07.5255 26261.6
 30 04 2013  07 52  -21.0339 26035.3 -03439.4 -07.5254 26261.5
 30 04 2013  07 53  -21.0340 26035.3 -03439.4 -07.5254 26261.5
 30 04 2013  07 54  -21.0339 26035.4 -03439.4 -07.5254 26261.6
 30 04 2013  07 55  -21.0334 26035.4 -03439.4 -07.5254 26261.6
 30 04 2013  07 56  -21.0332 26035.2 -03439.3 -07.5253 26261.4
 30 04 2013  07 57  -21.0330 26035.0 -03439.2 -07.5252 26261.2
 30 04 2013  07 58  -21.0330 26034.9 -03439.2 -07.5252 26261.0
 30 04 2013  07 59  -21.0330 26034.8 -03439.2 -07.5252 26261.0
 30 04 2013  08 00  -21.0330 26034.7 -03439.2 -07.5251 26260.9
 30 04 2013  08 01  -21.0328 26034.7 -03439.2 -07.5252 26260.9
 30 04 2013  08 02  -21.0326 26034.6 -03439.2 -07.5251 26260.8
 30 04 2013  08 03  -21.0323 26034.5 -03439.1 -07.5251 26260.7
 30 04 2013  08 04  -21.0321 26034.5 -03439.1 -07.5251 26260.7
 30 04 2013  08 05  -21.0317 26034.4 -03439.1 -07.5251 26260.5
 30 04 2013  08 06  -21.0314 26034.2 -03439.0 -07.5250 26260.4
 30 04 2013  08 07  -21.0314 26034.1 -03439.0 -07.5250 26260.2
 30 04 2013  08 08  -21.0315 26034.0 -03439.0 -07.5251 26260.2
 30 04 2013  08 09  -21.0315 26034.0 -03439.1 -07.5253 26260.1
 30 04 2013  08 10  -21.0317 26033.9 -03439.1 -07.5253 26260.0
 30 04 2013  08 11  -21.0317 26033.8 -03439.1 -07.5253 26260.0
 30 04 2013  08 12  -21.0317 26033.8 -03439.1 -07.5253 26260.0
 30 04 2013  08 13  -21.0318 26033.8 -03439.2 -07.5254 26259.9
 30 04 2013  08 14  -21.0320 26033.8 -03439.1 -07.5254 26259.9
 30 04 2013  08 15  -21.0319 26033.7 -03439.1 -07.5254 26259.9
 30 04 2013  08 16  -21.0317 26033.6 -03439.1 -07.5253 26259.8
 30 04 2013  08 17  -21.0319 26033.4 -03439.0 -07.5252 26259.6
 30 04 2013  08 18  -21.0321 26033.3 -03439.1 -07.5253 26259.5
 30 04 2013  08 19  -21.0316 26033.3 -03439.0 -07.5253 26259.5
 30 04 2013  08 20  -21.0310 26033.2 -03439.1 -07.5254 26259.4
 30 04 2013  08 21  -21.0309 26033.0 -03439.1 -07.5254 26259.2
 30 04 2013  08 22  -21.0306 26033.0 -03439.1 -07.5255 26259.2
 30 04 2013  08 23  -21.0304 26033.0 -03439.1 -07.5255 26259.1
 30 04 2013  08 24  -21.0305 26032.9 -03439.3 -07.5259 26259.1
 30 04 2013  08 25  -21.0303 26032.9 -03439.3 -07.5260 26259.1
 30 04 2013  08 26  -21.0301 26032.9 -03439.3 -07.5260 26259.1
 30 04 2013  08 27  -21.0303 26032.9 -03439.4 -07.5262 26259.2
 30 04 2013  08 28  -21.0305 26033.0 -03439.5 -07.5263 26259.2
 30 04 2013  08 29  -21.0308 26033.1 -03439.5 -07.5264 26259.3
 30 04 2013  08 30  -21.0309 26033.0 -03439.6 -07.5265 26259.3
 30 04 2013  08 31  -21.0309 26033.1 -03439.6 -07.5265 26259.3
 30 04 2013  08 32  -21.0312 26033.0 -03439.6 -07.5266 26259.3
 30 04 2013  08 33  -21.0315 26033.0 -03439.6 -07.5266 26259.2
 30 04 2013  08 34  -21.0318 26032.9 -03439.6 -07.5267 26259.2
 30 04 2013  08 35  -21.0319 26032.8 -03439.7 -07.5267 26259.1
 30 04 2013  08 36  -21.0323 26032.8 -03439.7 -07.5268 26259.0
 30 04 2013  08 37  -21.0324 26032.7 -03439.7 -07.5268 26259.0
 30 04 2013  08 38  -21.0323 26032.7 -03439.6 -07.5268 26258.9
 30 04 2013  08 39  -21.0323 26032.6 -03439.7 -07.5269 26258.9
 30 04 2013  08 40  -21.0323 26032.5 -03439.7 -07.5269 26258.8
 30 04 2013  08 41  -21.0324 26032.5 -03439.8 -07.5271 26258.8
 30 04 2013  08 42  -21.0325 26032.5 -03439.8 -07.5272 26258.8
 30 04 2013  08 43  -21.0325 26032.5 -03439.9 -07.5274 26258.8
 30 04 2013  08 44  -21.0325 26032.5 -03440.0 -07.5275 26258.8
 30 04 2013  08 45  -21.0327 26032.5 -03440.1 -07.5277 26258.8
 30 04 2013  08 46  -21.0328 26032.5 -03440.1 -07.5279 26258.8
 30 04 2013  08 47  -21.0329 26032.4 -03440.1 -07.5279 26258.7
 30 04 2013  08 48  -21.0333 26032.4 -03440.2 -07.5280 26258.7
 30 04 2013  08 49  -21.0338 26032.4 -03440.3 -07.5282 26258.7
 30 04 2013  08 50  -21.0343 26032.3 -03440.3 -07.5284 26258.7
 30 04 2013  08 51  -21.0348 26032.3 -03440.4 -07.5285 26258.7
 30 04 2013  08 52  -21.0350 26032.3 -03440.4 -07.5286 26258.6
 30 04 2013  08 53  -21.0353 26032.3 -03440.4 -07.5285 26258.6
 30 04 2013  08 54  -21.0355 26032.2 -03440.5 -07.5287 26258.5
 30 04 2013  08 55  -21.0359 26032.1 -03440.5 -07.5288 26258.5
 30 04 2013  08 56  -21.0361 26032.0 -03440.5 -07.5289 26258.4
 30 04 2013  08 57  -21.0366 26032.0 -03440.6 -07.5291 26258.4
 30 04 2013  08 58  -21.0370 26031.9 -03440.6 -07.5291 26258.3
 30 04 2013  08 59  -21.0374 26031.8 -03440.6 -07.5291 26258.2
 30 04 2013  09 00  -21.0377 26031.8 -03440.6 -07.5292 26258.2
 30 04 2013  09 01  -21.0378 26031.7 -03440.7 -07.5292 26258.1
 30 04 2013  09 02  -21.0379 26031.6 -03440.6 -07.5291 26258.0
 30 04 2013  09 03  -21.0381 26031.6 -03440.6 -07.5291 26258.0
 30 04 2013  09 04  -21.0380 26031.7 -03440.7 -07.5292 26258.1
 30 04 2013  09 05  -21.0381 26031.7 -03440.8 -07.5294 26258.1
 30 04 2013  09 06  -21.0380 26031.8 -03440.9 -07.5296 26258.2
 30 04 2013  09 07  -21.0382 26031.8 -03440.9 -07.5298 26258.2
 30 04 2013  09 08  -21.0383 26031.7 -03440.9 -07.5299 26258.1
 30 04 2013  09 09  -21.0385 26031.7 -03441.0 -07.5299 26258.1
 30 04 2013  09 10  -21.0388 26031.5 -03441.0 -07.5299 26257.9
 30 04 2013  09 11  -21.0391 26031.4 -03441.0 -07.5300 26257.8
 30 04 2013  09 12  -21.0393 26031.4 -03441.0 -07.5301 26257.8
 30 04 2013  09 13  -21.0392 26031.3 -03441.0 -07.5301 26257.8
 30 04 2013  09 14  -21.0390 26031.3 -03441.0 -07.5301 26257.7
 30 04 2013  09 15  -21.0389 26031.4 -03441.1 -07.5303 26257.9
 30 04 2013  09 16  -21.0393 26031.5 -03441.3 -07.5306 26257.9
 30 04 2013  09 17  -21.0397 26031.6 -03441.4 -07.5309 26258.1
 30 04 2013  09 18  -21.0400 26031.6 -03441.5 -07.5311 26258.1
 30 04 2013  09 19  -21.0406 26031.6 -03441.6 -07.5314 26258.1
 30 04 2013  09 20  -21.0411 26031.6 -03441.7 -07.5315 26258.1
 30 04 2013  09 21  -21.0416 26031.6 -03441.7 -07.5316 26258.1
 30 04 2013  09 22  -21.0421 26031.6 -03441.7 -07.5316 26258.1
 30 04 2013  09 23  -21.0422 26031.6 -03441.7 -07.5316 26258.1
 30 04 2013  09 24  -21.0422 26031.5 -03441.8 -07.5317 26258.1
 30 04 2013  09 25  -21.0429 26031.4 -03441.8 -07.5319 26258.0
 30 04 2013  09 26  -21.0434 26031.4 -03441.9 -07.5319 26257.9
 30 04 2013  09 27  -21.0437 26031.2 -03441.9 -07.5321 26257.7
 30 04 2013  09 28  -21.0441 26031.1 -03441.9 -07.5321 26257.6
 30 04 2013  09 29  -21.0445 26031.0 -03441.9 -07.5322 26257.6
 30 04 2013  09 30  -21.0449 26030.8 -03442.0 -07.5323 26257.4
 30 04 2013  09 31  -21.0453 26030.7 -03442.0 -07.5324 26257.2
 30 04 2013  09 32  -21.0458 26030.6 -03442.0 -07.5325 26257.2
 30 04 2013  09 33  -21.0462 26030.6 -03442.1 -07.5328 26257.2
 30 04 2013  09 34  -21.0464 26030.5 -03442.2 -07.5330 26257.1
 30 04 2013  09 35  -21.0466 26030.6 -03442.3 -07.5332 26257.2
 30 04 2013  09 36  -21.0471 26030.6 -03442.5 -07.5334 26257.2
 30 04 2013  09 37  -21.0472 26030.5 -03442.6 -07.5337 26257.1
 30 04 2013  09 38  -21.0471 26030.3 -03442.6 -07.5338 26256.9
 30 04 2013  09 39  -21.0474 26030.1 -03442.7 -07.5341 26256.8
 30 04 2013  09 40  -21.0475 26030.1 -03442.8 -07.5344 26256.8
 30 04 2013  09 41  -21.0478 26030.1 -03443.0 -07.5347 26256.8
 30 04 2013  09 42  -21.0475 26030.0 -03443.0 -07.5348 26256.7
 30 04 2013  09 43  -21.0473 26029.9 -03443.0 -07.5349 26256.7
 30 04 2013  09 44  -21.0474 26030.0 -03443.2 -07.5352 26256.8
 30 04 2013  09 45  -21.0476 26030.0 -03443.4 -07.5356 26256.8
 30 04 2013  09 46  -21.0480 26030.1 -03443.5 -07.5359 26256.9
 30 04 2013  09 47  -21.0480 26030.1 -03443.7 -07.5362 26256.9
 30 04 2013  09 48  -21.0482 26030.1 -03443.8 -07.5364 26256.9
 30 04 2013  09 49  -21.0477 26031.8 -03444.7 -07.5379 26258.7
 30 04 2013  09 50  -21.0462 26032.3 -03445.2 -07.5390 26259.3
 30 04 2013  09 51  -21.0448 26033.1 -03445.9 -07.5402 26260.2
 30 04 2013  09 52  -21.0433 26034.4 -03446.7 -07.5415 26261.5
 30 04 2013  09 53  -21.0424 26035.4 -03447.3 -07.5425 26262.6
 30 04 2013  09 54  -21.0419 26036.1 -03447.6 -07.5430 26263.4
 30 04 2013  09 55  -21.0415 26036.7 -03447.8 -07.5433 26264.0
 30 04 2013  09 56  -21.0412 26037.3 -03448.0 -07.5435 26264.6
 30 04 2013  09 57  -21.0411 26037.4 -03448.0 -07.5434 26264.7
 30 04 2013  09 58  -21.0414 26037.5 -03447.9 -07.5433 26264.8
 30 04 2013  09 59  -21.0425 26037.7 -03448.0 -07.5434 26265.0
 30 04 2013  10 00  -21.0437 26037.7 -03447.9 -07.5433 26265.0
 30 04 2013  10 01  -21.0450 26037.8 -03447.9 -07.5432 26265.0
 30 04 2013  10 02  -21.0464 26037.7 -03447.8 -07.5430 26265.0
 30 04 2013  10 03  -21.0475 26037.6 -03447.8 -07.5430 26264.9
 30 04 2013  10 04  -21.0480 26037.4 -03447.8 -07.5431 26264.7
 30 04 2013  10 05  -21.0487 26037.3 -03447.9 -07.5434 26264.6
 30 04 2013  10 06  -21.0496 26037.2 -03448.1 -07.5438 26264.5
 30 04 2013  10 07  -21.0505 26036.9 -03448.2 -07.5440 26264.3
 30 04 2013  10 08  -21.0513 26036.9 -03448.3 -07.5443 26264.2
 30 04 2013  10 09  -21.0524 26036.7 -03448.4 -07.5445 26264.1
 30 04 2013  10 10  -21.0534 26036.5 -03448.5 -07.5447 26263.9
 30 04 2013  10 11  -21.0540 26036.6 -03448.6 -07.5451 26264.0
 30 04 2013  10 12  -21.0541 26036.8 -03448.8 -07.5454 26264.2
 30 04 2013  10 13  -21.0545 26036.7 -03448.9 -07.5455 26264.2
 30 04 2013  10 14  -21.0552 26036.8 -03449.0 -07.5457 26264.3
 30 04 2013  10 15  -21.0560 26037.0 -03449.1 -07.5459 26264.4
 30 04 2013  10 16  -21.0565 26037.0 -03449.1 -07.5461 26264.5
 30 04 2013  10 17  -21.0574 26037.0 -03449.2 -07.5462 26264.5
 30 04 2013  10 18  -21.0581 26037.0 -03449.2 -07.5463 26264.5
 30 04 2013  10 19  -21.0588 26037.2 -03449.3 -07.5464 26264.7
 30 04 2013  10 20  -21.0591 26037.4 -03449.5 -07.5467 26264.9
 30 04 2013  10 21  -21.0594 26037.7 -03449.6 -07.5468 26265.2
 30 04 2013  10 22  -21.0598 26037.8 -03449.6 -07.5468 26265.3
 30 04 2013  10 23  -21.0601 26037.9 -03449.7 -07.5469 26265.5
 30 04 2013  10 24  -21.0605 26038.0 -03449.7 -07.5469 26265.5
 30 04 2013  10 25  -21.0608 26038.1 -03449.7 -07.5470 26265.6
 30 04 2013  10 26  -21.0615 26038.2 -03449.8 -07.5471 26265.8
 30 04 2013  10 27  -21.0624 26038.1 -03449.8 -07.5472 26265.7
 30 04 2013  10 28  -21.0635 26038.0 -03449.8 -07.5472 26265.5
 30 04 2013  10 29  -21.0647 26037.8 -03449.8 -07.5472 26265.3
 30 04 2013  10 30  -21.0654 26038.0 -03449.9 -07.5475 26265.5
 30 04 2013  10 31  -21.0663 26038.1 -03450.0 -07.5476 26265.7
 30 04 2013  10 32  -21.0671 26038.3 -03450.1 -07.5478 26265.8
 30 04 2013  10 33  -21.0686 26038.3 -03450.2 -07.5480 26265.8
 30 04 2013  10 34  -21.0701 26038.6 -03450.4 -07.5484 26266.2
 30 04 2013  10 35  -21.0713 26038.8 -03450.5 -07.5485 26266.4
 30 04 2013  10 36  -21.0723 26039.0 -03450.5 -07.5484 26266.6
 30 04 2013  10 37  -21.0731 26039.3 -03450.5 -07.5484 26266.9
 30 04 2013  10 38  -21.0740 26039.4 -03450.5 -07.5483 26267.0
 30 04 2013  10 39  -21.0747 26039.4 -03450.5 -07.5482 26267.0
 30 04 2013  10 40  -21.0755 26039.4 -03450.4 -07.5481 26267.0
 30 04 2013  10 41  -21.0757 26039.5 -03450.4 -07.5481 26267.1
 30 04 2013  10 42  -21.0758 26039.6 -03450.4 -07.5480 26267.2
 30 04 2013  10 43  -21.0759 26039.6 -03450.3 -07.5479 26267.2
 30 04 2013  10 44  -21.0763 26039.6 -03450.3 -07.5477 26267.2
 30 04 2013  10 45  -21.0770 26039.6 -03450.2 -07.5476 26267.2
 30 04 2013  10 46  -21.0778 26039.4 -03450.1 -07.5474 26267.0
 30 04 2013  10 47  -21.0784 26039.2 -03449.9 -07.5472 26266.7
 30 04 2013  10 48  -21.0789 26039.0 -03449.9 -07.5471 26266.6
 30 04 2013  10 49  -21.0797 26039.1 -03449.8 -07.5469 26266.6
 30 04 2013  10 50  -21.0805 26039.5 -03449.9 -07.5470 26267.1
 30 04 2013  10 51  -21.0808 26040.3 -03450.1 -07.5471 26267.9
 30 04 2013  10 52  -21.0813 26040.7 -03450.1 -07.5470 26268.3
 30 04 2013  10 53  -21.0826 26041.1 -03450.0 -07.5468 26268.6
 30 04 2013  10 54  -21.0840 26041.4 -03450.0 -07.5466 26268.9
 30 04 2013  10 55  -21.0849 26041.9 -03450.0 -07.5465 26269.4
 30 04 2013  10 56  -21.0859 26042.3 -03450.0 -07.5463 26269.8
 30 04 2013  10 57  -21.0875 26042.4 -03449.8 -07.5460 26269.9
 30 04 2013  10 58  -21.0887 26042.6 -03449.7 -07.5457 26270.1
 30 04 2013  10 59  -21.0900 26043.0 -03449.6 -07.5454 26270.5
 30 04 2013  11 00  -21.0906 26043.8 -03449.7 -07.5454 26271.2
 30 04 2013  11 01  -21.0916 26043.9 -03449.6 -07.5451 26271.4
 30 04 2013  11 02  -21.0924 26044.0 -03449.5 -07.5448 26271.4
 30 04 2013  11 03  -21.0930 26044.2 -03449.4 -07.5446 26271.6
 30 04 2013  11 04  -21.0935 26044.3 -03449.4 -07.5445 26271.8
 30 04 2013  11 05  -21.0941 26044.5 -03449.3 -07.5443 26271.9
 30 04 2013  11 06  -21.0944 26045.0 -03449.4 -07.5443 26272.4
 30 04 2013  11 07  -21.0947 26045.1 -03449.3 -07.5440 26272.5
 30 04 2013  11 08  -21.0948 26045.1 -03449.1 -07.5436 26272.5
 30 04 2013  11 09  -21.0951 26045.1 -03448.9 -07.5433 26272.5
 30 04 2013  11 10  -21.0955 26045.1 -03448.8 -07.5431 26272.4
 30 04 2013  11 11  -21.0960 26045.0 -03448.7 -07.5428 26272.3
 30 04 2013  11 12  -21.0964 26044.8 -03448.6 -07.5427 26272.1
 30 04 2013  11 13  -21.0968 26044.6 -03448.6 -07.5426 26271.9
 30 04 2013  11 14  -21.0972 26045.0 -03448.8 -07.5429 26272.3
 30 04 2013  11 15  -21.0973 26045.8 -03449.0 -07.5433 26273.2
 30 04 2013  11 16  -21.0970 26046.7 -03449.3 -07.5436 26274.1
 30 04 2013  11 17  -21.0969 26047.3 -03449.4 -07.5436 26274.7
 30 04 2013  11 18  -21.0972 26048.0 -03449.4 -07.5436 26275.4
 30 04 2013  11 19  -21.0978 26048.7 -03449.4 -07.5433 26276.1
 30 04 2013  11 20  -21.0992 26049.0 -03449.1 -07.5426 26276.3
 30 04 2013  11 21  -21.0998 26049.1 -03448.6 -07.5413 26276.3
 30 04 2013  11 22  -21.0996 26048.7 -03447.8 -07.5399 26275.9
 30 04 2013  11 23  -21.1002 26048.0 -03447.2 -07.5387 26275.1
 30 04 2013  11 24  -21.1013 26047.4 -03446.7 -07.5378 26274.5
 30 04 2013  11 25  -21.1026 26046.7 -03446.2 -07.5369 26273.7
 30 04 2013  11 26  -21.1039 26046.0 -03445.8 -07.5363 26272.9
 30 04 2013  11 27  -21.1053 26045.3 -03445.5 -07.5358 26272.2
 30 04 2013  11 28  -21.1067 26045.2 -03445.4 -07.5357 26272.1
 30 04 2013  11 29  -21.1082 26045.5 -03445.6 -07.5359 26272.5
 30 04 2013  11 30  -21.1100 26045.7 -03445.6 -07.5359 26272.6
 30 04 2013  11 31  -21.1118 26045.7 -03445.4 -07.5355 26272.6
 30 04 2013  11 32  -21.1132 26045.7 -03445.3 -07.5352 26272.6
 30 04 2013  11 33  -21.1142 26046.2 -03445.4 -07.5353 26273.1
 30 04 2013  11 34  -21.1152 26046.8 -03445.5 -07.5353 26273.7
 30 04 2013  11 35  -21.1158 26047.6 -03445.6 -07.5353 26274.5
 30 04 2013  11 36  -21.1160 26048.4 -03445.5 -07.5349 26275.2
 30 04 2013  11 37  -21.1155 26049.0 -03445.4 -07.5346 26275.9
 30 04 2013  11 38  -21.1147 26049.8 -03445.4 -07.5343 26276.7
 30 04 2013  11 39  -21.1141 26050.9 -03445.6 -07.5343 26277.8
 30 04 2013  11 40  -21.1137 26051.6 -03445.5 -07.5340 26278.5
 30 04 2013  11 41  -21.1131 26052.4 -03445.4 -07.5336 26279.3
 30 04 2013  11 42  -21.1128 26053.1 -03445.3 -07.5331 26279.9
 30 04 2013  11 43  -21.1125 26054.0 -03445.1 -07.5324 26280.7
 30 04 2013  11 44  -21.1120 26054.5 -03444.7 -07.5315 26281.2
 30 04 2013  11 45  -21.1118 26054.6 -03444.2 -07.5304 26281.3
 30 04 2013  11 46  -21.1117 26054.8 -03443.8 -07.5295 26281.4
 30 04 2013  11 47  -21.1120 26054.9 -03443.5 -07.5287 26281.5
 30 04 2013  11 48  -21.1123 26055.4 -03443.3 -07.5282 26282.0
 30 04 2013  11 49  -21.1126 26055.9 -03443.1 -07.5275 26282.4
 30 04 2013  11 50  -21.1129 26056.2 -03442.8 -07.5268 26282.7
 30 04 2013  11 51  -21.1132 26056.3 -03442.4 -07.5260 26282.7
 30 04 2013  11 52  -21.1134 26056.3 -03442.0 -07.5251 26282.7
 30 04 2013  11 53  -21.1135 26056.3 -03441.7 -07.5244 26282.6
 30 04 2013  11 54  -21.1134 26056.3 -03441.4 -07.5238 26282.6
 30 04 2013  11 55  -21.1135 26056.5 -03441.3 -07.5235 26282.8
 30 04 2013  11 56  -21.1142 26057.0 -03441.2 -07.5233 26283.2
 30 04 2013  11 57  -21.1180 26057.0 -03440.8 -07.5224 26283.2
 30 04 2013  11 58  -21.1180 26057.5 -03440.7 -07.5219 26283.6
 30 04 2013  11 59  -21.1179 26057.9 -03440.5 -07.5214 26284.1
 30 04 2013  12 00  -21.1175 26058.1 -03440.3 -07.5208 26284.3
 30 04 2013  12 01  -21.1169 26058.3 -03440.0 -07.5202 26284.4
 30 04 2013  12 02  -21.1166 26058.6 -03439.9 -07.5198 26284.7
 30 04 2013  12 03  -21.1165 26059.0 -03439.8 -07.5195 26285.0
 30 04 2013  12 04  -21.1165 26059.7 -03439.8 -07.5193 26285.7
 30 04 2013  12 05  -21.1165 26060.5 -03439.8 -07.5192 26286.5
 30 04 2013  12 06  -21.1164 26061.0 -03439.7 -07.5188 26287.0
 30 04 2013  12 07  -21.1161 26061.4 -03439.5 -07.5183 26287.4
 30 04 2013  12 08  -21.1155 26062.0 -03439.4 -07.5179 26287.9
 30 04 2013  12 09  -21.1151 26062.4 -03439.3 -07.5174 26288.4
 30 04 2013  12 10  -21.1149 26062.8 -03439.1 -07.5169 26288.7
 30 04 2013  12 11  -21.1148 26063.2 -03438.9 -07.5165 26289.1
 30 04 2013  12 12  -21.1147 26063.7 -03438.8 -07.5162 26289.6
 30 04 2013  12 13  -21.1148 26064.1 -03438.7 -07.5158 26290.0
 30 04 2013  12 14  -21.1147 26064.4 -03438.6 -07.5154 26290.3
 30 04 2013  12 15  -21.1147 26064.9 -03438.5 -07.5150 26290.7
 30 04 2013  12 16  -21.1145 26065.4 -03438.4 -07.5147 26291.2
 30 04 2013  12 17  -21.1145 26065.8 -03438.3 -07.5143 26291.6
 30 04 2013  12 18  -21.1143 26066.4 -03438.2 -07.5141 26292.1
 30 04 2013  12 19  -21.1143 26066.8 -03438.1 -07.5138 26292.6
 30 04 2013  12 20  -21.1144 26067.3 -03438.1 -07.5135 26293.0
 30 04 2013  12 21  -21.1145 26067.8 -03438.1 -07.5133 26293.6
 30 04 2013  12 22  -21.1144 26068.4 -03438.0 -07.5131 26294.1
 30 04 2013  12 23  -21.1142 26068.9 -03438.0 -07.5129 26294.7
 30 04 2013  12 24  -21.1140 26069.5 -03438.0 -07.5127 26295.2
 30 04 2013  12 25  -21.1138 26069.9 -03437.9 -07.5124 26295.7
 30 04 2013  12 26  -21.1137 26070.3 -03437.8 -07.5121 26296.0
 30 04 2013  12 27  -21.1136 26070.7 -03437.8 -07.5119 26296.4
 30 04 2013  12 28  -21.1137 26071.1 -03437.7 -07.5117 26296.8
 30 04 2013  12 29  -21.1137 26071.3 -03437.6 -07.5114 26297.0
 30 04 2013  12 30  -21.1142 26071.2 -03437.4 -07.5108 26296.8
 30 04 2013  12 31  -21.1129 26071.5 -03437.3 -07.5106 26297.2
 30 04 2013  12 32  -21.1103 26071.8 -03437.4 -07.5107 26297.5
 30 04 2013  12 33  -21.1108 26071.8 -03437.2 -07.5104 26297.4
 30 04 2013  12 34  -21.1110 26072.2 -03437.3 -07.5103 26297.8
 30 04 2013  12 35  -21.1112 26072.3 -03437.1 -07.5101 26297.8
 30 04 2013  12 36  -21.1111 26072.3 -03436.9 -07.5096 26297.8
 30 04 2013  12 37  -21.1110 26072.3 -03436.9 -07.5096 26297.8
 30 04 2013  12 38  -21.1112 26072.4 -03437.0 -07.5097 26298.0
 30 04 2013  12 39  -21.1117 26072.7 -03437.1 -07.5098 26298.2
 30 04 2013  12 40  -21.1122 26073.0 -03437.2 -07.5100 26298.6
 30 04 2013  12 41  -21.1124 26073.4 -03437.3 -07.5101 26299.0
 30 04 2013  12 42  -21.1124 26074.0 -03437.5 -07.5103 26299.6
 30 04 2013  12 43  -21.1126 26074.5 -03437.6 -07.5103 26300.1
 30 04 2013  12 44  -21.1128 26075.1 -03437.6 -07.5102 26300.7
 30 04 2013  12 45  -21.1131 26076.2 -03437.9 -07.5105 26301.9
 30 04 2013  12 46  -21.1132 26077.0 -03438.0 -07.5105 26302.7
 30 04 2013  12 47  -21.1132 26077.9 -03438.0 -07.5104 26303.5
 30 04 2013  12 48  -21.1131 26078.7 -03438.1 -07.5103 26304.4
 30 04 2013  12 49  -21.1132 26079.5 -03438.2 -07.5103 26305.2
 30 04 2013  12 50  -21.1136 26080.8 -03438.4 -07.5104 26306.4
 30 04 2013  12 51  -21.1145 26082.2 -03438.7 -07.5106 26307.9
 30 04 2013  12 52  -21.1152 26082.4 -03438.3 -07.5098 26308.1
 30 04 2013  12 53  -21.1149 26082.0 -03437.8 -07.5087 26307.6
 30 04 2013  12 54  -21.1147 26082.1 -03437.6 -07.5083 26307.6
 30 04 2013  12 55  -21.1154 26081.7 -03437.4 -07.5079 26307.3
 30 04 2013  12 56  -21.1157 26082.0 -03437.4 -07.5078 26307.5
 30 04 2013  12 57  -21.1156 26082.6 -03437.6 -07.5080 26308.1
 30 04 2013  12 58  -21.1162 26082.6 -03437.5 -07.5079 26308.2
 30 04 2013  12 59  -21.1158 26083.2 -03437.6 -07.5079 26308.7
 30 04 2013  13 00  -21.1150 26083.3 -03437.6 -07.5080 26308.8
 30 04 2013  13 01  -21.1143 26084.0 -03438.1 -07.5087 26309.6
 30 04 2013  13 02  -21.1154 26085.1 -03438.5 -07.5094 26310.7
 30 04 2013  13 03  -21.1167 26085.8 -03438.5 -07.5092 26311.5
 30 04 2013  13 04  -21.1167 26085.5 -03437.9 -07.5080 26311.0
 30 04 2013  13 05  -21.1161 26084.9 -03437.4 -07.5070 26310.4
 30 04 2013  13 06  -21.1171 26083.1 -03436.6 -07.5057 26308.5
 30 04 2013  13 07  -21.1168 26081.4 -03435.9 -07.5048 26306.8
 30 04 2013  13 08  -21.1167 26081.2 -03436.1 -07.5053 26306.5
 30 04 2013  13 09  -21.1177 26081.9 -03436.8 -07.5065 26307.4
 30 04 2013  13 10  -21.1185 26083.3 -03437.6 -07.5078 26308.9
 30 04 2013  13 11  -21.1170 26085.2 -03438.3 -07.5090 26310.8
 30 04 2013  13 12  -21.1173 26087.9 -03439.6 -07.5109 26313.7
 30 04 2013  13 13  -21.1187 26089.6 -03440.1 -07.5115 26315.5
 30 04 2013  13 14  -21.1187 26090.9 -03440.2 -07.5113 26316.7
 30 04 2013  13 15  -21.1193 26091.6 -03440.0 -07.5108 26317.4
 30 04 2013  13 16  -21.1191 26091.2 -03439.4 -07.5095 26316.9
 30 04 2013  13 17  -21.1187 26090.6 -03438.8 -07.5084 26316.3
 30 04 2013  13 18  -21.1186 26090.3 -03438.4 -07.5077 26315.9
 30 04 2013  13 19  -21.1192 26090.3 -03438.3 -07.5074 26315.8
 30 04 2013  13 20  -21.1200 26089.7 -03437.8 -07.5066 26315.2
 30 04 2013  13 21  -21.1198 26089.4 -03437.5 -07.5060 26314.8
 30 04 2013  13 22  -21.1197 26089.4 -03437.4 -07.5058 26314.9
 30 04 2013  13 23  -21.1201 26089.7 -03437.5 -07.5059 26315.2
 30 04 2013  13 24  -21.1210 26089.8 -03437.5 -07.5058 26315.2
 30 04 2013  13 25  -21.1216 26089.4 -03437.2 -07.5053 26314.8
 30 04 2013  13 26  -21.1215 26089.3 -03437.0 -07.5049 26314.7
 30 04 2013  13 27  -21.1218 26089.1 -03436.8 -07.5046 26314.5
 30 04 2013  13 28  -21.1218 26089.4 -03436.9 -07.5048 26314.8
 30 04 2013  13 29  -21.1225 26089.5 -03436.9 -07.5047 26314.9
 30 04 2013  13 30  -21.1225 26089.5 -03436.8 -07.5044 26314.9
 30 04 2013  13 31  -21.1224 26090.5 -03437.2 -07.5049 26315.9
 30 04 2013  13 32  -21.1226 26091.5 -03437.5 -07.5055 26316.9
 30 04 2013  13 33  -21.1228 26092.1 -03437.7 -07.5055 26317.6
 30 04 2013  13 34  -21.1229 26092.9 -03437.8 -07.5056 26318.3
 30 04 2013  13 35  -21.1233 26093.5 -03437.9 -07.5056 26319.0
 30 04 2013  13 36  -21.1240 26094.2 -03437.9 -07.5054 26319.7
 30 04 2013  13 37  -21.1251 26094.1 -03437.4 -07.5045 26319.5
 30 04 2013  13 38  -21.1257 26094.2 -03437.0 -07.5036 26319.6
 30 04 2013  13 39  -21.1264 26093.7 -03436.4 -07.5024 26319.0
 30 04 2013  13 40  -21.1267 26093.2 -03435.9 -07.5014 26318.4
 30 04 2013  13 41  -21.1276 26091.0 -03434.8 -07.4997 26316.1
 30 04 2013  13 42  -21.1272 26089.2 -03433.9 -07.4983 26314.2
 30 04 2013  13 43  -21.1268 26087.5 -03433.4 -07.4976 26312.5
 30 04 2013  13 44  -21.1254 26088.1 -03434.0 -07.4989 26313.1
 30 04 2013  13 45  -21.1258 26090.0 -03435.3 -07.5011 26315.2
 30 04 2013  13 46  -21.1266 26092.2 -03436.5 -07.5030 26317.6
 30 04 2013  13 47  -21.1273 26094.9 -03437.6 -07.5046 26320.4
 30 04 2013  13 48  -21.1277 26097.1 -03438.2 -07.5052 26322.6
 30 04 2013  13 49  -21.1276 26098.7 -03438.3 -07.5051 26324.2
 30 04 2013  13 50  -21.1272 26099.0 -03437.9 -07.5040 26324.4
 30 04 2013  13 51  -21.1268 26098.6 -03437.2 -07.5028 26323.9
 30 04 2013  13 52  -21.1270 26097.5 -03436.4 -07.5013 26322.7
 30 04 2013  13 53  -21.1272 26095.7 -03435.4 -07.4997 26320.9
 30 04 2013  13 54  -21.1264 26094.5 -03434.8 -07.4986 26319.6
 30 04 2013  13 55  -21.1264 26094.2 -03434.7 -07.4986 26319.2
 30 04 2013  13 56  -21.1262 26094.6 -03435.1 -07.4993 26319.7
 30 04 2013  13 57  -21.1261 26096.7 -03436.2 -07.5010 26321.9
 30 04 2013  13 58  -21.1268 26096.7 -03436.2 -07.5011 26322.0
 30 04 2013  13 59  -21.1249 26099.0 -03437.0 -07.5022 26324.4
 30 04 2013  14 00  -21.1264 26102.5 -03438.6 -07.5046 26328.0
 30 04 2013  14 01  -21.1273 26104.5 -03439.0 -07.5050 26330.0
 30 04 2013  14 02  -21.1275 26106.4 -03439.3 -07.5049 26332.0
 30 04 2013  14 03  -21.1284 26107.1 -03438.9 -07.5039 26332.6
 30 04 2013  14 04  -21.1287 26105.6 -03437.5 -07.5013 26330.9
 30 04 2013  14 05  -21.1281 26104.1 -03436.2 -07.4990 26329.3
 30 04 2013  14 06  -21.1280 26103.5 -03435.6 -07.4978 26328.6
 30 04 2013  14 07  -21.1305 26102.7 -03435.0 -07.4968 26327.8
 30 04 2013  14 08  -21.1322 26099.4 -03433.2 -07.4937 26324.3
 30 04 2013  14 09  -21.1312 26095.7 -03431.3 -07.4909 26320.3
 30 04 2013  14 10  -21.1308 26093.5 -03430.6 -07.4900 26318.1
 30 04 2013  14 11  -21.1317 26092.6 -03430.7 -07.4904 26317.1
 30 04 2013  14 12  -21.1324 26091.9 -03430.8 -07.4908 26316.5
 30 04 2013  14 13  -21.1331 26091.1 -03430.7 -07.4908 26315.7
 30 04 2013  14 14  -21.1333 26091.4 -03431.1 -07.4915 26316.0
 30 04 2013  14 15  -21.1339 26092.0 -03431.5 -07.4923 26316.7
 30 04 2013  14 16  -21.1347 26092.3 -03431.6 -07.4925 26317.0
 30 04 2013  14 17  -21.1354 26092.6 -03431.7 -07.4925 26317.3
 30 04 2013  14 18  -21.1355 26092.5 -03431.4 -07.4920 26317.2
 30 04 2013  14 19  -21.1354 26092.2 -03431.1 -07.4914 26316.8
 30 04 2013  14 20  -21.1356 26091.6 -03430.8 -07.4908 26316.2
 30 04 2013  14 21  -21.1355 26090.5 -03430.3 -07.4900 26315.1
 30 04 2013  14 22  -21.1355 26089.9 -03430.1 -07.4897 26314.4
 30 04 2013  14 23  -21.1359 26090.0 -03430.2 -07.4900 26314.5
 30 04 2013  14 24  -21.1363 26090.2 -03430.4 -07.4903 26314.8
 30 04 2013  14 25  -21.1370 26090.7 -03430.6 -07.4906 26315.3
 30 04 2013  14 26  -21.1372 26091.2 -03430.7 -07.4908 26315.8
 30 04 2013  14 27  -21.1371 26092.3 -03431.1 -07.4913 26316.9
 30 04 2013  14 28  -21.1373 26093.8 -03431.6 -07.4920 26318.5
 30 04 2013  14 29  -21.1378 26096.0 -03432.3 -07.4930 26320.7
 30 04 2013  14 30  -21.1380 26097.1 -03432.4 -07.4928 26321.8
 30 04 2013  14 31  -21.1377 26097.3 -03432.1 -07.4920 26322.1
 30 04 2013  14 32  -21.1373 26097.4 -03431.8 -07.4913 26322.1
 30 04 2013  14 33  -21.1374 26097.3 -03431.4 -07.4906 26321.9
 30 04 2013  14 34  -21.1372 26096.6 -03430.9 -07.4897 26321.2
 30 04 2013  14 35  -21.1367 26096.4 -03430.7 -07.4892 26320.9
 30 04 2013  14 36  -21.1365 26095.7 -03430.4 -07.4887 26320.2
 30 04 2013  14 37  -21.1362 26095.1 -03430.1 -07.4884 26319.5
 30 04 2013  14 38  -21.1361 26094.9 -03430.1 -07.4885 26319.4
 30 04 2013  14 39  -21.1363 26095.1 -03430.3 -07.4889 26319.6
 30 04 2013  14 40  -21.1367 26095.5 -03430.5 -07.4892 26320.0
 30 04 2013  14 41  -21.1366 26095.9 -03430.7 -07.4894 26320.4
 30 04 2013  14 42  -21.1364 26096.1 -03430.8 -07.4895 26320.6
 30 04 2013  14 43  -21.1363 26096.0 -03430.7 -07.4893 26320.6
 30 04 2013  14 44  -21.1362 26096.0 -03430.6 -07.4892 26320.6
 30 04 2013  14 45  -21.1362 26095.7 -03430.4 -07.4889 26320.2
 30 04 2013  14 46  -21.1361 26095.9 -03430.5 -07.4890 26320.5
 30 04 2013  14 47  -21.1366 26096.3 -03430.7 -07.4892 26320.9
 30 04 2013  14 48  -21.1374 26096.0 -03430.4 -07.4888 26320.6
 30 04 2013  14 49  -21.1372 26096.3 -03430.4 -07.4887 26320.8
 30 04 2013  14 50  -21.1374 26096.4 -03430.4 -07.4887 26320.9
 30 04 2013  14 51  -21.1378 26096.1 -03430.2 -07.4883 26320.5
 30 04 2013  14 52  -21.1376 26096.5 -03430.3 -07.4884 26321.0
 30 04 2013  14 53  -21.1375 26097.0 -03430.5 -07.4886 26321.5
 30 04 2013  14 54  -21.1381 26097.2 -03430.5 -07.4886 26321.7
 30 04 2013  14 55  -21.1382 26097.3 -03430.4 -07.4884 26321.8
 30 04 2013  14 56  -21.1378 26097.4 -03430.3 -07.4882 26321.9
 30 04 2013  14 57  -21.1381 26097.1 -03430.1 -07.4878 26321.6
 30 04 2013  14 58  -21.1383 26097.2 -03430.1 -07.4877 26321.7
 30 04 2013  14 59  -21.1388 26096.7 -03429.7 -07.4871 26321.1
 30 04 2013  15 00  -21.1389 26095.8 -03429.3 -07.4864 26320.2
 30 04 2013  15 01  -21.1389 26094.7 -03428.8 -07.4856 26319.0
 30 04 2013  15 02  -21.1389 26094.2 -03428.7 -07.4856 26318.5
 30 04 2013  15 03  -21.1398 26094.1 -03428.8 -07.4859 26318.4
 30 04 2013  15 04  -21.1401 26094.4 -03429.1 -07.4863 26318.8
 30 04 2013  15 05  -21.1410 26094.4 -03429.0 -07.4863 26318.7
 30 04 2013  15 06  -21.1417 26094.8 -03429.1 -07.4864 26319.1
 30 04 2013  15 07  -21.1424 26094.7 -03429.0 -07.4861 26319.1
 30 04 2013  15 08  -21.1421 26094.3 -03428.6 -07.4854 26318.6
 30 04 2013  15 09  -21.1423 26094.0 -03428.5 -07.4852 26318.3
 30 04 2013  15 10  -21.1424 26093.7 -03428.3 -07.4849 26317.9
 30 04 2013  15 11  -21.1423 26093.2 -03428.1 -07.4847 26317.5
 30 04 2013  15 12  -21.1421 26093.7 -03428.4 -07.4851 26317.9
 30 04 2013  15 13  -21.1426 26094.4 -03428.8 -07.4858 26318.7
 30 04 2013  15 14  -21.1436 26095.5 -03429.2 -07.4864 26319.8
 30 04 2013  15 15  -21.1443 26096.6 -03429.4 -07.4865 26320.9
 30 04 2013  15 16  -21.1445 26097.3 -03429.4 -07.4863 26321.7
 30 04 2013  15 17  -21.1448 26097.9 -03429.3 -07.4859 26322.3
 30 04 2013  15 18  -21.1455 26097.0 -03428.5 -07.4844 26321.2
 30 04 2013  15 19  -21.1450 26095.0 -03427.4 -07.4825 26319.1
 30 04 2013  15 20  -21.1437 26093.6 -03426.7 -07.4814 26317.6
 30 04 2013  15 21  -21.1442 26093.5 -03426.9 -07.4819 26317.6
 30 04 2013  15 22  -21.1450 26093.4 -03427.0 -07.4821 26317.4
 30 04 2013  15 23  -21.1454 26093.1 -03426.9 -07.4820 26317.1
 30 04 2013  15 24  -21.1454 26092.8 -03426.7 -07.4816 26316.8
 30 04 2013  15 25  -21.1451 26092.5 -03426.5 -07.4813 26316.5
 30 04 2013  15 26  -21.1447 26092.0 -03426.3 -07.4809 26316.0
 30 04 2013  15 27  -21.1442 26091.9 -03426.2 -07.4808 26315.9
 30 04 2013  15 28  -21.1439 26092.4 -03426.4 -07.4811 26316.4
 30 04 2013  15 29  -21.1442 26092.5 -03426.4 -07.4811 26316.5
 30 04 2013  15 30  -21.1438 26091.9 -03426.0 -07.4804 26315.8
 30 04 2013  15 31  -21.1433 26091.5 -03425.8 -07.4802 26315.5
 30 04 2013  15 32  -21.1435 26091.5 -03425.8 -07.4802 26315.4
 30 04 2013  15 33  -21.1439 26091.6 -03425.9 -07.4802 26315.5
 30 04 2013  15 34  -21.1440 26091.9 -03425.9 -07.4803 26315.8
 30 04 2013  15 35  -21.1437 26091.9 -03425.9 -07.4801 26315.9
 30 04 2013  15 36  -21.1433 26092.7 -03426.1 -07.4804 26316.7
 30 04 2013  15 37  -21.1444 26093.5 -03426.3 -07.4807 26317.4
 30 04 2013  15 38  -21.1445 26093.1 -03425.8 -07.4797 26317.0
 30 04 2013  15 39  -21.1441 26093.1 -03425.6 -07.4792 26317.0
 30 04 2013  15 40  -21.1433 26092.8 -03425.4 -07.4788 26316.6
 30 04 2013  15 41  -21.1431 26093.0 -03425.4 -07.4788 26316.9
 30 04 2013  15 42  -21.1433 26093.3 -03425.5 -07.4788 26317.2
 30 04 2013  15 43  -21.1434 26092.9 -03425.2 -07.4783 26316.8
 30 04 2013  15 44  -21.1430 26093.1 -03425.1 -07.4782 26317.0
 30 04 2013  15 45  -21.1429 26093.8 -03425.4 -07.4785 26317.7
 30 04 2013  15 46  -21.1433 26094.6 -03425.6 -07.4788 26318.5
 30 04 2013  15 47  -21.1434 26095.2 -03425.7 -07.4788 26319.1
 30 04 2013  15 48  -21.1434 26095.7 -03425.7 -07.4787 26319.6
 30 04 2013  15 49  -21.1429 26095.9 -03425.6 -07.4785 26319.8
 30 04 2013  15 50  -21.1423 26096.6 -03425.7 -07.4785 26320.5
 30 04 2013  15 51  -21.1420 26096.9 -03425.8 -07.4785 26320.8
 30 04 2013  15 52  -21.1414 26097.2 -03425.8 -07.4785 26321.1
 30 04 2013  15 53  -21.1416 26098.4 -03426.2 -07.4791 26322.4
 30 04 2013  15 54  -21.1437 26098.4 -03425.9 -07.4784 26322.3
 30 04 2013  15 55  -21.1446 26096.6 -03424.7 -07.4762 26320.3
 30 04 2013  15 56  -21.1429 26093.8 -03423.2 -07.4739 26317.4
 30 04 2013  15 57  -21.1421 26092.1 -03422.7 -07.4732 26315.6
 30 04 2013  15 58  -21.1429 26091.0 -03422.6 -07.4733 26314.5
 30 04 2013  15 59  -21.1437 26090.7 -03422.8 -07.4737 26314.2
 30 04 2013  16 00  -21.1443 26090.3 -03422.8 -07.4740 26313.9
 30 04 2013  16 01  -21.1445 26090.6 -03423.0 -07.4743 26314.2
 30 04 2013  16 02  -21.1441 26090.9 -03423.2 -07.4747 26314.5
 30 04 2013  16 03  -21.1438 26090.7 -03423.1 -07.4746 26314.3
 30 04 2013  16 04  -21.1437 26091.1 -03423.3 -07.4748 26314.7
 30 04 2013  16 05  -21.1434 26091.2 -03423.3 -07.4748 26314.9
 30 04 2013  16 06  -21.1428 26091.4 -03423.3 -07.4748 26315.0
 30 04 2013  16 07  -21.1424 26091.8 -03423.4 -07.4748 26315.5
 30 04 2013  16 08  -21.1424 26092.8 -03423.7 -07.4753 26316.5
 30 04 2013  16 09  -21.1431 26094.0 -03424.1 -07.4758 26317.7
 30 04 2013  16 10  -21.1436 26094.8 -03424.2 -07.4757 26318.5
 30 04 2013  16 11  -21.1443 26095.3 -03424.1 -07.4754 26319.0
 30 04 2013  16 12  -21.1427 26095.9 -03424.1 -07.4751 26319.6
 30 04 2013  16 13  -21.1434 26096.8 -03424.3 -07.4754 26320.5
 30 04 2013  16 14  -21.1441 26097.6 -03424.4 -07.4754 26321.4
 30 04 2013  16 15  -21.1443 26098.5 -03424.4 -07.4751 26322.2
 30 04 2013  16 16  -21.1446 26099.0 -03424.2 -07.4746 26322.7
 30 04 2013  16 17  -21.1443 26099.4 -03424.0 -07.4741 26323.0
 30 04 2013  16 18  -21.1442 26099.5 -03423.7 -07.4734 26323.1
 30 04 2013  16 19  -21.1433 26099.0 -03423.3 -07.4725 26322.5
 30 04 2013  16 20  -21.1426 26098.5 -03422.9 -07.4719 26322.0
 30 04 2013  16 21  -21.1423 26098.7 -03423.0 -07.4720 26322.2
 30 04 2013  16 22  -21.1419 26098.4 -03422.9 -07.4718 26321.9
 30 04 2013  16 23  -21.1412 26097.8 -03422.6 -07.4714 26321.3
 30 04 2013  16 24  -21.1408 26097.2 -03422.4 -07.4712 26320.7
 30 04 2013  16 25  -21.1400 26096.6 -03422.3 -07.4711 26320.1
 30 04 2013  16 26  -21.1396 26096.2 -03422.3 -07.4712 26319.7
 30 04 2013  16 27  -21.1392 26095.6 -03422.2 -07.4711 26319.0
 30 04 2013  16 28  -21.1385 26095.0 -03422.1 -07.4712 26318.4
 30 04 2013  16 29  -21.1384 26094.6 -03422.2 -07.4715 26318.1
 30 04 2013  16 30  -21.1382 26094.2 -03422.3 -07.4718 26317.7
 30 04 2013  16 31  -21.1383 26094.4 -03422.6 -07.4723 26317.9
 30 04 2013  16 32  -21.1393 26093.5 -03422.2 -07.4719 26316.9
 30 04 2013  16 33  -21.1385 26091.2 -03421.3 -07.4704 26314.5
 30 04 2013  16 34  -21.1369 26089.3 -03420.7 -07.4697 26312.6
 30 04 2013  16 35  -21.1356 26089.2 -03421.2 -07.4708 26312.6
 30 04 2013  16 36  -21.1363 26089.1 -03421.7 -07.4719 26312.5
 30 04 2013  16 37  -21.1362 26089.1 -03422.0 -07.4727 26312.6
 30 04 2013  16 38  -21.1355 26088.9 -03422.2 -07.4731 26312.4
 30 04 2013  16 39  -21.1345 26088.8 -03422.4 -07.4736 26312.4
 30 04 2013  16 40  -21.1342 26089.1 -03422.8 -07.4744 26312.7
 30 04 2013  16 41  -21.1350 26089.4 -03423.2 -07.4751 26313.0
 30 04 2013  16 42  -21.1352 26089.3 -03423.3 -07.4752 26312.9
 30 04 2013  16 43  -21.1347 26089.2 -03423.2 -07.4752 26312.8
 30 04 2013  16 44  -21.1334 26088.9 -03423.2 -07.4752 26312.6
 30 04 2013  16 45  -21.1327 26088.8 -03423.3 -07.4755 26312.5
 30 04 2013  16 46  -21.1325 26089.0 -03423.6 -07.4760 26312.7
 30 04 2013  16 47  -21.1320 26089.0 -03423.7 -07.4762 26312.7
 30 04 2013  16 48  -21.1314 26088.7 -03423.6 -07.4762 26312.4
 30 04 2013  16 49  -21.1308 26088.1 -03423.5 -07.4761 26311.8
 30 04 2013  16 50  -21.1304 26087.2 -03423.3 -07.4759 26310.8
 30 04 2013  16 51  -21.1295 26086.1 -03423.0 -07.4756 26309.7
 30 04 2013  16 52  -21.1284 26085.9 -03423.3 -07.4762 26309.6
 30 04 2013  16 53  -21.1281 26085.7 -03423.5 -07.4767 26309.4
 30 04 2013  16 54  -21.1278 26085.5 -03423.6 -07.4771 26309.2
 30 04 2013  16 55  -21.1271 26085.5 -03423.8 -07.4775 26309.2
 30 04 2013  16 56  -21.1270 26085.7 -03424.0 -07.4780 26309.4
 30 04 2013  16 57  -21.1272 26085.7 -03424.2 -07.4782 26309.5
 30 04 2013  16 58  -21.1269 26085.3 -03424.0 -07.4779 26309.1
 30 04 2013  16 59  -21.1262 26084.9 -03423.8 -07.4776 26308.6
 30 04 2013  17 00  -21.1258 26084.3 -03423.6 -07.4775 26308.0
 30 04 2013  17 01  -21.1254 26083.6 -03423.5 -07.4773 26307.4
 30 04 2013  17 02  -21.1248 26083.0 -03423.3 -07.4772 26306.7
 30 04 2013  17 03  -21.1243 26082.5 -03423.3 -07.4772 26306.2
 30 04 2013  17 04  -21.1239 26082.2 -03423.3 -07.4773 26305.9
 30 04 2013  17 05  -21.1238 26081.9 -03423.3 -07.4775 26305.6
 30 04 2013  17 06  -21.1237 26081.3 -03423.2 -07.4773 26305.0
 30 04 2013  17 07  -21.1226 26080.8 -03423.0 -07.4771 26304.4
 30 04 2013  17 08  -21.1220 26080.4 -03423.0 -07.4772 26304.0
 30 04 2013  17 09  -21.1217 26079.9 -03423.0 -07.4773 26303.5
 30 04 2013  17 10  -21.1211 26079.5 -03423.0 -07.4774 26303.1
 30 04 2013  17 11  -21.1209 26079.3 -03423.1 -07.4777 26303.0
 30 04 2013  17 12  -21.1205 26079.3 -03423.3 -07.4782 26303.0
 30 04 2013  17 13  -21.1208 26079.7 -03423.6 -07.4788 26303.4
 30 04 2013  17 14  -21.1207 26079.8 -03423.8 -07.4791 26303.6
 30 04 2013  17 15  -21.1205 26079.9 -03423.9 -07.4793 26303.7
 30 04 2013  17 16  -21.1205 26080.0 -03424.0 -07.4795 26303.8
 30 04 2013  17 17  -21.1202 26079.9 -03424.0 -07.4796 26303.7
 30 04 2013  17 18  -21.1202 26079.8 -03424.1 -07.4797 26303.7
 30 04 2013  17 19  -21.1199 26079.5 -03424.0 -07.4797 26303.4
 30 04 2013  17 20  -21.1196 26079.1 -03423.9 -07.4796 26302.9
 30 04 2013  17 21  -21.1193 26078.7 -03423.9 -07.4796 26302.5
 30 04 2013  17 22  -21.1193 26078.4 -03423.9 -07.4798 26302.2
 30 04 2013  17 23  -21.1195 26078.0 -03423.9 -07.4799 26301.8
 30 04 2013  17 24  -21.1193 26077.4 -03423.8 -07.4797 26301.2
 30 04 2013  17 25  -21.1189 26076.7 -03423.6 -07.4795 26300.4
 30 04 2013  17 26  -21.1183 26075.9 -03423.4 -07.4794 26299.7
 30 04 2013  17 27  -21.1179 26075.5 -03423.5 -07.4796 26299.2
 30 04 2013  17 28  -21.1178 26075.0 -03423.5 -07.4798 26298.8
 30 04 2013  17 29  -21.1166 26074.8 -03423.7 -07.4802 26298.6
 30 04 2013  17 30  -21.1157 26074.8 -03423.9 -07.4808 26298.6
 30 04 2013  17 31  -21.1154 26075.3 -03424.4 -07.4817 26299.2
 30 04 2013  17 32  -21.1155 26075.8 -03424.9 -07.4825 26299.8
 30 04 2013  17 33  -21.1153 26075.8 -03425.0 -07.4827 26299.8
 30 04 2013  17 34  -21.1149 26075.9 -03425.1 -07.4829 26299.9
 30 04 2013  17 35  -21.1146 26076.0 -03425.2 -07.4831 26300.0
 30 04 2013  17 36  -21.1144 26076.0 -03425.3 -07.4833 26300.0
 30 04 2013  17 37  -21.1140 26075.8 -03425.3 -07.4835 26299.8
 30 04 2013  17 38  -21.1135 26075.6 -03425.3 -07.4836 26299.6
 30 04 2013  17 39  -21.1131 26075.3 -03425.4 -07.4838 26299.4
 30 04 2013  17 40  -21.1126 26075.2 -03425.4 -07.4839 26299.2
 30 04 2013  17 41  -21.1121 26074.8 -03425.4 -07.4840 26298.8
 30 04 2013  17 42  -21.1116 26074.4 -03425.4 -07.4840 26298.4
 30 04 2013  17 43  -21.1112 26074.3 -03425.5 -07.4843 26298.3
 30 04 2013  17 44  -21.1110 26074.1 -03425.6 -07.4846 26298.1
 30 04 2013  17 45  -21.1106 26073.8 -03425.6 -07.4847 26297.9
 30 04 2013  17 46  -21.1105 26073.5 -03425.6 -07.4848 26297.6
 30 04 2013  17 47  -21.1105 26073.3 -03425.6 -07.4849 26297.3
 30 04 2013  17 48  -21.1102 26072.8 -03425.5 -07.4847 26296.9
 30 04 2013  17 49  -21.1097 26072.3 -03425.3 -07.4845 26296.3
 30 04 2013  17 50  -21.1091 26071.5 -03425.1 -07.4843 26295.5
 30 04 2013  17 51  -21.1085 26070.9 -03425.0 -07.4843 26294.9
 30 04 2013  17 52  -21.1080 26070.4 -03425.0 -07.4844 26294.4
 30 04 2013  17 53  -21.1076 26070.0 -03425.0 -07.4845 26294.0
 30 04 2013  17 54  -21.1072 26069.7 -03425.1 -07.4847 26293.7
 30 04 2013  17 55  -21.1067 26069.3 -03425.1 -07.4849 26293.3
 30 04 2013  17 56  -21.1062 26069.1 -03425.2 -07.4852 26293.2
 30 04 2013  17 57  -21.1057 26069.1 -03425.4 -07.4855 26293.1
 30 04 2013  17 58  -21.1054 26069.1 -03425.5 -07.4858 26293.2
 30 04 2013  17 59  -21.1052 26069.3 -03425.6 -07.4860 26293.4
 30 04 2013  18 00  -21.1051 26069.4 -03425.8 -07.4863 26293.5
 30 04 2013  18 01  -21.1052 26069.0 -03425.6 -07.4861 26293.1
 30 04 2013  18 02  -21.1050 26068.8 -03425.5 -07.4860 26292.9
 30 04 2013  18 03  -21.1050 26068.8 -03425.6 -07.4861 26292.9
 30 04 2013  18 04  -21.1049 26068.6 -03425.5 -07.4860 26292.7
 30 04 2013  18 05  -21.1048 26068.3 -03425.4 -07.4859 26292.4
 30 04 2013  18 06  -21.1043 26067.9 -03425.3 -07.4858 26292.0
 30 04 2013  18 07  -21.1039 26067.7 -03425.3 -07.4858 26291.8
 30 04 2013  18 08  -21.1036 26067.4 -03425.3 -07.4859 26291.5
 30 04 2013  18 09  -21.1031 26067.2 -03425.3 -07.4860 26291.3
 30 04 2013  18 10  -21.1027 26066.9 -03425.3 -07.4860 26291.0
 30 04 2013  18 11  -21.1022 26066.8 -03425.3 -07.4861 26290.8
 30 04 2013  18 12  -21.1020 26066.5 -03425.3 -07.4861 26290.6
 30 04 2013  18 13  -21.1016 26066.1 -03425.2 -07.4861 26290.2
 30 04 2013  18 14  -21.1012 26065.7 -03425.2 -07.4861 26289.8
 30 04 2013  18 15  -21.1008 26065.2 -03425.0 -07.4859 26289.3
 30 04 2013  18 16  -21.1001 26064.6 -03424.9 -07.4858 26288.7
 30 04 2013  18 17  -21.0997 26064.2 -03424.9 -07.4860 26288.3
 30 04 2013  18 18  -21.0994 26064.1 -03425.1 -07.4863 26288.1
 30 04 2013  18 19  -21.0994 26064.0 -03425.2 -07.4866 26288.1
 30 04 2013  18 20  -21.0992 26063.9 -03425.3 -07.4868 26288.0
 30 04 2013  18 21  -21.0992 26063.8 -03425.3 -07.4869 26287.9
 30 04 2013  18 22  -21.0984 26063.7 -03425.3 -07.4870 26287.8
 30 04 2013  18 23  -21.0983 26063.3 -03425.2 -07.4869 26287.4
 30 04 2013  18 24  -21.0979 26062.8 -03425.1 -07.4867 26286.9
 30 04 2013  18 25  -21.0974 26062.4 -03425.0 -07.4866 26286.5
 30 04 2013  18 26  -21.0968 26061.9 -03424.9 -07.4866 26286.0
 30 04 2013  18 27  -21.0964 26061.4 -03424.9 -07.4866 26285.5
 30 04 2013  18 28  -21.0958 26061.0 -03424.9 -07.4868 26285.1
 30 04 2013  18 29  -21.0951 26060.6 -03425.0 -07.4870 26284.7
 30 04 2013  18 30  -21.0945 26060.3 -03425.1 -07.4873 26284.5
 30 04 2013  18 31  -21.0943 26060.3 -03425.2 -07.4877 26284.4
 30 04 2013  18 32  -21.0939 26060.2 -03425.3 -07.4880 26284.3
 30 04 2013  18 33  -21.0934 26060.1 -03425.5 -07.4883 26284.2
 30 04 2013  18 34  -21.0933 26060.1 -03425.6 -07.4886 26284.3
 30 04 2013  18 35  -21.0933 26060.0 -03425.7 -07.4889 26284.2
 30 04 2013  18 36  -21.0930 26060.0 -03425.8 -07.4890 26284.2
 30 04 2013  18 37  -21.0930 26060.0 -03425.9 -07.4892 26284.2
 30 04 2013  18 38  -21.0929 26059.7 -03425.8 -07.4892 26283.9
 30 04 2013  18 39  -21.0927 26059.4 -03425.8 -07.4892 26283.6
 30 04 2013  18 40  -21.0926 26059.1 -03425.8 -07.4893 26283.3
 30 04 2013  18 41  -21.0924 26059.0 -03425.9 -07.4895 26283.2
 30 04 2013  18 42  -21.0923 26058.9 -03425.9 -07.4897 26283.1
 30 04 2013  18 43  -21.0924 26058.8 -03426.1 -07.4900 26283.1
 30 04 2013  18 44  -21.0927 26058.9 -03426.2 -07.4902 26283.2
 30 04 2013  18 45  -21.0930 26058.7 -03426.3 -07.4904 26283.0
 30 04 2013  18 46  -21.0929 26058.7 -03426.3 -07.4905 26282.9
 30 04 2013  18 47  -21.0928 26058.6 -03426.4 -07.4907 26282.9
 30 04 2013  18 48  -21.0925 26058.3 -03426.3 -07.4906 26282.6
 30 04 2013  18 49  -21.0922 26058.1 -03426.4 -07.4908 26282.4
 30 04 2013  18 50  -21.0916 26057.7 -03426.3 -07.4908 26282.0
 30 04 2013  18 51  -21.0912 26057.3 -03426.3 -07.4909 26281.6
 30 04 2013  18 52  -21.0910 26057.2 -03426.4 -07.4912 26281.5
 30 04 2013  18 53  -21.0908 26056.9 -03426.5 -07.4915 26281.2
 30 04 2013  18 54  -21.0905 26056.7 -03426.6 -07.4918 26281.1
 30 04 2013  18 55  -21.0903 26056.6 -03426.8 -07.4921 26280.9
 30 04 2013  18 56  -21.0903 26056.6 -03426.9 -07.4924 26281.0
 30 04 2013  18 57  -21.0902 26056.5 -03427.1 -07.4928 26280.9
 30 04 2013  18 58  -21.0904 26056.4 -03427.2 -07.4930 26280.8
 30 04 2013  18 59  -21.0906 26056.2 -03427.2 -07.4932 26280.7
 30 04 2013  19 00  -21.0903 26056.0 -03427.3 -07.4934 26280.4
 30 04 2013  19 01  -21.0901 26055.9 -03427.4 -07.4937 26280.4
 30 04 2013  19 02  -21.0901 26055.9 -03427.6 -07.4940 26280.3
 30 04 2013  19 03  -21.0901 26055.7 -03427.6 -07.4942 26280.2
 30 04 2013  19 04  -21.0899 26055.5 -03427.6 -07.4943 26280.0
 30 04 2013  19 05  -21.0895 26055.3 -03427.6 -07.4944 26279.7
 30 04 2013  19 06  -21.0892 26055.0 -03427.7 -07.4945 26279.5
 30 04 2013  19 07  -21.0887 26054.7 -03427.6 -07.4945 26279.2
 30 04 2013  19 08  -21.0882 26054.4 -03427.6 -07.4945 26278.9
 30 04 2013  19 09  -21.0877 26054.1 -03427.5 -07.4944 26278.6
 30 04 2013  19 10  -21.0872 26053.9 -03427.5 -07.4945 26278.4
 30 04 2013  19 11  -21.0867 26053.5 -03427.5 -07.4945 26278.0
 30 04 2013  19 12  -21.0863 26053.2 -03427.4 -07.4944 26277.7
 30 04 2013  19 13  -21.0858 26053.0 -03427.4 -07.4945 26277.4
 30 04 2013  19 14  -21.0853 26052.7 -03427.3 -07.4945 26277.1
 30 04 2013  19 15  -21.0849 26052.2 -03427.2 -07.4944 26276.7
 30 04 2013  19 16  -21.0847 26051.9 -03427.1 -07.4943 26276.3
 30 04 2013  19 17  -21.0844 26051.5 -03427.1 -07.4942 26275.9
 30 04 2013  19 18  -21.0841 26051.1 -03426.9 -07.4941 26275.5
 30 04 2013  19 19  -21.0837 26050.7 -03426.9 -07.4941 26275.1
 30 04 2013  19 20  -21.0833 26050.4 -03426.9 -07.4941 26274.8
 30 04 2013  19 21  -21.0830 26050.0 -03426.8 -07.4941 26274.5
 30 04 2013  19 22  -21.0828 26049.6 -03426.7 -07.4940 26274.0
 30 04 2013  19 23  -21.0827 26049.3 -03426.7 -07.4940 26273.7
 30 04 2013  19 24  -21.0825 26049.1 -03426.7 -07.4941 26273.5
 30 04 2013  19 25  -21.0827 26049.1 -03426.9 -07.4945 26273.6
 30 04 2013  19 26  -21.0832 26048.9 -03426.9 -07.4946 26273.3
 30 04 2013  19 27  -21.0831 26048.8 -03426.9 -07.4947 26273.2
 30 04 2013  19 28  -21.0829 26048.7 -03427.0 -07.4948 26273.1
 30 04 2013  19 29  -21.0822 26048.3 -03426.8 -07.4946 26272.7
 30 04 2013  19 30  -21.0818 26048.3 -03426.9 -07.4947 26272.8
 30 04 2013  19 31  -21.0816 26047.9 -03426.8 -07.4946 26272.3
 30 04 2013  19 32  -21.0814 26047.9 -03426.9 -07.4948 26272.3
 30 04 2013  19 33  -21.0814 26047.7 -03426.9 -07.4950 26272.2
 30 04 2013  19 34  -21.0810 26047.6 -03426.9 -07.4950 26272.0
 30 04 2013  19 35  -21.0807 26047.5 -03426.9 -07.4951 26271.9
 30 04 2013  19 36  -21.0802 26047.2 -03426.9 -07.4950 26271.7
 30 04 2013  19 37  -21.0797 26047.0 -03426.9 -07.4950 26271.5
 30 04 2013  19 38  -21.0793 26046.8 -03426.8 -07.4951 26271.3
 30 04 2013  19 39  -21.0787 26046.7 -03426.9 -07.4951 26271.2
 30 04 2013  19 40  -21.0783 26046.5 -03426.8 -07.4951 26270.9
 30 04 2013  19 41  -21.0779 26046.3 -03426.8 -07.4951 26270.7
 30 04 2013  19 42  -21.0776 26046.1 -03426.8 -07.4951 26270.5
 30 04 2013  19 43  -21.0776 26045.9 -03426.7 -07.4951 26270.4
 30 04 2013  19 44  -21.0773 26045.7 -03426.7 -07.4950 26270.2
 30 04 2013  19 45  -21.0771 26045.5 -03426.6 -07.4948 26269.9
 30 04 2013  19 46  -21.0768 26045.2 -03426.5 -07.4947 26269.7
 30 04 2013  19 47  -21.0765 26044.8 -03426.3 -07.4945 26269.2
 30 04 2013  19 48  -21.0762 26044.8 -03426.4 -07.4946 26269.2
 30 04 2013  19 49  -21.0759 26044.6 -03426.4 -07.4947 26269.0
 30 04 2013  19 50  -21.0755 26044.5 -03426.4 -07.4948 26268.9
 30 04 2013  19 51  -21.0752 26044.5 -03426.5 -07.4949 26268.9
 30 04 2013  19 52  -21.0749 26044.3 -03426.4 -07.4948 26268.7
 30 04 2013  19 53  -21.0744 26044.2 -03426.4 -07.4949 26268.6
 30 04 2013  19 54  -21.0739 26044.0 -03426.4 -07.4949 26268.4
 30 04 2013  19 55  -21.0735 26043.9 -03426.4 -07.4949 26268.3
 30 04 2013  19 56  -21.0732 26043.9 -03426.4 -07.4950 26268.3
 30 04 2013  19 57  -21.0730 26043.9 -03426.4 -07.4950 26268.3
 30 04 2013  19 58  -21.0726 26043.8 -03426.4 -07.4950 26268.2
 30 04 2013  19 59  -21.0724 26043.7 -03426.4 -07.4950 26268.1
 30 04 2013  20 00  -21.0719 26043.6 -03426.4 -07.4950 26268.0
 30 04 2013  20 01  -21.0715 26043.5 -03426.4 -07.4951 26268.0
 30 04 2013  20 02  -21.0711 26043.6 -03426.5 -07.4953 26268.1
 30 04 2013  20 03  -21.0704 26043.2 -03426.4 -07.4951 26267.7
 30 04 2013  20 04  -21.0697 26043.2 -03426.5 -07.4952 26267.7
 30 04 2013  20 05  -21.0695 26043.2 -03426.6 -07.4955 26267.7
 30 04 2013  20 06  -21.0691 26043.2 -03426.6 -07.4956 26267.6
 30 04 2013  20 07  -21.0688 26043.1 -03426.6 -07.4956 26267.5
 30 04 2013  20 08  -21.0684 26043.0 -03426.6 -07.4956 26267.4
 30 04 2013  20 09  -21.0681 26042.7 -03426.6 -07.4956 26267.1
 30 04 2013  20 10  -21.0674 26042.5 -03426.6 -07.4957 26267.0
 30 04 2013  20 11  -21.0671 26042.4 -03426.7 -07.4959 26266.9
 30 04 2013  20 12  -21.0665 26042.4 -03426.8 -07.4962 26266.9
 30 04 2013  20 13  -21.0662 26042.5 -03426.9 -07.4964 26267.0
 30 04 2013  20 14  -21.0659 26042.3 -03426.9 -07.4965 26266.8
 30 04 2013  20 15  -21.0654 26041.9 -03426.9 -07.4965 26266.4
 30 04 2013  20 16  -21.0650 26041.6 -03426.8 -07.4965 26266.1
 30 04 2013  20 17  -21.0646 26041.9 -03427.1 -07.4970 26266.4
 30 04 2013  20 18  -21.0641 26041.7 -03427.1 -07.4972 26266.2
 30 04 2013  20 19  -21.0634 26041.8 -03427.3 -07.4974 26266.3
 30 04 2013  20 20  -21.0629 26041.5 -03427.2 -07.4974 26266.0
 30 04 2013  20 21  -21.0624 26041.6 -03427.4 -07.4977 26266.1
 30 04 2013  20 22  -21.0620 26041.4 -03427.4 -07.4978 26265.9
 30 04 2013  20 23  -21.0616 26041.2 -03427.5 -07.4980 26265.8
 30 04 2013  20 24  -21.0611 26041.1 -03427.6 -07.4982 26265.7
 30 04 2013  20 25  -21.0605 26041.0 -03427.7 -07.4985 26265.6
 30 04 2013  20 26  -21.0597 26041.1 -03427.9 -07.4989 26265.7
 30 04 2013  20 27  -21.0595 26041.4 -03428.1 -07.4994 26266.0
 30 04 2013  20 28  -21.0591 26041.2 -03428.2 -07.4995 26265.9
 30 04 2013  20 29  -21.0587 26041.1 -03428.2 -07.4997 26265.8
 30 04 2013  20 30  -21.0585 26040.8 -03428.3 -07.4998 26265.5
 30 04 2013  20 31  -21.0582 26040.9 -03428.5 -07.5002 26265.6
 30 04 2013  20 32  -21.0578 26040.8 -03428.5 -07.5004 26265.5
 30 04 2013  20 33  -21.0573 26040.8 -03428.6 -07.5007 26265.5
 30 04 2013  20 34  -21.0569 26040.7 -03428.7 -07.5009 26265.4
 30 04 2013  20 35  -21.0566 26040.6 -03428.9 -07.5012 26265.4
 30 04 2013  20 36  -21.0565 26040.5 -03429.0 -07.5014 26265.3
 30 04 2013  20 37  -21.0564 26040.3 -03429.0 -07.5016 26265.1
 30 04 2013  20 38  -21.0563 26040.2 -03429.1 -07.5018 26265.0
 30 04 2013  20 39  -21.0563 26039.9 -03429.1 -07.5019 26264.7
 30 04 2013  20 40  -21.0562 26039.7 -03429.2 -07.5021 26264.6
 30 04 2013  20 41  -21.0558 26039.6 -03429.3 -07.5023 26264.5
 30 04 2013  20 42  -21.0557 26039.4 -03429.3 -07.5024 26264.2
 30 04 2013  20 43  -21.0554 26039.1 -03429.3 -07.5026 26264.0
 30 04 2013  20 44  -21.0556 26039.0 -03429.4 -07.5028 26263.8
 30 04 2013  20 45  -21.0558 26038.9 -03429.6 -07.5031 26263.8
 30 04 2013  20 46  -21.0554 26039.0 -03429.7 -07.5034 26263.9
 30 04 2013  20 47  -21.0552 26038.8 -03429.7 -07.5035 26263.7
 30 04 2013  20 48  -21.0550 26038.6 -03429.7 -07.5036 26263.5
 30 04 2013  20 49  -21.0550 26038.7 -03429.9 -07.5039 26263.6
 30 04 2013  20 50  -21.0549 26038.9 -03430.1 -07.5043 26263.8
 30 04 2013  20 51  -21.0545 26038.7 -03430.1 -07.5044 26263.7
 30 04 2013  20 52  -21.0542 26038.5 -03430.1 -07.5044 26263.4
 30 04 2013  20 53  -21.0541 26038.3 -03430.1 -07.5045 26263.3
 30 04 2013  20 54  -21.0540 26038.3 -03430.2 -07.5047 26263.3
 30 04 2013  20 55  -21.0540 26038.1 -03430.2 -07.5048 26263.0
 30 04 2013  20 56  -21.0537 26038.0 -03430.2 -07.5048 26262.9
 30 04 2013  20 57  -21.0537 26037.8 -03430.2 -07.5049 26262.8
 30 04 2013  20 58  -21.0540 26037.9 -03430.4 -07.5052 26262.9
 30 04 2013  20 59  -21.0540 26038.0 -03430.5 -07.5054 26263.0
 30 04 2013  21 00  -21.0539 26037.6 -03430.4 -07.5054 26262.6
 30 04 2013  21 01  -21.0539 26037.2 -03430.4 -07.5054 26262.2
 30 04 2013  21 02  -21.0538 26037.0 -03430.4 -07.5056 26262.1
 30 04 2013  21 03  -21.0537 26036.8 -03430.4 -07.5056 26261.8
 30 04 2013  21 04  -21.0537 26036.4 -03430.4 -07.5056 26261.4
 30 04 2013  21 05  -21.0537 26036.2 -03430.3 -07.5057 26261.2
 30 04 2013  21 06  -21.0535 26036.0 -03430.4 -07.5058 26261.0
 30 04 2013  21 07  -21.0533 26036.1 -03430.5 -07.5061 26261.1
 30 04 2013  21 08  -21.0532 26035.7 -03430.5 -07.5062 26260.8
 30 04 2013  21 09  -21.0529 26035.6 -03430.6 -07.5063 26260.7
 30 04 2013  21 10  -21.0526 26035.4 -03430.6 -07.5065 26260.5
 30 04 2013  21 11  -21.0521 26035.3 -03430.7 -07.5067 26260.4
 30 04 2013  21 12  -21.0518 26035.2 -03430.7 -07.5067 26260.2
 30 04 2013  21 13  -21.0516 26035.1 -03430.8 -07.5069 26260.2
 30 04 2013  21 14  -21.0511 26035.2 -03430.9 -07.5071 26260.2
 30 04 2013  21 15  -21.0510 26035.1 -03431.0 -07.5074 26260.2
 30 04 2013  21 16  -21.0504 26035.2 -03431.1 -07.5076 26260.3
 30 04 2013  21 17  -21.0501 26035.2 -03431.3 -07.5079 26260.3
 30 04 2013  21 18  -21.0496 26035.2 -03431.4 -07.5082 26260.4
 30 04 2013  21 19  -21.0492 26035.1 -03431.4 -07.5083 26260.2
 30 04 2013  21 20  -21.0488 26035.1 -03431.5 -07.5085 26260.3
 30 04 2013  21 21  -21.0485 26035.3 -03431.7 -07.5088 26260.5
 30 04 2013  21 22  -21.0481 26035.5 -03431.9 -07.5093 26260.7
 30 04 2013  21 23  -21.0475 26035.7 -03432.1 -07.5096 26260.9
 30 04 2013  21 24  -21.0472 26035.7 -03432.2 -07.5099 26261.0
 30 04 2013  21 25  -21.0470 26035.8 -03432.4 -07.5102 26261.1
 30 04 2013  21 26  -21.0469 26035.9 -03432.5 -07.5105 26261.2
 30 04 2013  21 27  -21.0469 26035.9 -03432.6 -07.5107 26261.2
 30 04 2013  21 28  -21.0470 26035.8 -03432.7 -07.5109 26261.2
 30 04 2013  21 29  -21.0470 26035.8 -03432.8 -07.5110 26261.1
 30 04 2013  21 30  -21.0468 26035.8 -03432.8 -07.5111 26261.1
 30 04 2013  21 31  -21.0468 26035.8 -03432.9 -07.5113 26261.2
 30 04 2013  21 32  -21.0467 26035.9 -03433.0 -07.5115 26261.3
 30 04 2013  21 33  -21.0462 26036.0 -03433.1 -07.5117 26261.4
 30 04 2013  21 34  -21.0459 26035.9 -03433.2 -07.5118 26261.3
 30 04 2013  21 35  -21.0460 26036.1 -03433.3 -07.5121 26261.5
 30 04 2013  21 36  -21.0459 26036.1 -03433.4 -07.5123 26261.5
 30 04 2013  21 37  -21.0459 26036.1 -03433.5 -07.5124 26261.5
 30 04 2013  21 38  -21.0458 26036.0 -03433.5 -07.5126 26261.5
 30 04 2013  21 39  -21.0460 26036.0 -03433.6 -07.5127 26261.4
 30 04 2013  21 40  -21.0463 26036.0 -03433.6 -07.5128 26261.4
 30 04 2013  21 41  -21.0465 26036.1 -03433.7 -07.5130 26261.6
 30 04 2013  21 42  -21.0465 26036.1 -03433.8 -07.5131 26261.6
 30 04 2013  21 43  -21.0466 26036.2 -03433.8 -07.5132 26261.7
 30 04 2013  21 44  -21.0468 26036.3 -03433.9 -07.5133 26261.7
 30 04 2013  21 45  -21.0470 26036.6 -03434.0 -07.5135 26262.1
 30 04 2013  21 46  -21.0471 26036.8 -03434.2 -07.5138 26262.3
 30 04 2013  21 47  -21.0472 26036.8 -03434.2 -07.5138 26262.3
 30 04 2013  21 48  -21.0473 26036.7 -03434.2 -07.5138 26262.2
 30 04 2013  21 49  -21.0472 26036.8 -03434.2 -07.5138 26262.3
 30 04 2013  21 50  -21.0470 26036.7 -03434.2 -07.5138 26262.2
 30 04 2013  21 51  -21.0469 26036.7 -03434.1 -07.5137 26262.2
 30 04 2013  21 52  -21.0467 26036.6 -03434.0 -07.5135 26262.0
 30 04 2013  21 53  -21.0466 26036.4 -03434.1 -07.5136 26261.9
 30 04 2013  21 54  -21.0466 26036.2 -03434.0 -07.5135 26261.7
 30 04 2013  21 55  -21.0466 26036.2 -03434.0 -07.5135 26261.7
 30 04 2013  21 56  -21.0466 26036.2 -03434.1 -07.5137 26261.7
 30 04 2013  21 57  -21.0468 26036.2 -03434.1 -07.5138 26261.7
 30 04 2013  21 58  -21.0471 26036.1 -03434.1 -07.5138 26261.6
 30 04 2013  21 59  -21.0475 26036.3 -03434.2 -07.5140 26261.8
 30 04 2013  22 00  -21.0479 26036.3 -03434.3 -07.5141 26261.8
 30 04 2013  22 01  -21.0484 26036.3 -03434.3 -07.5141 26261.8
 30 04 2013  22 02  -21.0487 26036.2 -03434.2 -07.5140 26261.7
 30 04 2013  22 03  -21.0490 26036.1 -03434.1 -07.5138 26261.6
 30 04 2013  22 04  -21.0493 26036.0 -03434.1 -07.5138 26261.5
 30 04 2013  22 05  -21.0494 26035.8 -03434.0 -07.5137 26261.3
 30 04 2013  22 06  -21.0498 26035.9 -03434.1 -07.5138 26261.4
 30 04 2013  22 07  -21.0499 26035.9 -03434.1 -07.5138 26261.4
 30 04 2013  22 08  -21.0497 26035.9 -03434.1 -07.5138 26261.4
 30 04 2013  22 09  -21.0496 26035.8 -03434.0 -07.5137 26261.3
 30 04 2013  22 10  -21.0493 26035.7 -03434.0 -07.5137 26261.2
 30 04 2013  22 11  -21.0492 26035.7 -03434.0 -07.5137 26261.2
 30 04 2013  22 12  -21.0495 26035.7 -03434.0 -07.5137 26261.2
 30 04 2013  22 13  -21.0498 26035.5 -03434.0 -07.5137 26261.0
 30 04 2013  22 14  -21.0499 26035.5 -03434.0 -07.5138 26261.0
 30 04 2013  22 15  -21.0498 26035.3 -03434.0 -07.5137 26260.8
 30 04 2013  22 16  -21.0498 26035.2 -03433.9 -07.5136 26260.7
 30 04 2013  22 17  -21.0497 26035.4 -03434.0 -07.5137 26260.9
 30 04 2013  22 18  -21.0496 26035.3 -03434.0 -07.5137 26260.8
 30 04 2013  22 19  -21.0495 26035.0 -03433.9 -07.5136 26260.5
 30 04 2013  22 20  -21.0494 26034.9 -03433.8 -07.5135 26260.3
 30 04 2013  22 21  -21.0492 26034.8 -03433.8 -07.5134 26260.2
 30 04 2013  22 22  -21.0493 26034.7 -03433.8 -07.5135 26260.2
 30 04 2013  22 23  -21.0495 26034.6 -03433.8 -07.5135 26260.1
 30 04 2013  22 24  -21.0497 26034.3 -03433.7 -07.5134 26259.8
 30 04 2013  22 25  -21.0497 26034.1 -03433.6 -07.5133 26259.6
 30 04 2013  22 26  -21.0497 26034.0 -03433.6 -07.5133 26259.4
 30 04 2013  22 27  -21.0499 26033.6 -03433.5 -07.5131 26259.0
 30 04 2013  22 28  -21.0501 26033.3 -03433.4 -07.5130 26258.8
 30 04 2013  22 29  -21.0501 26033.2 -03433.3 -07.5130 26258.6
 30 04 2013  22 30  -21.0500 26033.0 -03433.3 -07.5130 26258.4
 30 04 2013  22 31  -21.0498 26032.7 -03433.2 -07.5129 26258.1
 30 04 2013  22 32  -21.0498 26032.6 -03433.2 -07.5128 26258.0
 30 04 2013  22 33  -21.0499 26032.5 -03433.2 -07.5130 26257.9
 30 04 2013  22 34  -21.0501 26032.4 -03433.3 -07.5131 26257.8
 30 04 2013  22 35  -21.0503 26032.4 -03433.3 -07.5132 26257.8
 30 04 2013  22 36  -21.0506 26032.4 -03433.5 -07.5135 26257.9
 30 04 2013  22 37  -21.0509 26032.2 -03433.4 -07.5134 26257.7
 30 04 2013  22 38  -21.0512 26032.0 -03433.3 -07.5133 26257.5
 30 04 2013  22 39  -21.0517 26031.8 -03433.3 -07.5132 26257.2
 30 04 2013  22 40  -21.0523 26031.7 -03433.2 -07.5132 26257.1
 30 04 2013  22 41  -21.0528 26031.5 -03433.2 -07.5131 26256.9
 30 04 2013  22 42  -21.0534 26031.3 -03433.1 -07.5130 26256.7
 30 04 2013  22 43  -21.0540 26031.3 -03433.1 -07.5130 26256.7
 30 04 2013  22 44  -21.0544 26031.4 -03433.1 -07.5130 26256.8
 30 04 2013  22 45  -21.0547 26031.4 -03433.2 -07.5131 26256.8
 30 04 2013  22 46  -21.0551 26031.4 -03433.2 -07.5131 26256.8
 30 04 2013  22 47  -21.0553 26031.3 -03433.1 -07.5130 26256.7
 30 04 2013  22 48  -21.0554 26031.1 -03433.0 -07.5128 26256.5
 30 04 2013  22 49  -21.0555 26031.1 -03433.0 -07.5128 26256.5
 30 04 2013  22 50  -21.0557 26031.1 -03433.0 -07.5128 26256.5
 30 04 2013  22 51  -21.0560 26031.2 -03433.0 -07.5129 26256.6
 30 04 2013  22 52  -21.0562 26031.2 -03433.1 -07.5129 26256.6
 30 04 2013  22 53  -21.0563 26031.2 -03433.1 -07.5130 26256.6
 30 04 2013  22 54  -21.0563 26030.9 -03433.0 -07.5128 26256.3
 30 04 2013  22 55  -21.0564 26030.5 -03432.7 -07.5125 26255.9
 30 04 2013  22 56  -21.0564 26030.3 -03432.6 -07.5123 26255.6
 30 04 2013  22 57  -21.0566 26030.1 -03432.6 -07.5122 26255.5
 30 04 2013  22 58  -21.0566 26030.0 -03432.5 -07.5122 26255.3
 30 04 2013  22 59  -21.0566 26029.8 -03432.5 -07.5121 26255.2
 30 04 2013  23 00  -21.0566 26029.7 -03432.5 -07.5122 26255.0
 30 04 2013  23 01  -21.0565 26029.6 -03432.5 -07.5122 26254.9
 30 04 2013  23 02  -21.0564 26029.5 -03432.5 -07.5123 26254.9
 30 04 2013  23 03  -21.0561 26029.6 -03432.6 -07.5125 26255.0
 30 04 2013  23 04  -21.0559 26029.5 -03432.7 -07.5126 26254.9
 30 04 2013  23 05  -21.0558 26029.6 -03432.8 -07.5127 26255.0
 30 04 2013  23 06  -21.0561 26029.4 -03432.8 -07.5129 26254.8
 30 04 2013  23 07  -21.0563 26029.5 -03432.9 -07.5130 26254.8
 30 04 2013  23 08  -21.0567 26029.2 -03432.8 -07.5130 26254.6
 30 04 2013  23 09  -21.0570 26029.3 -03432.9 -07.5131 26254.7
 30 04 2013  23 10  -21.0576 26029.0 -03432.8 -07.5130 26254.4
 30 04 2013  23 11  -21.0581 26028.9 -03432.8 -07.5130 26254.3
 30 04 2013  23 12  -21.0585 26028.9 -03432.8 -07.5130 26254.2
 30 04 2013  23 13  -21.0587 26028.9 -03432.8 -07.5131 26254.3
 30 04 2013  23 14  -21.0591 26028.8 -03432.8 -07.5130 26254.2
 30 04 2013  23 15  -21.0595 26028.9 -03432.8 -07.5131 26254.3
 30 04 2013  23 16  -21.0598 26029.0 -03432.9 -07.5133 26254.4
 30 04 2013  23 17  -21.0600 26029.0 -03432.9 -07.5133 26254.4
 30 04 2013  23 18  -21.0603 26028.9 -03432.9 -07.5132 26254.3
 30 04 2013  23 19  -21.0606 26028.8 -03432.8 -07.5131 26254.2
 30 04 2013  23 20  -21.0611 26028.6 -03432.7 -07.5130 26254.0
 30 04 2013  23 21  -21.0613 26028.4 -03432.6 -07.5128 26253.8
 30 04 2013  23 22  -21.0617 26028.3 -03432.6 -07.5127 26253.6
 30 04 2013  23 23  -21.0622 26028.1 -03432.5 -07.5126 26253.5
 30 04 2013  23 24  -21.0628 26027.7 -03432.4 -07.5124 26253.1
 30 04 2013  23 25  -21.0631 26027.7 -03432.3 -07.5124 26253.0
 30 04 2013  23 26  -21.0637 26027.4 -03432.2 -07.5121 26252.7
 30 04 2013  23 27  -21.0642 26027.3 -03432.1 -07.5121 26252.6
 30 04 2013  23 28  -21.0645 26027.0 -03432.0 -07.5119 26252.3
 30 04 2013  23 29  -21.0647 26026.5 -03431.8 -07.5115 26251.8
 30 04 2013  23 30  -21.0650 26026.1 -03431.6 -07.5113 26251.4
 30 04 2013  23 31  -21.0654 26025.8 -03431.5 -07.5111 26251.1
 30 04 2013  23 32  -21.0656 26025.5 -03431.4 -07.5110 26250.7
 30 04 2013  23 33  -21.0661 26025.0 -03431.2 -07.5107 26250.2
 30 04 2013  23 34  -21.0666 26024.7 -03431.1 -07.5106 26249.9
 30 04 2013  23 35  -21.0667 26024.2 -03430.9 -07.5103 26249.4
 30 04 2013  23 36  -21.0667 26023.8 -03430.8 -07.5101 26249.0
 30 04 2013  23 37  -21.0666 26023.4 -03430.6 -07.5099 26248.6
 30 04 2013  23 38  -21.0663 26023.2 -03430.6 -07.5099 26248.4
 30 04 2013  23 39  -21.0663 26023.0 -03430.6 -07.5099 26248.1
 30 04 2013  23 40  -21.0663 26022.9 -03430.7 -07.5101 26248.0
 30 04 2013  23 41  -21.0667 26022.6 -03430.7 -07.5102 26247.8
 30 04 2013  23 42  -21.0672 26022.4 -03430.6 -07.5102 26247.6
 30 04 2013  23 43  -21.0679 26022.2 -03430.6 -07.5101 26247.3
 30 04 2013  23 44  -21.0684 26022.0 -03430.6 -07.5102 26247.2
 30 04 2013  23 45  -21.0687 26022.0 -03430.6 -07.5103 26247.1
 30 04 2013  23 46  -21.0692 26021.7 -03430.6 -07.5102 26246.9
 30 04 2013  23 47  -21.0692 26021.6 -03430.5 -07.5102 26246.8
 30 04 2013  23 48  -21.0690 26021.5 -03430.5 -07.5102 26246.7
 30 04 2013  23 49  -21.0688 26021.5 -03430.6 -07.5103 26246.7
 30 04 2013  23 50  -21.0685 26021.3 -03430.5 -07.5102 26246.4
 30 04 2013  23 51  -21.0683 26021.2 -03430.5 -07.5103 26246.4
 30 04 2013  23 52  -21.0683 26020.9 -03430.4 -07.5102 26246.1
 30 04 2013  23 53  -21.0684 26020.6 -03430.3 -07.5101 26245.7
 30 04 2013  23 54  -21.0685 26020.4 -03430.3 -07.5101 26245.5
 30 04 2013  23 55  -21.0685 26020.5 -03430.4 -07.5103 26245.6
 30 04 2013  23 56  -21.0687 26020.4 -03430.5 -07.5105 26245.6
 30 04 2013  23 57  -21.0689 26020.3 -03430.5 -07.5105 26245.5
 30 04 2013  23 58  -21.0692 26020.3 -03430.6 -07.5107 26245.5
