SAO LUIS EMBRACE-03 <243> 1 Min. Reported data

 DD MM YYYY  HH MM   D(Deg)  H(nT)   Z(nT)   I(Deg)   F(nT)

 31 08 2013  00 00  -21.0446 25988.2 -03473.2 -07.6122 26219.3
 31 08 2013  00 01  -21.0446 25988.6 -03473.6 -07.6128 26219.7
 31 08 2013  00 02  -21.0441 25988.8 -03473.7 -07.6131 26219.9
 31 08 2013  00 03  -21.0437 25988.9 -03473.8 -07.6132 26220.0
 31 08 2013  00 04  -21.0433 25988.7 -03473.8 -07.6134 26219.9
 31 08 2013  00 05  -21.0429 25988.7 -03473.9 -07.6135 26219.9
 31 08 2013  00 06  -21.0420 25988.4 -03473.7 -07.6133 26219.5
 31 08 2013  00 07  -21.0414 25988.1 -03473.7 -07.6132 26219.2
 31 08 2013  00 08  -21.0409 25987.7 -03473.6 -07.6131 26218.8
 31 08 2013  00 09  -21.0400 25987.7 -03473.7 -07.6133 26218.9
 31 08 2013  00 10  -21.0393 25987.6 -03473.7 -07.6135 26218.7
 31 08 2013  00 11  -21.0392 25987.6 -03473.9 -07.6138 26218.7
 31 08 2013  00 12  -21.0393 25987.4 -03474.0 -07.6141 26218.6
 31 08 2013  00 13  -21.0392 25987.0 -03474.0 -07.6141 26218.2
 31 08 2013  00 14  -21.0389 25986.7 -03473.9 -07.6141 26217.9
 31 08 2013  00 15  -21.0385 25986.5 -03473.9 -07.6142 26217.6
 31 08 2013  00 16  -21.0378 25986.5 -03474.0 -07.6144 26217.7
 31 08 2013  00 17  -21.0372 25987.3 -03474.4 -07.6151 26218.5
 31 08 2013  00 18  -21.0368 25989.0 -03475.4 -07.6168 26220.4
 31 08 2013  00 19  -21.0367 25990.9 -03476.5 -07.6186 26222.4
 31 08 2013  00 20  -21.0369 25991.7 -03477.1 -07.6196 26223.3
 31 08 2013  00 21  -21.0372 25992.7 -03477.6 -07.6203 26224.3
 31 08 2013  00 22  -21.0370 25993.7 -03478.0 -07.6211 26225.3
 31 08 2013  00 23  -21.0360 25994.6 -03478.4 -07.6216 26226.3
 31 08 2013  00 24  -21.0353 25995.2 -03478.7 -07.6221 26227.0
 31 08 2013  00 25  -21.0354 25995.5 -03478.8 -07.6223 26227.3
 31 08 2013  00 26  -21.0354 25995.6 -03478.9 -07.6223 26227.4
 31 08 2013  00 27  -21.0355 25995.8 -03478.9 -07.6223 26227.6
 31 08 2013  00 28  -21.0352 25995.9 -03478.9 -07.6222 26227.7
 31 08 2013  00 29  -21.0348 25997.3 -03479.4 -07.6229 26229.1
 31 08 2013  00 30  -21.0349 25998.4 -03479.9 -07.6238 26230.3
 31 08 2013  00 31  -21.0350 25999.5 -03480.5 -07.6246 26231.4
 31 08 2013  00 32  -21.0352 26000.4 -03480.9 -07.6253 26232.4
 31 08 2013  00 33  -21.0353 26001.2 -03481.1 -07.6256 26233.2
 31 08 2013  00 34  -21.0357 26002.1 -03481.5 -07.6261 26234.1
 31 08 2013  00 35  -21.0368 26002.6 -03481.7 -07.6263 26234.7
 31 08 2013  00 36  -21.0379 26002.9 -03481.7 -07.6263 26234.9
 31 08 2013  00 37  -21.0390 26003.5 -03481.8 -07.6264 26235.5
 31 08 2013  00 38  -21.0400 26003.5 -03481.7 -07.6261 26235.5
 31 08 2013  00 39  -21.0409 26003.4 -03481.4 -07.6255 26235.4
 31 08 2013  00 40  -21.0418 26003.3 -03481.1 -07.6249 26235.3
 31 08 2013  00 41  -21.0425 26003.3 -03480.9 -07.6245 26235.3
 31 08 2013  00 42  -21.0423 26004.6 -03481.3 -07.6249 26236.6
 31 08 2013  00 43  -21.0423 26005.3 -03481.5 -07.6251 26237.3
 31 08 2013  00 44  -21.0418 26005.2 -03481.3 -07.6248 26237.2
 31 08 2013  00 45  -21.0413 26005.4 -03481.1 -07.6244 26237.4
 31 08 2013  00 46  -21.0406 26005.1 -03480.9 -07.6239 26237.0
 31 08 2013  00 47  -21.0400 26004.9 -03480.6 -07.6234 26236.8
 31 08 2013  00 48  -21.0400 26004.6 -03480.4 -07.6230 26236.5
 31 08 2013  00 49  -21.0402 26004.0 -03480.0 -07.6224 26235.8
 31 08 2013  00 50  -21.0405 26003.3 -03479.6 -07.6217 26235.0
 31 08 2013  00 51  -21.0407 26002.4 -03479.2 -07.6210 26234.1
 31 08 2013  00 52  -21.0407 26001.6 -03478.7 -07.6202 26233.3
 31 08 2013  00 53  -21.0408 26001.0 -03478.5 -07.6198 26232.7
 31 08 2013  00 54  -21.0409 26000.7 -03478.3 -07.6196 26232.3
 31 08 2013  00 55  -21.0410 26000.4 -03478.2 -07.6195 26232.0
 31 08 2013  00 56  -21.0410 26000.3 -03478.2 -07.6196 26231.9
 31 08 2013  00 57  -21.0412 26000.4 -03478.4 -07.6199 26232.1
 31 08 2013  00 58  -21.0420 26000.5 -03478.5 -07.6202 26232.1
 31 08 2013  00 59  -21.0428 26000.4 -03478.6 -07.6203 26232.0
 31 08 2013  01 00  -21.0432 26000.2 -03478.5 -07.6202 26231.8
 31 08 2013  01 01  -21.0437 26000.0 -03478.4 -07.6200 26231.7
 31 08 2013  01 02  -21.0441 25999.8 -03478.3 -07.6199 26231.5
 31 08 2013  01 03  -21.0444 25999.6 -03478.2 -07.6197 26231.2
 31 08 2013  01 04  -21.0447 25999.1 -03477.9 -07.6193 26230.7
 31 08 2013  01 05  -21.0448 25998.7 -03477.7 -07.6189 26230.2
 31 08 2013  01 06  -21.0451 25998.4 -03477.6 -07.6188 26229.9
 31 08 2013  01 07  -21.0456 25998.0 -03477.5 -07.6186 26229.6
 31 08 2013  01 08  -21.0460 25997.7 -03477.4 -07.6184 26229.3
 31 08 2013  01 09  -21.0459 25997.5 -03477.3 -07.6183 26229.0
 31 08 2013  01 10  -21.0458 25997.4 -03477.2 -07.6182 26228.9
 31 08 2013  01 11  -21.0457 25997.3 -03477.2 -07.6183 26228.8
 31 08 2013  01 12  -21.0458 25997.3 -03477.3 -07.6184 26228.8
 31 08 2013  01 13  -21.0459 25997.5 -03477.4 -07.6187 26229.0
 31 08 2013  01 14  -21.0458 25997.5 -03477.5 -07.6188 26229.1
 31 08 2013  01 15  -21.0458 25997.5 -03477.6 -07.6190 26229.1
 31 08 2013  01 16  -21.0458 25997.3 -03477.5 -07.6189 26228.9
 31 08 2013  01 17  -21.0452 25997.1 -03477.4 -07.6188 26228.6
 31 08 2013  01 18  -21.0448 25996.9 -03477.4 -07.6187 26228.4
 31 08 2013  01 19  -21.0447 25996.6 -03477.2 -07.6185 26228.1
 31 08 2013  01 20  -21.0448 25996.3 -03477.2 -07.6185 26227.8
 31 08 2013  01 21  -21.0454 25996.2 -03477.3 -07.6187 26227.8
 31 08 2013  01 22  -21.0459 25996.3 -03477.4 -07.6188 26227.8
 31 08 2013  01 23  -21.0458 25996.2 -03477.4 -07.6189 26227.8
 31 08 2013  01 24  -21.0451 25996.1 -03477.3 -07.6189 26227.6
 31 08 2013  01 25  -21.0444 25995.8 -03477.2 -07.6187 26227.3
 31 08 2013  01 26  -21.0439 25995.4 -03477.1 -07.6185 26226.9
 31 08 2013  01 27  -21.0434 25995.0 -03476.9 -07.6183 26226.5
 31 08 2013  01 28  -21.0433 25994.6 -03476.9 -07.6183 26226.1
 31 08 2013  01 29  -21.0435 25994.5 -03476.9 -07.6183 26225.9
 31 08 2013  01 30  -21.0443 25994.3 -03477.0 -07.6186 26225.8
 31 08 2013  01 31  -21.0446 25994.0 -03476.9 -07.6185 26225.5
 31 08 2013  01 32  -21.0447 25993.7 -03476.8 -07.6185 26225.2
 31 08 2013  01 33  -21.0449 25993.5 -03476.8 -07.6184 26225.0
 31 08 2013  01 34  -21.0457 25993.4 -03476.8 -07.6185 26224.9
 31 08 2013  01 35  -21.0469 25993.2 -03476.9 -07.6187 26224.7
 31 08 2013  01 36  -21.0483 25993.1 -03477.0 -07.6189 26224.6
 31 08 2013  01 37  -21.0493 25993.1 -03477.0 -07.6191 26224.6
 31 08 2013  01 38  -21.0501 25993.2 -03477.1 -07.6192 26224.7
 31 08 2013  01 39  -21.0507 25993.1 -03477.1 -07.6192 26224.7
 31 08 2013  01 40  -21.0512 25993.1 -03477.0 -07.6191 26224.6
 31 08 2013  01 41  -21.0521 25993.1 -03477.1 -07.6191 26224.6
 31 08 2013  01 42  -21.0530 25992.9 -03477.0 -07.6191 26224.4
 31 08 2013  01 43  -21.0537 25992.7 -03476.9 -07.6188 26224.2
 31 08 2013  01 44  -21.0542 25992.4 -03476.7 -07.6186 26223.9
 31 08 2013  01 45  -21.0546 25992.3 -03476.6 -07.6185 26223.8
 31 08 2013  01 46  -21.0549 25992.2 -03476.6 -07.6183 26223.6
 31 08 2013  01 47  -21.0551 25991.9 -03476.4 -07.6181 26223.4
 31 08 2013  01 48  -21.0549 25991.7 -03476.3 -07.6179 26223.1
 31 08 2013  01 49  -21.0547 25991.4 -03476.2 -07.6177 26222.8
 31 08 2013  01 50  -21.0545 25991.1 -03476.0 -07.6175 26222.5
 31 08 2013  01 51  -21.0542 25990.7 -03475.9 -07.6174 26222.1
 31 08 2013  01 52  -21.0539 25990.4 -03475.9 -07.6173 26221.8
 31 08 2013  01 53  -21.0536 25990.2 -03475.8 -07.6172 26221.6
 31 08 2013  01 54  -21.0533 25990.0 -03475.8 -07.6174 26221.4
 31 08 2013  01 55  -21.0534 25990.0 -03475.9 -07.6175 26221.4
 31 08 2013  01 56  -21.0536 25989.9 -03476.0 -07.6177 26221.3
 31 08 2013  01 57  -21.0538 25989.9 -03476.1 -07.6180 26221.4
 31 08 2013  01 58  -21.0539 25989.9 -03476.2 -07.6181 26221.4
 31 08 2013  01 59  -21.0540 25989.9 -03476.2 -07.6183 26221.4
 31 08 2013  02 00  -21.0541 25989.9 -03476.3 -07.6183 26221.3
 31 08 2013  02 01  -21.0539 25989.7 -03476.2 -07.6183 26221.1
 31 08 2013  02 02  -21.0536 25989.6 -03476.2 -07.6183 26221.1
 31 08 2013  02 03  -21.0535 25989.5 -03476.2 -07.6183 26221.0
 31 08 2013  02 04  -21.0530 25989.8 -03476.4 -07.6186 26221.3
 31 08 2013  02 05  -21.0528 25990.0 -03476.5 -07.6189 26221.5
 31 08 2013  02 06  -21.0527 25990.1 -03476.6 -07.6191 26221.6
 31 08 2013  02 07  -21.0528 25990.4 -03476.8 -07.6194 26222.0
 31 08 2013  02 08  -21.0533 25990.4 -03476.9 -07.6196 26222.0
 31 08 2013  02 09  -21.0534 25990.2 -03476.8 -07.6194 26221.7
 31 08 2013  02 10  -21.0531 25989.8 -03476.6 -07.6190 26221.3
 31 08 2013  02 11  -21.0525 25989.7 -03476.4 -07.6188 26221.2
 31 08 2013  02 12  -21.0520 25989.5 -03476.4 -07.6186 26221.0
 31 08 2013  02 13  -21.0515 25989.3 -03476.3 -07.6186 26220.8
 31 08 2013  02 14  -21.0510 25989.3 -03476.3 -07.6186 26220.8
 31 08 2013  02 15  -21.0505 25989.3 -03476.4 -07.6187 26220.8
 31 08 2013  02 16  -21.0503 25989.2 -03476.4 -07.6188 26220.7
 31 08 2013  02 17  -21.0499 25989.4 -03476.5 -07.6190 26220.9
 31 08 2013  02 18  -21.0495 25989.7 -03476.8 -07.6195 26221.2
 31 08 2013  02 19  -21.0492 25990.1 -03477.1 -07.6200 26221.6
 31 08 2013  02 20  -21.0486 25990.5 -03477.3 -07.6205 26222.1
 31 08 2013  02 21  -21.0481 25991.3 -03477.8 -07.6212 26222.9
 31 08 2013  02 22  -21.0478 25991.9 -03478.2 -07.6219 26223.6
 31 08 2013  02 23  -21.0475 25992.6 -03478.6 -07.6225 26224.4
 31 08 2013  02 24  -21.0475 25993.3 -03479.0 -07.6232 26225.1
 31 08 2013  02 25  -21.0473 25993.7 -03479.2 -07.6236 26225.5
 31 08 2013  02 26  -21.0472 25993.7 -03479.2 -07.6236 26225.5
 31 08 2013  02 27  -21.0472 25993.8 -03479.2 -07.6236 26225.6
 31 08 2013  02 28  -21.0468 25994.0 -03479.3 -07.6236 26225.8
 31 08 2013  02 29  -21.0468 25994.3 -03479.4 -07.6238 26226.1
 31 08 2013  02 30  -21.0470 25994.7 -03479.6 -07.6241 26226.5
 31 08 2013  02 31  -21.0476 25994.9 -03479.7 -07.6244 26226.7
 31 08 2013  02 32  -21.0482 25994.7 -03479.6 -07.6242 26226.6
 31 08 2013  02 33  -21.0485 25994.3 -03479.4 -07.6238 26226.2
 31 08 2013  02 34  -21.0488 25994.1 -03479.2 -07.6235 26225.9
 31 08 2013  02 35  -21.0492 25993.9 -03479.1 -07.6233 26225.7
 31 08 2013  02 36  -21.0493 25993.7 -03479.0 -07.6231 26225.5
 31 08 2013  02 37  -21.0493 25993.7 -03479.0 -07.6232 26225.5
 31 08 2013  02 38  -21.0489 25993.7 -03479.0 -07.6231 26225.5
 31 08 2013  02 39  -21.0486 25993.8 -03479.0 -07.6232 26225.6
 31 08 2013  02 40  -21.0477 25993.7 -03479.0 -07.6232 26225.5
 31 08 2013  02 41  -21.0474 25993.1 -03478.8 -07.6230 26224.9
 31 08 2013  02 42  -21.0471 25992.6 -03478.6 -07.6226 26224.3
 31 08 2013  02 43  -21.0471 25992.1 -03478.4 -07.6224 26223.8
 31 08 2013  02 44  -21.0475 25991.8 -03478.4 -07.6223 26223.5
 31 08 2013  02 45  -21.0476 25991.8 -03478.5 -07.6225 26223.6
 31 08 2013  02 46  -21.0479 25992.0 -03478.6 -07.6228 26223.7
 31 08 2013  02 47  -21.0482 25992.3 -03478.9 -07.6232 26224.1
 31 08 2013  02 48  -21.0485 25992.9 -03479.2 -07.6238 26224.7
 31 08 2013  02 49  -21.0487 25993.4 -03479.5 -07.6243 26225.3
 31 08 2013  02 50  -21.0487 25994.1 -03479.8 -07.6248 26226.0
 31 08 2013  02 51  -21.0487 25994.8 -03480.2 -07.6254 26226.8
 31 08 2013  02 52  -21.0489 25995.6 -03480.6 -07.6260 26227.6
 31 08 2013  02 53  -21.0491 25996.4 -03480.9 -07.6266 26228.4
 31 08 2013  02 54  -21.0494 25997.0 -03481.2 -07.6269 26229.1
 31 08 2013  02 55  -21.0498 25997.5 -03481.4 -07.6272 26229.6
 31 08 2013  02 56  -21.0501 25997.9 -03481.5 -07.6273 26230.0
 31 08 2013  02 57  -21.0506 25998.2 -03481.5 -07.6272 26230.3
 31 08 2013  02 58  -21.0511 25998.5 -03481.5 -07.6273 26230.5
 31 08 2013  02 59  -21.0516 25998.7 -03481.6 -07.6272 26230.8
 31 08 2013  03 00  -21.0521 25999.0 -03481.6 -07.6272 26231.1
 31 08 2013  03 01  -21.0527 25999.2 -03481.6 -07.6271 26231.3
 31 08 2013  03 02  -21.0532 25999.4 -03481.6 -07.6271 26231.5
 31 08 2013  03 03  -21.0536 25999.5 -03481.4 -07.6268 26231.5
 31 08 2013  03 04  -21.0538 25999.5 -03481.3 -07.6265 26231.5
 31 08 2013  03 05  -21.0539 25999.4 -03481.2 -07.6262 26231.4
 31 08 2013  03 06  -21.0538 25999.2 -03481.0 -07.6259 26231.2
 31 08 2013  03 07  -21.0536 25999.1 -03480.9 -07.6257 26231.1
 31 08 2013  03 08  -21.0534 25999.0 -03480.8 -07.6254 26231.0
 31 08 2013  03 09  -21.0533 25998.9 -03480.7 -07.6252 26230.9
 31 08 2013  03 10  -21.0530 25998.9 -03480.6 -07.6251 26230.8
 31 08 2013  03 11  -21.0528 25998.8 -03480.6 -07.6251 26230.8
 31 08 2013  03 12  -21.0523 25998.9 -03480.6 -07.6251 26230.9
 31 08 2013  03 13  -21.0519 25999.2 -03480.7 -07.6253 26231.2
 31 08 2013  03 14  -21.0515 25999.7 -03480.9 -07.6256 26231.7
 31 08 2013  03 15  -21.0509 26000.1 -03481.1 -07.6259 26232.2
 31 08 2013  03 16  -21.0502 26000.6 -03481.3 -07.6262 26232.6
 31 08 2013  03 17  -21.0493 26000.8 -03481.4 -07.6263 26232.8
 31 08 2013  03 18  -21.0486 26000.9 -03481.5 -07.6264 26233.0
 31 08 2013  03 19  -21.0479 26001.1 -03481.6 -07.6265 26233.2
 31 08 2013  03 20  -21.0476 26001.2 -03481.7 -07.6267 26233.3
 31 08 2013  03 21  -21.0475 26001.4 -03481.8 -07.6269 26233.5
 31 08 2013  03 22  -21.0475 26001.6 -03481.9 -07.6271 26233.7
 31 08 2013  03 23  -21.0474 26001.8 -03482.0 -07.6274 26234.0
 31 08 2013  03 24  -21.0475 26002.0 -03482.1 -07.6275 26234.1
 31 08 2013  03 25  -21.0475 26002.4 -03482.3 -07.6277 26234.6
 31 08 2013  03 26  -21.0474 26003.0 -03482.5 -07.6281 26235.2
 31 08 2013  03 27  -21.0472 26003.6 -03482.8 -07.6286 26235.8
 31 08 2013  03 28  -21.0470 26004.1 -03483.0 -07.6288 26236.3
 31 08 2013  03 29  -21.0471 26004.5 -03483.1 -07.6290 26236.7
 31 08 2013  03 30  -21.0470 26004.9 -03483.3 -07.6292 26237.2
 31 08 2013  03 31  -21.0468 26005.4 -03483.4 -07.6293 26237.6
 31 08 2013  03 32  -21.0466 26005.8 -03483.5 -07.6294 26238.1
 31 08 2013  03 33  -21.0464 26006.0 -03483.5 -07.6294 26238.3
 31 08 2013  03 34  -21.0461 26006.1 -03483.4 -07.6292 26238.4
 31 08 2013  03 35  -21.0461 26006.3 -03483.4 -07.6291 26238.5
 31 08 2013  03 36  -21.0461 26006.2 -03483.3 -07.6289 26238.5
 31 08 2013  03 37  -21.0459 26006.2 -03483.2 -07.6286 26238.4
 31 08 2013  03 38  -21.0456 26006.1 -03483.0 -07.6283 26238.3
 31 08 2013  03 39  -21.0455 26006.1 -03482.9 -07.6281 26238.3
 31 08 2013  03 40  -21.0453 26006.2 -03482.9 -07.6280 26238.4
 31 08 2013  03 41  -21.0451 26006.2 -03482.9 -07.6279 26238.4
 31 08 2013  03 42  -21.0448 26006.3 -03482.9 -07.6279 26238.5
 31 08 2013  03 43  -21.0447 26006.7 -03483.0 -07.6280 26238.9
 31 08 2013  03 44  -21.0446 26006.8 -03483.0 -07.6281 26239.0
 31 08 2013  03 45  -21.0441 26007.1 -03483.1 -07.6281 26239.3
 31 08 2013  03 46  -21.0437 26007.1 -03483.1 -07.6280 26239.3
 31 08 2013  03 47  -21.0433 26007.2 -03483.0 -07.6280 26239.4
 31 08 2013  03 48  -21.0432 26007.3 -03483.1 -07.6280 26239.5
 31 08 2013  03 49  -21.0430 26007.6 -03483.2 -07.6281 26239.8
 31 08 2013  03 50  -21.0428 26007.8 -03483.2 -07.6282 26240.0
 31 08 2013  03 51  -21.0426 26007.9 -03483.2 -07.6282 26240.1
 31 08 2013  03 52  -21.0421 26008.0 -03483.2 -07.6282 26240.2
 31 08 2013  03 53  -21.0414 26008.2 -03483.2 -07.6281 26240.4
 31 08 2013  03 54  -21.0408 26008.5 -03483.3 -07.6283 26240.7
 31 08 2013  03 55  -21.0405 26008.8 -03483.5 -07.6285 26241.0
 31 08 2013  03 56  -21.0407 26009.0 -03483.6 -07.6287 26241.3
 31 08 2013  03 57  -21.0408 26009.3 -03483.8 -07.6289 26241.6
 31 08 2013  03 58  -21.0409 26009.6 -03483.9 -07.6290 26241.9
 31 08 2013  03 59  -21.0413 26009.8 -03483.9 -07.6291 26242.1
 31 08 2013  04 00  -21.0416 26010.0 -03484.0 -07.6292 26242.3
 31 08 2013  04 01  -21.0419 26010.2 -03484.0 -07.6292 26242.5
 31 08 2013  04 02  -21.0420 26010.3 -03483.9 -07.6291 26242.6
 31 08 2013  04 03  -21.0419 26010.4 -03483.9 -07.6289 26242.7
 31 08 2013  04 04  -21.0418 26010.4 -03483.8 -07.6287 26242.7
 31 08 2013  04 05  -21.0418 26010.4 -03483.7 -07.6285 26242.6
 31 08 2013  04 06  -21.0417 26010.1 -03483.5 -07.6282 26242.4
 31 08 2013  04 07  -21.0419 26009.9 -03483.4 -07.6279 26242.2
 31 08 2013  04 08  -21.0421 26009.8 -03483.2 -07.6276 26242.0
 31 08 2013  04 09  -21.0422 26009.6 -03483.1 -07.6274 26241.8
 31 08 2013  04 10  -21.0425 26009.4 -03483.0 -07.6272 26241.5
 31 08 2013  04 11  -21.0426 26009.1 -03482.8 -07.6269 26241.2
 31 08 2013  04 12  -21.0428 26008.9 -03482.6 -07.6266 26241.0
 31 08 2013  04 13  -21.0429 26008.8 -03482.6 -07.6265 26240.9
 31 08 2013  04 14  -21.0431 26008.9 -03482.6 -07.6266 26241.0
 31 08 2013  04 15  -21.0435 26008.9 -03482.6 -07.6266 26241.0
 31 08 2013  04 16  -21.0438 26008.9 -03482.6 -07.6266 26241.0
 31 08 2013  04 17  -21.0441 26008.8 -03482.6 -07.6266 26241.0
 31 08 2013  04 18  -21.0444 26008.8 -03482.5 -07.6264 26240.9
 31 08 2013  04 19  -21.0445 26008.9 -03482.6 -07.6264 26241.1
 31 08 2013  04 20  -21.0446 26009.1 -03482.6 -07.6265 26241.2
 31 08 2013  04 21  -21.0449 26009.2 -03482.6 -07.6265 26241.3
 31 08 2013  04 22  -21.0452 26009.1 -03482.6 -07.6264 26241.3
 31 08 2013  04 23  -21.0456 26009.2 -03482.6 -07.6264 26241.3
 31 08 2013  04 24  -21.0459 26009.2 -03482.5 -07.6262 26241.3
 31 08 2013  04 25  -21.0458 26009.1 -03482.4 -07.6261 26241.2
 31 08 2013  04 26  -21.0458 26009.2 -03482.4 -07.6260 26241.3
 31 08 2013  04 27  -21.0459 26009.3 -03482.4 -07.6259 26241.4
 31 08 2013  04 28  -21.0460 26009.2 -03482.3 -07.6258 26241.3
 31 08 2013  04 29  -21.0460 26009.2 -03482.2 -07.6256 26241.3
 31 08 2013  04 30  -21.0458 26009.4 -03482.2 -07.6256 26241.5
 31 08 2013  04 31  -21.0458 26009.6 -03482.3 -07.6258 26241.7
 31 08 2013  04 32  -21.0458 26009.3 -03482.2 -07.6255 26241.3
 31 08 2013  04 33  -21.0457 26009.2 -03482.0 -07.6252 26241.2
 31 08 2013  04 34  -21.0455 26009.4 -03482.1 -07.6253 26241.4
 31 08 2013  04 35  -21.0455 26009.5 -03482.1 -07.6254 26241.6
 31 08 2013  04 36  -21.0455 26009.5 -03482.1 -07.6253 26241.6
 31 08 2013  04 37  -21.0453 26009.8 -03482.2 -07.6254 26241.9
 31 08 2013  04 38  -21.0450 26010.6 -03482.5 -07.6259 26242.7
 31 08 2013  04 39  -21.0447 26011.5 -03482.9 -07.6265 26243.7
 31 08 2013  04 40  -21.0443 26012.2 -03483.3 -07.6270 26244.4
 31 08 2013  04 41  -21.0440 26012.6 -03483.4 -07.6272 26244.8
 31 08 2013  04 42  -21.0440 26012.8 -03483.4 -07.6272 26245.0
 31 08 2013  04 43  -21.0441 26013.1 -03483.5 -07.6273 26245.3
 31 08 2013  04 44  -21.0445 26013.3 -03483.5 -07.6273 26245.5
 31 08 2013  04 45  -21.0449 26013.8 -03483.7 -07.6275 26246.0
 31 08 2013  04 46  -21.0453 26014.2 -03483.8 -07.6276 26246.5
 31 08 2013  04 47  -21.0455 26014.8 -03484.0 -07.6279 26247.1
 31 08 2013  04 48  -21.0457 26014.9 -03483.9 -07.6277 26247.1
 31 08 2013  04 49  -21.0459 26015.2 -03484.0 -07.6277 26247.4
 31 08 2013  04 50  -21.0459 26015.4 -03484.0 -07.6276 26247.7
 31 08 2013  04 51  -21.0458 26015.4 -03483.8 -07.6273 26247.6
 31 08 2013  04 52  -21.0457 26015.6 -03483.8 -07.6271 26247.8
 31 08 2013  04 53  -21.0456 26016.2 -03484.0 -07.6274 26248.4
 31 08 2013  04 54  -21.0454 26016.6 -03484.1 -07.6276 26248.9
 31 08 2013  04 55  -21.0452 26017.3 -03484.3 -07.6278 26249.6
 31 08 2013  04 56  -21.0449 26018.3 -03484.7 -07.6284 26250.6
 31 08 2013  04 57  -21.0446 26019.3 -03485.1 -07.6290 26251.7
 31 08 2013  04 58  -21.0445 26020.1 -03485.4 -07.6294 26252.5
 31 08 2013  04 59  -21.0448 26020.7 -03485.6 -07.6297 26253.2
 31 08 2013  05 00  -21.0448 26021.5 -03485.8 -07.6299 26253.9
 31 08 2013  05 01  -21.0447 26022.3 -03486.0 -07.6301 26254.7
 31 08 2013  05 02  -21.0445 26022.8 -03486.2 -07.6302 26255.3
 31 08 2013  05 03  -21.0443 26023.2 -03486.2 -07.6302 26255.7
 31 08 2013  05 04  -21.0440 26023.9 -03486.3 -07.6302 26256.4
 31 08 2013  05 05  -21.0437 26024.2 -03486.3 -07.6301 26256.7
 31 08 2013  05 06  -21.0433 26024.2 -03486.1 -07.6298 26256.7
 31 08 2013  05 07  -21.0431 26024.3 -03486.0 -07.6294 26256.8
 31 08 2013  05 08  -21.0431 26024.7 -03486.0 -07.6293 26257.1
 31 08 2013  05 09  -21.0430 26025.1 -03486.0 -07.6293 26257.5
 31 08 2013  05 10  -21.0428 26025.2 -03486.0 -07.6292 26257.7
 31 08 2013  05 11  -21.0429 26025.1 -03485.9 -07.6289 26257.5
 31 08 2013  05 12  -21.0427 26025.3 -03485.8 -07.6287 26257.7
 31 08 2013  05 13  -21.0424 26025.4 -03485.7 -07.6285 26257.8
 31 08 2013  05 14  -21.0419 26025.2 -03485.5 -07.6281 26257.5
 31 08 2013  05 15  -21.0410 26024.8 -03485.2 -07.6275 26257.1
 31 08 2013  05 16  -21.0401 26024.4 -03484.8 -07.6269 26256.6
 31 08 2013  05 17  -21.0394 26023.8 -03484.5 -07.6263 26256.1
 31 08 2013  05 18  -21.0386 26023.6 -03484.3 -07.6260 26255.8
 31 08 2013  05 19  -21.0377 26023.4 -03484.2 -07.6258 26255.7
 31 08 2013  05 20  -21.0370 26023.1 -03484.1 -07.6257 26255.3
 31 08 2013  05 21  -21.0363 26022.7 -03483.9 -07.6253 26254.9
 31 08 2013  05 22  -21.0356 26022.2 -03483.6 -07.6250 26254.3
 31 08 2013  05 23  -21.0346 26021.8 -03483.4 -07.6246 26254.0
 31 08 2013  05 24  -21.0341 26021.6 -03483.4 -07.6246 26253.7
 31 08 2013  05 25  -21.0337 26021.5 -03483.4 -07.6247 26253.6
 31 08 2013  05 26  -21.0334 26021.3 -03483.5 -07.6248 26253.4
 31 08 2013  05 27  -21.0332 26021.3 -03483.5 -07.6249 26253.4
 31 08 2013  05 28  -21.0331 26021.3 -03483.6 -07.6252 26253.5
 31 08 2013  05 29  -21.0329 26021.3 -03483.7 -07.6253 26253.5
 31 08 2013  05 30  -21.0324 26021.3 -03483.7 -07.6254 26253.5
 31 08 2013  05 31  -21.0319 26021.4 -03483.8 -07.6256 26253.6
 31 08 2013  05 32  -21.0314 26021.4 -03483.9 -07.6257 26253.6
 31 08 2013  05 33  -21.0311 26021.4 -03483.9 -07.6258 26253.6
 31 08 2013  05 34  -21.0309 26021.4 -03483.9 -07.6258 26253.6
 31 08 2013  05 35  -21.0308 26021.3 -03483.9 -07.6258 26253.5
 31 08 2013  05 36  -21.0309 26021.1 -03483.9 -07.6257 26253.3
 31 08 2013  05 37  -21.0309 26020.7 -03483.7 -07.6255 26252.9
 31 08 2013  05 38  -21.0310 26020.4 -03483.5 -07.6253 26252.6
 31 08 2013  05 39  -21.0311 26020.4 -03483.5 -07.6252 26252.5
 31 08 2013  05 40  -21.0310 26020.3 -03483.6 -07.6253 26252.5
 31 08 2013  05 41  -21.0311 26020.4 -03483.6 -07.6255 26252.6
 31 08 2013  05 42  -21.0315 26020.2 -03483.6 -07.6255 26252.4
 31 08 2013  05 43  -21.0316 26020.1 -03483.6 -07.6254 26252.3
 31 08 2013  05 44  -21.0317 26020.3 -03483.6 -07.6255 26252.4
 31 08 2013  05 45  -21.0318 26020.3 -03483.7 -07.6255 26252.4
 31 08 2013  05 46  -21.0318 26020.1 -03483.6 -07.6254 26252.2
 31 08 2013  05 47  -21.0318 26019.9 -03483.5 -07.6253 26252.0
 31 08 2013  05 48  -21.0318 26019.9 -03483.5 -07.6252 26252.0
 31 08 2013  05 49  -21.0317 26019.8 -03483.4 -07.6252 26251.9
 31 08 2013  05 50  -21.0316 26019.7 -03483.4 -07.6251 26251.8
 31 08 2013  05 51  -21.0318 26019.6 -03483.3 -07.6250 26251.7
 31 08 2013  05 52  -21.0319 26019.6 -03483.4 -07.6251 26251.7
 31 08 2013  05 53  -21.0321 26019.5 -03483.3 -07.6251 26251.6
 31 08 2013  05 54  -21.0325 26019.2 -03483.3 -07.6250 26251.4
 31 08 2013  05 55  -21.0325 26018.9 -03483.1 -07.6246 26251.0
 31 08 2013  05 56  -21.0326 26018.8 -03483.0 -07.6245 26250.9
 31 08 2013  05 57  -21.0327 26018.8 -03483.0 -07.6245 26250.9
 31 08 2013  05 58  -21.0327 26018.8 -03483.0 -07.6246 26250.9
 31 08 2013  05 59  -21.0325 26018.8 -03483.0 -07.6245 26250.9
 31 08 2013  06 00  -21.0325 26019.0 -03483.1 -07.6247 26251.1
 31 08 2013  06 01  -21.0327 26019.0 -03483.1 -07.6248 26251.1
 31 08 2013  06 02  -21.0326 26019.0 -03483.1 -07.6248 26251.1
 31 08 2013  06 03  -21.0324 26019.1 -03483.2 -07.6248 26251.2
 31 08 2013  06 04  -21.0320 26019.3 -03483.2 -07.6249 26251.4
 31 08 2013  06 05  -21.0315 26019.4 -03483.3 -07.6249 26251.6
 31 08 2013  06 06  -21.0309 26019.7 -03483.4 -07.6251 26251.8
 31 08 2013  06 07  -21.0302 26019.8 -03483.4 -07.6251 26251.9
 31 08 2013  06 08  -21.0294 26019.8 -03483.4 -07.6252 26251.9
 31 08 2013  06 09  -21.0290 26019.8 -03483.4 -07.6252 26252.0
 31 08 2013  06 10  -21.0289 26019.8 -03483.4 -07.6252 26251.9
 31 08 2013  06 11  -21.0288 26019.6 -03483.4 -07.6252 26251.8
 31 08 2013  06 12  -21.0289 26019.5 -03483.4 -07.6251 26251.6
 31 08 2013  06 13  -21.0290 26019.3 -03483.3 -07.6250 26251.4
 31 08 2013  06 14  -21.0291 26019.3 -03483.2 -07.6249 26251.4
 31 08 2013  06 15  -21.0289 26019.3 -03483.3 -07.6250 26251.4
 31 08 2013  06 16  -21.0286 26019.0 -03483.1 -07.6248 26251.1
 31 08 2013  06 17  -21.0282 26018.6 -03482.9 -07.6245 26250.7
 31 08 2013  06 18  -21.0281 26018.5 -03482.9 -07.6244 26250.6
 31 08 2013  06 19  -21.0280 26018.5 -03483.0 -07.6245 26250.6
 31 08 2013  06 20  -21.0279 26018.7 -03483.1 -07.6247 26250.8
 31 08 2013  06 21  -21.0278 26018.8 -03483.2 -07.6249 26250.9
 31 08 2013  06 22  -21.0276 26018.9 -03483.3 -07.6251 26251.0
 31 08 2013  06 23  -21.0276 26018.9 -03483.3 -07.6251 26251.0
 31 08 2013  06 24  -21.0276 26019.0 -03483.3 -07.6251 26251.1
 31 08 2013  06 25  -21.0277 26018.9 -03483.3 -07.6251 26251.0
 31 08 2013  06 26  -21.0277 26019.0 -03483.3 -07.6250 26251.1
 31 08 2013  06 27  -21.0276 26019.2 -03483.4 -07.6253 26251.3
 31 08 2013  06 28  -21.0275 26019.3 -03483.5 -07.6254 26251.5
 31 08 2013  06 29  -21.0275 26019.3 -03483.4 -07.6253 26251.4
 31 08 2013  06 30  -21.0274 26019.3 -03483.4 -07.6253 26251.4
 31 08 2013  06 31  -21.0274 26019.3 -03483.4 -07.6253 26251.4
 31 08 2013  06 32  -21.0275 26019.1 -03483.3 -07.6252 26251.2
 31 08 2013  06 33  -21.0276 26018.8 -03483.2 -07.6249 26250.9
 31 08 2013  06 34  -21.0275 26018.5 -03483.0 -07.6247 26250.6
 31 08 2013  06 35  -21.0273 26018.3 -03482.9 -07.6245 26250.4
 31 08 2013  06 36  -21.0270 26018.2 -03482.8 -07.6244 26250.2
 31 08 2013  06 37  -21.0265 26018.2 -03482.9 -07.6244 26250.3
 31 08 2013  06 38  -21.0260 26018.3 -03482.9 -07.6245 26250.4
 31 08 2013  06 39  -21.0258 26018.3 -03483.0 -07.6247 26250.4
 31 08 2013  06 40  -21.0255 26018.3 -03483.0 -07.6247 26250.4
 31 08 2013  06 41  -21.0250 26018.3 -03483.1 -07.6248 26250.4
 31 08 2013  06 42  -21.0246 26018.2 -03483.0 -07.6248 26250.3
 31 08 2013  06 43  -21.0242 26018.1 -03483.0 -07.6248 26250.2
 31 08 2013  06 44  -21.0240 26018.0 -03483.0 -07.6248 26250.2
 31 08 2013  06 45  -21.0240 26018.0 -03483.0 -07.6248 26250.1
 31 08 2013  06 46  -21.0239 26017.9 -03483.0 -07.6249 26250.0
 31 08 2013  06 47  -21.0237 26017.8 -03483.0 -07.6249 26249.9
 31 08 2013  06 48  -21.0238 26017.9 -03483.1 -07.6250 26250.0
 31 08 2013  06 49  -21.0242 26017.9 -03483.1 -07.6250 26250.0
 31 08 2013  06 50  -21.0247 26017.7 -03483.0 -07.6249 26249.8
 31 08 2013  06 51  -21.0251 26017.6 -03483.0 -07.6249 26249.8
 31 08 2013  06 52  -21.0257 26017.6 -03483.0 -07.6248 26249.7
 31 08 2013  06 53  -21.0266 26017.3 -03482.9 -07.6247 26249.4
 31 08 2013  06 54  -21.0276 26016.8 -03482.6 -07.6243 26248.9
 31 08 2013  06 55  -21.0283 26016.6 -03482.4 -07.6240 26248.6
 31 08 2013  06 56  -21.0292 26016.3 -03482.3 -07.6237 26248.3
 31 08 2013  06 57  -21.0299 26016.3 -03482.3 -07.6237 26248.3
 31 08 2013  06 58  -21.0304 26016.3 -03482.3 -07.6237 26248.3
 31 08 2013  06 59  -21.0307 26016.2 -03482.2 -07.6236 26248.3
 31 08 2013  07 00  -21.0306 26016.0 -03482.1 -07.6234 26248.0
 31 08 2013  07 01  -21.0308 26016.0 -03482.1 -07.6233 26248.0
 31 08 2013  07 02  -21.0309 26016.0 -03482.1 -07.6233 26248.0
 31 08 2013  07 03  -21.0310 26016.1 -03482.1 -07.6235 26248.1
 31 08 2013  07 04  -21.0311 26016.3 -03482.2 -07.6236 26248.3
 31 08 2013  07 05  -21.0312 26016.5 -03482.3 -07.6237 26248.5
 31 08 2013  07 06  -21.0312 26016.6 -03482.4 -07.6238 26248.6
 31 08 2013  07 07  -21.0315 26016.6 -03482.4 -07.6239 26248.6
 31 08 2013  07 08  -21.0315 26016.7 -03482.4 -07.6238 26248.7
 31 08 2013  07 09  -21.0312 26016.6 -03482.3 -07.6237 26248.6
 31 08 2013  07 10  -21.0309 26016.6 -03482.3 -07.6237 26248.7
 31 08 2013  07 11  -21.0307 26016.6 -03482.3 -07.6236 26248.6
 31 08 2013  07 12  -21.0303 26016.6 -03482.3 -07.6236 26248.6
 31 08 2013  07 13  -21.0301 26016.6 -03482.3 -07.6236 26248.6
 31 08 2013  07 14  -21.0300 26016.5 -03482.3 -07.6236 26248.6
 31 08 2013  07 15  -21.0299 26016.5 -03482.3 -07.6236 26248.5
 31 08 2013  07 16  -21.0299 26016.5 -03482.2 -07.6236 26248.5
 31 08 2013  07 17  -21.0296 26016.4 -03482.3 -07.6236 26248.4
 31 08 2013  07 18  -21.0294 26016.3 -03482.2 -07.6236 26248.3
 31 08 2013  07 19  -21.0294 26016.3 -03482.2 -07.6236 26248.3
 31 08 2013  07 20  -21.0295 26016.3 -03482.3 -07.6237 26248.3
 31 08 2013  07 21  -21.0295 26016.5 -03482.4 -07.6239 26248.6
 31 08 2013  07 22  -21.0295 26016.6 -03482.5 -07.6240 26248.7
 31 08 2013  07 23  -21.0294 26016.7 -03482.5 -07.6241 26248.7
 31 08 2013  07 24  -21.0294 26016.6 -03482.5 -07.6241 26248.6
 31 08 2013  07 25  -21.0296 26016.5 -03482.5 -07.6240 26248.6
 31 08 2013  07 26  -21.0296 26016.5 -03482.4 -07.6239 26248.5
 31 08 2013  07 27  -21.0300 26016.4 -03482.3 -07.6238 26248.5
 31 08 2013  07 28  -21.0305 26016.4 -03482.3 -07.6238 26248.4
 31 08 2013  07 29  -21.0309 26016.3 -03482.3 -07.6237 26248.3
 31 08 2013  07 30  -21.0313 26016.1 -03482.2 -07.6236 26248.1
 31 08 2013  07 31  -21.0320 26016.0 -03482.1 -07.6235 26248.0
 31 08 2013  07 32  -21.0323 26015.9 -03482.1 -07.6234 26247.9
 31 08 2013  07 33  -21.0323 26015.8 -03482.0 -07.6232 26247.7
 31 08 2013  07 34  -21.0324 26015.5 -03481.8 -07.6229 26247.5
 31 08 2013  07 35  -21.0324 26015.2 -03481.7 -07.6227 26247.2
 31 08 2013  07 36  -21.0327 26015.0 -03481.5 -07.6225 26246.9
 31 08 2013  07 37  -21.0331 26014.7 -03481.4 -07.6224 26246.6
 31 08 2013  07 38  -21.0328 26014.3 -03481.2 -07.6220 26246.2
 31 08 2013  07 39  -21.0322 26014.0 -03481.0 -07.6217 26245.8
 31 08 2013  07 40  -21.0323 26013.7 -03481.0 -07.6216 26245.6
 31 08 2013  07 41  -21.0324 26013.5 -03481.0 -07.6217 26245.4
 31 08 2013  07 42  -21.0324 26013.7 -03481.1 -07.6219 26245.6
 31 08 2013  07 43  -21.0325 26013.7 -03481.2 -07.6221 26245.6
 31 08 2013  07 44  -21.0325 26013.6 -03481.2 -07.6221 26245.5
 31 08 2013  07 45  -21.0324 26013.2 -03481.0 -07.6218 26245.1
 31 08 2013  07 46  -21.0325 26013.1 -03480.9 -07.6217 26245.0
 31 08 2013  07 47  -21.0325 26012.8 -03480.8 -07.6216 26244.7
 31 08 2013  07 48  -21.0326 26012.5 -03480.7 -07.6214 26244.3
 31 08 2013  07 49  -21.0326 26012.0 -03480.5 -07.6210 26243.8
 31 08 2013  07 50  -21.0327 26011.7 -03480.4 -07.6210 26243.5
 31 08 2013  07 51  -21.0330 26011.6 -03480.4 -07.6211 26243.4
 31 08 2013  07 52  -21.0333 26011.4 -03480.4 -07.6211 26243.2
 31 08 2013  07 53  -21.0333 26011.3 -03480.4 -07.6210 26243.1
 31 08 2013  07 54  -21.0336 26011.1 -03480.3 -07.6208 26242.9
 31 08 2013  07 55  -21.0337 26010.9 -03480.2 -07.6208 26242.7
 31 08 2013  07 56  -21.0341 26010.9 -03480.2 -07.6208 26242.7
 31 08 2013  07 57  -21.0345 26011.0 -03480.2 -07.6208 26242.8
 31 08 2013  07 58  -21.0347 26011.0 -03480.2 -07.6208 26242.8
 31 08 2013  07 59  -21.0351 26011.5 -03480.4 -07.6210 26243.3
 31 08 2013  08 00  -21.0360 26012.1 -03480.7 -07.6215 26244.0
 31 08 2013  08 01  -21.0362 26012.5 -03480.9 -07.6218 26244.3
 31 08 2013  08 02  -21.0354 26012.5 -03480.8 -07.6217 26244.4
 31 08 2013  08 03  -21.0343 26012.2 -03480.6 -07.6213 26244.0
 31 08 2013  08 04  -21.0334 26011.8 -03480.4 -07.6210 26243.6
 31 08 2013  08 05  -21.0329 26011.6 -03480.3 -07.6209 26243.4
 31 08 2013  08 06  -21.0327 26011.4 -03480.3 -07.6208 26243.2
 31 08 2013  08 07  -21.0326 26011.2 -03480.2 -07.6207 26243.0
 31 08 2013  08 08  -21.0322 26011.1 -03480.2 -07.6206 26242.9
 31 08 2013  08 09  -21.0315 26011.0 -03480.1 -07.6204 26242.7
 31 08 2013  08 10  -21.0311 26010.8 -03480.0 -07.6203 26242.6
 31 08 2013  08 11  -21.0309 26010.8 -03479.9 -07.6202 26242.5
 31 08 2013  08 12  -21.0310 26010.9 -03480.0 -07.6204 26242.6
 31 08 2013  08 13  -21.0309 26011.0 -03480.1 -07.6205 26242.8
 31 08 2013  08 14  -21.0310 26011.0 -03480.2 -07.6206 26242.8
 31 08 2013  08 15  -21.0310 26011.0 -03480.1 -07.6206 26242.8
 31 08 2013  08 16  -21.0308 26011.1 -03480.1 -07.6206 26242.9
 31 08 2013  08 17  -21.0301 26011.2 -03480.1 -07.6204 26243.0
 31 08 2013  08 18  -21.0298 26011.3 -03480.1 -07.6204 26243.1
 31 08 2013  08 19  -21.0299 26011.6 -03480.2 -07.6205 26243.4
 31 08 2013  08 20  -21.0298 26012.1 -03480.3 -07.6208 26243.9
 31 08 2013  08 21  -21.0295 26012.4 -03480.4 -07.6209 26244.2
 31 08 2013  08 22  -21.0292 26012.5 -03480.5 -07.6209 26244.3
 31 08 2013  08 23  -21.0286 26012.7 -03480.5 -07.6209 26244.5
 31 08 2013  08 24  -21.0283 26012.7 -03480.5 -07.6209 26244.5
 31 08 2013  08 25  -21.0275 26012.7 -03480.5 -07.6208 26244.5
 31 08 2013  08 26  -21.0264 26012.8 -03480.4 -07.6207 26244.6
 31 08 2013  08 27  -21.0255 26012.8 -03480.4 -07.6207 26244.6
 31 08 2013  08 28  -21.0247 26013.0 -03480.5 -07.6208 26244.8
 31 08 2013  08 29  -21.0234 26013.2 -03480.5 -07.6208 26245.0
 31 08 2013  08 30  -21.0228 26013.5 -03480.6 -07.6210 26245.3
 31 08 2013  08 31  -21.0222 26013.7 -03480.8 -07.6212 26245.6
 31 08 2013  08 32  -21.0216 26013.9 -03480.8 -07.6213 26245.8
 31 08 2013  08 33  -21.0209 26014.1 -03480.9 -07.6214 26246.0
 31 08 2013  08 34  -21.0201 26014.3 -03480.9 -07.6213 26246.2
 31 08 2013  08 35  -21.0192 26014.5 -03480.9 -07.6213 26246.3
 31 08 2013  08 36  -21.0183 26014.8 -03481.0 -07.6214 26246.7
 31 08 2013  08 37  -21.0174 26015.1 -03481.1 -07.6215 26247.0
 31 08 2013  08 38  -21.0166 26015.4 -03481.1 -07.6215 26247.2
 31 08 2013  08 39  -21.0160 26015.7 -03481.3 -07.6218 26247.6
 31 08 2013  08 40  -21.0152 26016.1 -03481.5 -07.6220 26248.0
 31 08 2013  08 41  -21.0143 26016.2 -03481.5 -07.6220 26248.1
 31 08 2013  08 42  -21.0133 26016.2 -03481.5 -07.6220 26248.2
 31 08 2013  08 43  -21.0119 26016.2 -03481.4 -07.6219 26248.2
 31 08 2013  08 44  -21.0104 26016.4 -03481.4 -07.6218 26248.3
 31 08 2013  08 45  -21.0090 26016.6 -03481.5 -07.6220 26248.6
 31 08 2013  08 46  -21.0075 26016.9 -03481.7 -07.6222 26248.9
 31 08 2013  08 47  -21.0064 26017.2 -03481.8 -07.6225 26249.1
 31 08 2013  08 48  -21.0050 26017.3 -03481.9 -07.6227 26249.3
 31 08 2013  08 49  -21.0038 26017.5 -03481.9 -07.6224 26249.5
 31 08 2013  08 50  -21.0025 26017.7 -03482.2 -07.6231 26249.7
 31 08 2013  08 51  -21.0012 26017.8 -03482.3 -07.6233 26249.8
 31 08 2013  08 52  -20.9995 26017.5 -03482.2 -07.6232 26249.5
 31 08 2013  08 53  -20.9983 26017.2 -03482.1 -07.6231 26249.2
 31 08 2013  08 54  -20.9970 26017.0 -03482.1 -07.6232 26249.0
 31 08 2013  08 55  -20.9952 26016.9 -03482.1 -07.6232 26248.9
 31 08 2013  08 56  -20.9941 26017.1 -03482.3 -07.6236 26249.1
 31 08 2013  08 57  -20.9937 26017.6 -03482.7 -07.6243 26249.6
 31 08 2013  08 58  -20.9935 26017.8 -03483.1 -07.6249 26249.9
 31 08 2013  08 59  -20.9927 26017.7 -03483.1 -07.6251 26249.8
 31 08 2013  09 00  -20.9919 26017.7 -03483.2 -07.6253 26249.8
 31 08 2013  09 01  -20.9912 26017.8 -03483.3 -07.6255 26249.9
 31 08 2013  09 02  -20.9897 26017.7 -03483.3 -07.6255 26249.8
 31 08 2013  09 03  -20.9883 26017.6 -03483.4 -07.6257 26249.8
 31 08 2013  09 04  -20.9869 26017.7 -03483.6 -07.6261 26249.9
 31 08 2013  09 05  -20.9856 26017.7 -03483.7 -07.6265 26249.9
 31 08 2013  09 06  -20.9843 26017.7 -03484.0 -07.6270 26250.0
 31 08 2013  09 07  -20.9831 26017.9 -03484.3 -07.6276 26250.2
 31 08 2013  09 08  -20.9822 26018.3 -03484.7 -07.6284 26250.6
 31 08 2013  09 09  -20.9819 26018.6 -03485.1 -07.6292 26250.9
 31 08 2013  09 10  -20.9809 26018.8 -03485.5 -07.6298 26251.2
 31 08 2013  09 11  -20.9798 26019.1 -03485.8 -07.6305 26251.5
 31 08 2013  09 12  -20.9794 26019.2 -03486.1 -07.6311 26251.7
 31 08 2013  09 13  -20.9787 26019.0 -03486.2 -07.6314 26251.5
 31 08 2013  09 14  -20.9778 26018.8 -03486.3 -07.6316 26251.3
 31 08 2013  09 15  -20.9775 26018.7 -03486.5 -07.6320 26251.3
 31 08 2013  09 16  -20.9768 26018.7 -03486.6 -07.6324 26251.3
 31 08 2013  09 17  -20.9757 26018.7 -03486.8 -07.6328 26251.3
 31 08 2013  09 18  -20.9746 26018.7 -03487.0 -07.6332 26251.3
 31 08 2013  09 19  -20.9737 26018.6 -03487.2 -07.6338 26251.3
 31 08 2013  09 20  -20.9721 26018.4 -03487.3 -07.6340 26251.1
 31 08 2013  09 21  -20.9704 26018.2 -03487.5 -07.6344 26250.9
 31 08 2013  09 22  -20.9681 26018.2 -03487.7 -07.6349 26250.9
 31 08 2013  09 23  -20.9668 26018.3 -03488.0 -07.6355 26251.1
 31 08 2013  09 24  -20.9663 26018.6 -03488.4 -07.6363 26251.4
 31 08 2013  09 25  -20.9664 26018.9 -03488.9 -07.6374 26251.8
 31 08 2013  09 26  -20.9664 26019.1 -03489.3 -07.6380 26252.0
 31 08 2013  09 27  -20.9658 26019.1 -03489.5 -07.6386 26252.0
 31 08 2013  09 28  -20.9644 26018.9 -03489.6 -07.6388 26251.9
 31 08 2013  09 29  -20.9638 26018.7 -03489.8 -07.6392 26251.7
 31 08 2013  09 30  -20.9637 26018.7 -03490.0 -07.6397 26251.7
 31 08 2013  09 31  -20.9633 26018.6 -03490.2 -07.6402 26251.6
 31 08 2013  09 32  -20.9624 26018.3 -03490.3 -07.6405 26251.4
 31 08 2013  09 33  -20.9611 26017.9 -03490.4 -07.6407 26251.0
 31 08 2013  09 34  -20.9603 26017.8 -03490.5 -07.6411 26250.9
 31 08 2013  09 35  -20.9599 26017.8 -03490.8 -07.6416 26250.9
 31 08 2013  09 36  -20.9601 26018.0 -03491.1 -07.6424 26251.1
 31 08 2013  09 37  -20.9606 26018.1 -03491.5 -07.6431 26251.3
 31 08 2013  09 38  -20.9606 26018.0 -03491.7 -07.6436 26251.3
 31 08 2013  09 39  -20.9601 26018.0 -03491.8 -07.6439 26251.3
 31 08 2013  09 40  -20.9601 26017.9 -03492.0 -07.6442 26251.2
 31 08 2013  09 41  -20.9604 26017.9 -03492.1 -07.6446 26251.2
 31 08 2013  09 42  -20.9608 26017.9 -03492.4 -07.6450 26251.2
 31 08 2013  09 43  -20.9606 26017.7 -03492.5 -07.6454 26251.1
 31 08 2013  09 44  -20.9614 26017.8 -03492.7 -07.6458 26251.2
 31 08 2013  09 45  -20.9620 26017.8 -03492.9 -07.6462 26251.2
 31 08 2013  09 46  -20.9621 26017.6 -03492.9 -07.6463 26251.0
 31 08 2013  09 47  -20.9620 26017.4 -03492.9 -07.6464 26250.8
 31 08 2013  09 48  -20.9617 26017.3 -03492.9 -07.6465 26250.7
 31 08 2013  09 49  -20.9619 26017.3 -03493.1 -07.6468 26250.8
 31 08 2013  09 50  -20.9623 26017.4 -03493.2 -07.6471 26250.8
 31 08 2013  09 51  -20.9621 26017.4 -03493.3 -07.6473 26250.8
 31 08 2013  09 52  -20.9618 26017.4 -03493.4 -07.6475 26250.9
 31 08 2013  09 53  -20.9616 26017.3 -03493.5 -07.6476 26250.8
 31 08 2013  09 54  -20.9608 26017.3 -03493.5 -07.6478 26250.8
 31 08 2013  09 55  -20.9602 26017.2 -03493.5 -07.6478 26250.7
 31 08 2013  09 56  -20.9608 26017.3 -03493.7 -07.6481 26250.8
 31 08 2013  09 57  -20.9614 26017.6 -03494.0 -07.6486 26251.2
 31 08 2013  09 58  -20.9613 26017.6 -03494.0 -07.6487 26251.2
 31 08 2013  09 59  -20.9609 26017.6 -03494.1 -07.6489 26251.2
 31 08 2013  10 00  -20.9608 26017.8 -03494.2 -07.6491 26251.4
 31 08 2013  10 01  -20.9606 26017.9 -03494.3 -07.6492 26251.4
 31 08 2013  10 02  -20.9608 26017.9 -03494.4 -07.6494 26251.5
 31 08 2013  10 03  -20.9614 26017.9 -03494.5 -07.6497 26251.5
 31 08 2013  10 04  -20.9614 26017.9 -03494.6 -07.6499 26251.5
 31 08 2013  10 05  -20.9610 26017.7 -03494.6 -07.6499 26251.3
 31 08 2013  10 06  -20.9606 26017.4 -03494.6 -07.6499 26251.1
 31 08 2013  10 07  -20.9603 26017.3 -03494.6 -07.6500 26250.9
 31 08 2013  10 08  -20.9606 26017.1 -03494.7 -07.6503 26250.7
 31 08 2013  10 09  -20.9610 26016.9 -03494.8 -07.6505 26250.5
 31 08 2013  10 10  -20.9615 26016.8 -03494.9 -07.6508 26250.5
 31 08 2013  10 11  -20.9621 26016.7 -03495.0 -07.6510 26250.4
 31 08 2013  10 12  -20.9625 26016.8 -03495.1 -07.6513 26250.6
 31 08 2013  10 13  -20.9631 26016.7 -03495.2 -07.6515 26250.5
 31 08 2013  10 14  -20.9636 26016.7 -03495.3 -07.6517 26250.5
 31 08 2013  10 15  -20.9642 26016.7 -03495.4 -07.6519 26250.4
 31 08 2013  10 16  -20.9643 26016.6 -03495.4 -07.6521 26250.3
 31 08 2013  10 17  -20.9648 26016.6 -03495.5 -07.6523 26250.4
 31 08 2013  10 18  -20.9655 26016.8 -03495.7 -07.6527 26250.6
 31 08 2013  10 19  -20.9658 26016.9 -03495.9 -07.6529 26250.8
 31 08 2013  10 20  -20.9660 26017.2 -03496.0 -07.6531 26251.0
 31 08 2013  10 21  -20.9664 26017.4 -03496.1 -07.6533 26251.3
 31 08 2013  10 22  -20.9671 26017.6 -03496.2 -07.6535 26251.4
 31 08 2013  10 23  -20.9680 26017.8 -03496.3 -07.6536 26251.7
 31 08 2013  10 24  -20.9685 26018.0 -03496.4 -07.6537 26251.8
 31 08 2013  10 25  -20.9687 26018.3 -03496.5 -07.6538 26252.2
 31 08 2013  10 26  -20.9690 26018.9 -03496.7 -07.6541 26252.8
 31 08 2013  10 27  -20.9697 26019.1 -03496.8 -07.6542 26253.0
 31 08 2013  10 28  -20.9699 26018.9 -03496.7 -07.6541 26252.8
 31 08 2013  10 29  -20.9700 26018.8 -03496.6 -07.6539 26252.7
 31 08 2013  10 30  -20.9702 26018.7 -03496.6 -07.6539 26252.6
 31 08 2013  10 31  -20.9705 26018.7 -03496.6 -07.6540 26252.6
 31 08 2013  10 32  -20.9708 26018.7 -03496.7 -07.6542 26252.6
 31 08 2013  10 33  -20.9716 26018.5 -03496.7 -07.6543 26252.4
 31 08 2013  10 34  -20.9727 26018.1 -03496.7 -07.6543 26252.0
 31 08 2013  10 35  -20.9747 26018.0 -03496.8 -07.6547 26251.9
 31 08 2013  10 36  -20.9768 26017.8 -03497.0 -07.6551 26251.8
 31 08 2013  10 37  -20.9781 26017.5 -03497.0 -07.6552 26251.4
 31 08 2013  10 38  -20.9790 26017.2 -03497.0 -07.6553 26251.2
 31 08 2013  10 39  -20.9803 26017.0 -03497.1 -07.6555 26250.9
 31 08 2013  10 40  -20.9821 26016.7 -03497.1 -07.6557 26250.7
 31 08 2013  10 41  -20.9836 26016.4 -03497.2 -07.6560 26250.4
 31 08 2013  10 42  -20.9848 26016.2 -03497.3 -07.6563 26250.2
 31 08 2013  10 43  -20.9855 26016.0 -03497.3 -07.6564 26250.0
 31 08 2013  10 44  -20.9862 26015.9 -03497.4 -07.6566 26249.9
 31 08 2013  10 45  -20.9869 26015.8 -03497.6 -07.6569 26249.8
 31 08 2013  10 46  -20.9876 26015.8 -03497.7 -07.6572 26249.9
 31 08 2013  10 47  -20.9881 26015.7 -03497.7 -07.6573 26249.7
 31 08 2013  10 48  -20.9888 26015.7 -03497.8 -07.6574 26249.7
 31 08 2013  10 49  -20.9893 26015.7 -03497.9 -07.6576 26249.8
 31 08 2013  10 50  -20.9897 26015.8 -03497.9 -07.6577 26249.9
 31 08 2013  10 51  -20.9902 26015.8 -03498.0 -07.6578 26249.9
 31 08 2013  10 52  -20.9908 26016.0 -03498.0 -07.6579 26250.1
 31 08 2013  10 53  -20.9912 26016.2 -03498.1 -07.6579 26250.3
 31 08 2013  10 54  -20.9919 26016.3 -03498.1 -07.6580 26250.4
 31 08 2013  10 55  -20.9927 26016.2 -03498.1 -07.6579 26250.3
 31 08 2013  10 56  -20.9933 26016.2 -03498.0 -07.6577 26250.3
 31 08 2013  10 57  -20.9939 26016.0 -03497.9 -07.6576 26250.1
 31 08 2013  10 58  -20.9944 26016.0 -03497.8 -07.6574 26250.1
 31 08 2013  10 59  -20.9947 26016.2 -03497.9 -07.6574 26250.3
 31 08 2013  11 00  -20.9949 26016.4 -03497.8 -07.6573 26250.5
 31 08 2013  11 01  -20.9953 26016.6 -03497.8 -07.6572 26250.6
 31 08 2013  11 02  -20.9958 26016.8 -03497.8 -07.6571 26250.9
 31 08 2013  11 03  -20.9966 26017.2 -03497.9 -07.6571 26251.2
 31 08 2013  11 04  -20.9975 26017.5 -03497.9 -07.6571 26251.6
 31 08 2013  11 05  -20.9981 26018.0 -03498.0 -07.6571 26252.1
 31 08 2013  11 06  -20.9986 26018.6 -03498.0 -07.6571 26252.7
 31 08 2013  11 07  -20.9996 26019.2 -03498.1 -07.6570 26253.3
 31 08 2013  11 08  -21.0010 26019.7 -03498.1 -07.6569 26253.8
 31 08 2013  11 09  -21.0021 26020.0 -03498.0 -07.6566 26254.1
 31 08 2013  11 10  -21.0025 26020.5 -03497.9 -07.6563 26254.6
 31 08 2013  11 11  -21.0029 26020.9 -03497.8 -07.6559 26255.0
 31 08 2013  11 12  -21.0033 26021.2 -03497.6 -07.6555 26255.2
 31 08 2013  11 13  -21.0041 26021.6 -03497.6 -07.6552 26255.6
 31 08 2013  11 14  -21.0050 26021.9 -03497.5 -07.6550 26255.9
 31 08 2013  11 15  -21.0058 26022.2 -03497.4 -07.6548 26256.2
 31 08 2013  11 16  -21.0067 26022.4 -03497.3 -07.6545 26256.3
 31 08 2013  11 17  -21.0077 26022.6 -03497.2 -07.6542 26256.6
 31 08 2013  11 18  -21.0083 26022.9 -03497.1 -07.6539 26256.8
 31 08 2013  11 19  -21.0086 26023.1 -03497.0 -07.6536 26257.1
 31 08 2013  11 20  -21.0091 26023.1 -03496.8 -07.6532 26257.0
 31 08 2013  11 21  -21.0103 26022.9 -03496.6 -07.6528 26256.8
 31 08 2013  11 22  -21.0119 26022.7 -03496.5 -07.6526 26256.6
 31 08 2013  11 23  -21.0131 26022.8 -03496.5 -07.6526 26256.7
 31 08 2013  11 24  -21.0144 26022.9 -03496.5 -07.6526 26256.7
 31 08 2013  11 25  -21.0157 26022.9 -03496.5 -07.6526 26256.8
 31 08 2013  11 26  -21.0164 26023.5 -03496.7 -07.6528 26257.4
 31 08 2013  11 27  -21.0166 26024.2 -03496.9 -07.6530 26258.1
 31 08 2013  11 28  -21.0171 26024.8 -03497.0 -07.6530 26258.7
 31 08 2013  11 29  -21.0172 26025.6 -03497.1 -07.6530 26259.5
 31 08 2013  11 30  -21.0165 26027.0 -03497.3 -07.6530 26261.0
 31 08 2013  11 31  -21.0158 26028.5 -03497.4 -07.6529 26262.4
 31 08 2013  11 32  -21.0148 26029.9 -03497.5 -07.6527 26263.8
 31 08 2013  11 33  -21.0135 26031.4 -03497.5 -07.6523 26265.3
 31 08 2013  11 34  -21.0126 26032.7 -03497.5 -07.6518 26266.6
 31 08 2013  11 35  -21.0123 26033.7 -03497.3 -07.6512 26267.6
 31 08 2013  11 36  -21.0121 26034.6 -03497.2 -07.6507 26268.5
 31 08 2013  11 37  -21.0127 26035.1 -03497.0 -07.6501 26268.9
 31 08 2013  11 38  -21.0138 26035.6 -03496.9 -07.6497 26269.4
 31 08 2013  11 39  -21.0148 26036.2 -03496.9 -07.6496 26270.0
 31 08 2013  11 40  -21.0157 26037.0 -03497.0 -07.6495 26270.8
 31 08 2013  11 41  -21.0171 26037.2 -03496.8 -07.6491 26271.0
 31 08 2013  11 42  -21.0183 26037.2 -03496.6 -07.6486 26270.9
 31 08 2013  11 43  -21.0193 26037.3 -03496.5 -07.6484 26271.0
 31 08 2013  11 44  -21.0205 26037.8 -03496.6 -07.6484 26271.5
 31 08 2013  11 45  -21.0235 26038.2 -03496.6 -07.6484 26271.9
 31 08 2013  11 46  -21.0214 26039.6 -03496.5 -07.6476 26273.3
 31 08 2013  11 47  -21.0229 26038.9 -03496.1 -07.6469 26272.6
 31 08 2013  11 48  -21.0241 26038.8 -03495.8 -07.6464 26272.4
 31 08 2013  11 49  -21.0256 26038.8 -03495.6 -07.6461 26272.4
 31 08 2013  11 50  -21.0266 26039.1 -03495.6 -07.6458 26272.7
 31 08 2013  11 51  -21.0277 26039.3 -03495.5 -07.6456 26272.9
 31 08 2013  11 52  -21.0289 26039.5 -03495.4 -07.6454 26273.0
 31 08 2013  11 53  -21.0300 26039.6 -03495.3 -07.6451 26273.2
 31 08 2013  11 54  -21.0312 26040.0 -03495.3 -07.6450 26273.5
 31 08 2013  11 55  -21.0323 26040.3 -03495.2 -07.6447 26273.8
 31 08 2013  11 56  -21.0333 26040.5 -03495.1 -07.6445 26274.1
 31 08 2013  11 57  -21.0344 26041.0 -03495.1 -07.6443 26274.5
 31 08 2013  11 58  -21.0356 26040.9 -03495.0 -07.6440 26274.4
 31 08 2013  11 59  -21.0367 26040.9 -03494.8 -07.6437 26274.4
 31 08 2013  12 00  -21.0382 26041.1 -03494.8 -07.6436 26274.6
 31 08 2013  12 01  -21.0396 26041.7 -03494.9 -07.6436 26275.1
 31 08 2013  12 02  -21.0407 26041.4 -03494.6 -07.6431 26274.8
 31 08 2013  12 03  -21.0421 26040.9 -03494.3 -07.6425 26274.3
 31 08 2013  12 04  -21.0433 26040.7 -03494.1 -07.6423 26274.1
 31 08 2013  12 05  -21.0447 26040.5 -03494.0 -07.6420 26273.8
 31 08 2013  12 06  -21.0466 26039.8 -03493.7 -07.6417 26273.1
 31 08 2013  12 07  -21.0477 26039.8 -03493.9 -07.6420 26273.1
 31 08 2013  12 08  -21.0491 26039.8 -03494.1 -07.6425 26273.2
 31 08 2013  12 09  -21.0503 26040.5 -03494.5 -07.6430 26273.9
 31 08 2013  12 10  -21.0515 26041.6 -03494.9 -07.6436 26275.1
 31 08 2013  12 11  -21.0524 26042.8 -03495.1 -07.6437 26276.3
 31 08 2013  12 12  -21.0530 26043.5 -03495.0 -07.6434 26277.0
 31 08 2013  12 13  -21.0533 26043.7 -03494.7 -07.6426 26277.2
 31 08 2013  12 14  -21.0541 26043.8 -03494.3 -07.6418 26277.1
 31 08 2013  12 15  -21.0551 26044.0 -03494.2 -07.6414 26277.4
 31 08 2013  12 16  -21.0560 26044.6 -03494.1 -07.6411 26277.9
 31 08 2013  12 17  -21.0571 26045.0 -03494.0 -07.6408 26278.3
 31 08 2013  12 18  -21.0585 26045.4 -03493.9 -07.6404 26278.7
 31 08 2013  12 19  -21.0602 26046.0 -03493.9 -07.6403 26279.3
 31 08 2013  12 20  -21.0616 26046.3 -03493.7 -07.6398 26279.5
 31 08 2013  12 21  -21.0624 26046.0 -03493.3 -07.6390 26279.2
 31 08 2013  12 22  -21.0630 26045.9 -03493.1 -07.6384 26279.1
 31 08 2013  12 23  -21.0636 26045.7 -03492.8 -07.6378 26278.9
 31 08 2013  12 24  -21.0644 26045.8 -03492.6 -07.6375 26278.9
 31 08 2013  12 25  -21.0651 26046.3 -03492.6 -07.6373 26279.4
 31 08 2013  12 26  -21.0660 26046.3 -03492.4 -07.6369 26279.4
 31 08 2013  12 27  -21.0669 26046.4 -03492.3 -07.6366 26279.5
 31 08 2013  12 28  -21.0678 26046.6 -03492.2 -07.6364 26279.7
 31 08 2013  12 29  -21.0687 26046.9 -03492.2 -07.6363 26279.9
 31 08 2013  12 30  -21.0693 26047.0 -03492.1 -07.6360 26280.1
 31 08 2013  12 31  -21.0700 26047.4 -03492.0 -07.6358 26280.4
 31 08 2013  12 32  -21.0706 26047.4 -03491.8 -07.6354 26280.4
 31 08 2013  12 33  -21.0715 26047.2 -03491.6 -07.6349 26280.2
 31 08 2013  12 34  -21.0726 26047.4 -03491.5 -07.6347 26280.3
 31 08 2013  12 35  -21.0736 26047.7 -03491.5 -07.6345 26280.6
 31 08 2013  12 36  -21.0748 26047.9 -03491.4 -07.6343 26280.8
 31 08 2013  12 37  -21.0762 26048.1 -03491.3 -07.6341 26281.0
 31 08 2013  12 38  -21.0774 26048.0 -03491.1 -07.6337 26280.9
 31 08 2013  12 39  -21.0791 26048.4 -03491.2 -07.6336 26281.3
 31 08 2013  12 40  -21.0808 26049.0 -03491.3 -07.6337 26281.9
 31 08 2013  12 41  -21.0820 26049.4 -03491.2 -07.6334 26282.3
 31 08 2013  12 42  -21.0833 26049.9 -03491.1 -07.6331 26282.8
 31 08 2013  12 43  -21.0843 26050.0 -03490.9 -07.6326 26282.9
 31 08 2013  12 44  -21.0852 26050.2 -03490.7 -07.6321 26283.0
 31 08 2013  12 45  -21.0863 26050.7 -03490.6 -07.6318 26283.5
 31 08 2013  12 46  -21.0875 26051.0 -03490.5 -07.6315 26283.8
 31 08 2013  12 47  -21.0882 26051.0 -03490.3 -07.6310 26283.7
 31 08 2013  12 48  -21.0892 26050.7 -03490.1 -07.6306 26283.4
 31 08 2013  12 49  -21.0904 26050.4 -03489.8 -07.6302 26283.1
 31 08 2013  12 50  -21.0915 26050.2 -03489.7 -07.6299 26282.9
 31 08 2013  12 51  -21.0925 26050.2 -03489.7 -07.6298 26282.9
 31 08 2013  12 52  -21.0933 26050.3 -03489.6 -07.6297 26283.0
 31 08 2013  12 53  -21.0941 26050.4 -03489.5 -07.6295 26283.1
 31 08 2013  12 54  -21.0954 26050.1 -03489.3 -07.6292 26282.8
 31 08 2013  12 55  -21.0967 26050.1 -03489.2 -07.6289 26282.8
 31 08 2013  12 56  -21.0974 26051.0 -03489.4 -07.6290 26283.7
 31 08 2013  12 57  -21.0979 26052.0 -03489.6 -07.6291 26284.7
 31 08 2013  12 58  -21.0982 26052.7 -03489.5 -07.6288 26285.3
 31 08 2013  12 59  -21.0987 26053.1 -03489.4 -07.6284 26285.7
 31 08 2013  13 00  -21.0996 26053.7 -03489.3 -07.6281 26286.4
 31 08 2013  13 01  -21.1005 26054.1 -03489.1 -07.6275 26286.7
 31 08 2013  13 02  -21.1014 26054.2 -03488.8 -07.6268 26286.7
 31 08 2013  13 03  -21.1021 26053.5 -03488.3 -07.6258 26286.0
 31 08 2013  13 04  -21.1018 26052.9 -03487.8 -07.6250 26285.3
 31 08 2013  13 05  -21.1021 26053.6 -03488.0 -07.6253 26286.0
 31 08 2013  13 06  -21.1027 26054.1 -03488.1 -07.6254 26286.6
 31 08 2013  13 07  -21.1031 26054.0 -03487.9 -07.6249 26286.5
 31 08 2013  13 08  -21.1036 26054.3 -03487.8 -07.6246 26286.7
 31 08 2013  13 09  -21.1044 26054.5 -03487.7 -07.6244 26286.9
 31 08 2013  13 10  -21.1049 26054.5 -03487.5 -07.6240 26286.8
 31 08 2013  13 11  -21.1049 26053.9 -03487.2 -07.6235 26286.2
 31 08 2013  13 12  -21.1048 26054.0 -03487.2 -07.6235 26286.4
 31 08 2013  13 13  -21.1051 26055.2 -03487.6 -07.6240 26287.6
 31 08 2013  13 14  -21.1057 26056.5 -03488.0 -07.6244 26288.9
 31 08 2013  13 15  -21.1064 26056.9 -03487.9 -07.6242 26289.3
 31 08 2013  13 16  -21.1064 26056.7 -03487.6 -07.6235 26289.0
 31 08 2013  13 17  -21.1066 26056.1 -03487.2 -07.6229 26288.4
 31 08 2013  13 18  -21.1066 26055.5 -03487.0 -07.6226 26287.8
 31 08 2013  13 19  -21.1069 26055.1 -03487.0 -07.6227 26287.4
 31 08 2013  13 20  -21.1075 26055.1 -03487.1 -07.6230 26287.4
 31 08 2013  13 21  -21.1078 26055.4 -03487.3 -07.6232 26287.7
 31 08 2013  13 22  -21.1078 26055.4 -03487.3 -07.6233 26287.7
 31 08 2013  13 23  -21.1069 26055.4 -03487.3 -07.6233 26287.7
 31 08 2013  13 24  -21.1062 26055.4 -03487.4 -07.6234 26287.7
 31 08 2013  13 25  -21.1055 26055.9 -03487.7 -07.6239 26288.3
 31 08 2013  13 26  -21.1049 26056.3 -03487.9 -07.6242 26288.7
 31 08 2013  13 27  -21.1043 26056.0 -03487.8 -07.6242 26288.4
 31 08 2013  13 28  -21.1048 26055.7 -03487.8 -07.6243 26288.1
 31 08 2013  13 29  -21.1070 26056.2 -03488.2 -07.6249 26288.6
 31 08 2013  13 30  -21.1095 26057.1 -03488.6 -07.6256 26289.6
 31 08 2013  13 31  -21.1111 26056.9 -03488.5 -07.6253 26289.4
 31 08 2013  13 32  -21.1113 26055.8 -03487.9 -07.6244 26288.2
 31 08 2013  13 33  -21.1110 26054.2 -03487.3 -07.6235 26286.6
 31 08 2013  13 34  -21.1110 26053.5 -03487.2 -07.6236 26285.8
 31 08 2013  13 35  -21.1117 26053.4 -03487.5 -07.6244 26285.8
 31 08 2013  13 36  -21.1125 26054.0 -03488.1 -07.6253 26286.5
 31 08 2013  13 37  -21.1132 26054.6 -03488.5 -07.6260 26287.1
 31 08 2013  13 38  -21.1140 26055.0 -03488.7 -07.6263 26287.5
 31 08 2013  13 39  -21.1150 26055.3 -03488.8 -07.6265 26287.9
 31 08 2013  13 40  -21.1152 26055.6 -03488.8 -07.6263 26288.1
 31 08 2013  13 41  -21.1148 26056.5 -03489.0 -07.6265 26289.0
 31 08 2013  13 42  -21.1147 26057.8 -03489.3 -07.6268 26290.3
 31 08 2013  13 43  -21.1146 26058.9 -03489.4 -07.6268 26291.5
 31 08 2013  13 44  -21.1149 26059.6 -03489.3 -07.6264 26292.1
 31 08 2013  13 45  -21.1149 26059.6 -03489.0 -07.6257 26292.1
 31 08 2013  13 46  -21.1149 26059.6 -03488.7 -07.6250 26292.1
 31 08 2013  13 47  -21.1149 26059.4 -03488.3 -07.6244 26291.8
 31 08 2013  13 48  -21.1152 26059.5 -03488.2 -07.6241 26292.0
 31 08 2013  13 49  -21.1154 26060.0 -03488.2 -07.6239 26292.4
 31 08 2013  13 50  -21.1158 26060.9 -03488.4 -07.6241 26293.3
 31 08 2013  13 51  -21.1166 26061.4 -03488.4 -07.6239 26293.8
 31 08 2013  13 52  -21.1169 26061.7 -03488.3 -07.6236 26294.1
 31 08 2013  13 53  -21.1170 26061.8 -03488.1 -07.6231 26294.2
 31 08 2013  13 54  -21.1170 26061.9 -03488.0 -07.6228 26294.3
 31 08 2013  13 55  -21.1166 26062.0 -03487.9 -07.6226 26294.4
 31 08 2013  13 56  -21.1165 26062.2 -03488.0 -07.6227 26294.6
 31 08 2013  13 57  -21.1166 26062.4 -03488.0 -07.6227 26294.8
 31 08 2013  13 58  -21.1165 26062.6 -03488.0 -07.6228 26295.0
 31 08 2013  13 59  -21.1165 26062.7 -03488.1 -07.6228 26295.1
 31 08 2013  14 00  -21.1163 26063.2 -03488.2 -07.6229 26295.6
 31 08 2013  14 01  -21.1162 26063.8 -03488.3 -07.6231 26296.2
 31 08 2013  14 02  -21.1160 26064.0 -03488.3 -07.6230 26296.4
 31 08 2013  14 03  -21.1157 26063.9 -03488.2 -07.6228 26296.3
 31 08 2013  14 04  -21.1158 26064.2 -03488.3 -07.6229 26296.6
 31 08 2013  14 05  -21.1162 26064.9 -03488.5 -07.6232 26297.3
 31 08 2013  14 06  -21.1165 26065.3 -03488.6 -07.6232 26297.7
 31 08 2013  14 07  -21.1168 26065.7 -03488.7 -07.6232 26298.1
 31 08 2013  14 08  -21.1173 26066.2 -03488.7 -07.6232 26298.6
 31 08 2013  14 09  -21.1178 26066.8 -03488.9 -07.6233 26299.3
 31 08 2013  14 10  -21.1177 26067.3 -03488.9 -07.6232 26299.8
 31 08 2013  14 11  -21.1176 26067.7 -03488.8 -07.6230 26300.1
 31 08 2013  14 12  -21.1175 26068.0 -03488.8 -07.6228 26300.4
 31 08 2013  14 13  -21.1175 26068.3 -03488.7 -07.6226 26300.8
 31 08 2013  14 14  -21.1176 26069.0 -03488.8 -07.6226 26301.4
 31 08 2013  14 15  -21.1175 26069.5 -03488.8 -07.6225 26301.9
 31 08 2013  14 16  -21.1179 26070.0 -03488.8 -07.6223 26302.4
 31 08 2013  14 17  -21.1180 26070.2 -03488.7 -07.6220 26302.6
 31 08 2013  14 18  -21.1180 26070.5 -03488.6 -07.6217 26302.9
 31 08 2013  14 19  -21.1181 26071.0 -03488.6 -07.6215 26303.4
 31 08 2013  14 20  -21.1178 26071.5 -03488.5 -07.6212 26303.8
 31 08 2013  14 21  -21.1178 26071.9 -03488.4 -07.6209 26304.2
 31 08 2013  14 22  -21.1177 26072.4 -03488.4 -07.6206 26304.7
 31 08 2013  14 23  -21.1179 26073.2 -03488.4 -07.6205 26305.5
 31 08 2013  14 24  -21.1182 26074.0 -03488.4 -07.6202 26306.3
 31 08 2013  14 25  -21.1185 26074.4 -03488.2 -07.6196 26306.7
 31 08 2013  14 26  -21.1188 26074.8 -03488.0 -07.6191 26307.0
 31 08 2013  14 27  -21.1191 26074.9 -03487.7 -07.6184 26307.1
 31 08 2013  14 28  -21.1191 26074.4 -03487.1 -07.6174 26306.5
 31 08 2013  14 29  -21.1188 26073.6 -03486.6 -07.6164 26305.7
 31 08 2013  14 30  -21.1186 26073.3 -03486.3 -07.6159 26305.4
 31 08 2013  14 31  -21.1188 26073.3 -03486.2 -07.6158 26305.3
 31 08 2013  14 32  -21.1192 26073.1 -03486.1 -07.6156 26305.1
 31 08 2013  14 33  -21.1194 26072.9 -03486.0 -07.6154 26304.9
 31 08 2013  14 34  -21.1195 26072.6 -03485.9 -07.6152 26304.6
 31 08 2013  14 35  -21.1194 26072.4 -03485.8 -07.6150 26304.3
 31 08 2013  14 36  -21.1197 26072.5 -03485.9 -07.6152 26304.5
 31 08 2013  14 37  -21.1201 26072.6 -03485.8 -07.6151 26304.6
 31 08 2013  14 38  -21.1204 26072.6 -03485.8 -07.6150 26304.6
 31 08 2013  14 39  -21.1200 26072.7 -03485.7 -07.6147 26304.7
 31 08 2013  14 40  -21.1196 26072.7 -03485.5 -07.6145 26304.6
 31 08 2013  14 41  -21.1192 26072.8 -03485.5 -07.6143 26304.7
 31 08 2013  14 42  -21.1184 26072.7 -03485.4 -07.6141 26304.7
 31 08 2013  14 43  -21.1176 26072.7 -03485.3 -07.6138 26304.6
 31 08 2013  14 44  -21.1173 26072.7 -03485.1 -07.6135 26304.6
 31 08 2013  14 45  -21.1168 26072.6 -03484.9 -07.6130 26304.5
 31 08 2013  14 46  -21.1162 26072.7 -03484.7 -07.6125 26304.6
 31 08 2013  14 47  -21.1152 26072.7 -03484.4 -07.6121 26304.5
 31 08 2013  14 48  -21.1141 26072.7 -03484.1 -07.6114 26304.5
 31 08 2013  14 49  -21.1128 26072.7 -03483.9 -07.6108 26304.5
 31 08 2013  14 50  -21.1120 26073.0 -03483.7 -07.6104 26304.7
 31 08 2013  14 51  -21.1107 26073.4 -03483.7 -07.6102 26305.1
 31 08 2013  14 52  -21.1097 26073.8 -03483.5 -07.6097 26305.5
 31 08 2013  14 53  -21.1086 26074.1 -03483.3 -07.6092 26305.7
 31 08 2013  14 54  -21.1069 26074.3 -03483.1 -07.6087 26305.9
 31 08 2013  14 55  -21.1054 26074.1 -03482.7 -07.6080 26305.7
 31 08 2013  14 56  -21.1039 26074.1 -03482.5 -07.6074 26305.6
 31 08 2013  14 57  -21.1024 26074.0 -03482.3 -07.6070 26305.5
 31 08 2013  14 58  -21.1007 26073.8 -03482.0 -07.6064 26305.3
 31 08 2013  14 59  -21.0993 26073.6 -03481.8 -07.6061 26305.1
 31 08 2013  15 00  -21.0978 26073.6 -03481.6 -07.6058 26305.0
 31 08 2013  15 01  -21.0964 26073.6 -03481.6 -07.6056 26305.1
 31 08 2013  15 02  -21.0950 26073.5 -03481.4 -07.6053 26304.9
 31 08 2013  15 03  -21.0936 26073.5 -03481.3 -07.6051 26304.9
 31 08 2013  15 04  -21.0923 26073.6 -03481.3 -07.6050 26304.9
 31 08 2013  15 05  -21.0912 26073.7 -03481.2 -07.6048 26305.1
 31 08 2013  15 06  -21.0900 26073.9 -03481.2 -07.6047 26305.3
 31 08 2013  15 07  -21.0890 26074.2 -03481.2 -07.6046 26305.6
 31 08 2013  15 08  -21.0878 26074.2 -03481.1 -07.6044 26305.6
 31 08 2013  15 09  -21.0862 26074.3 -03481.0 -07.6042 26305.7
 31 08 2013  15 10  -21.0849 26074.4 -03480.9 -07.6040 26305.7
 31 08 2013  15 11  -21.0835 26074.3 -03480.8 -07.6037 26305.6
 31 08 2013  15 12  -21.0822 26074.1 -03480.6 -07.6035 26305.4
 31 08 2013  15 13  -21.0811 26073.9 -03480.6 -07.6035 26305.2
 31 08 2013  15 14  -21.0801 26073.6 -03480.5 -07.6033 26304.9
 31 08 2013  15 15  -21.0790 26073.1 -03480.3 -07.6030 26304.4
 31 08 2013  15 16  -21.0777 26072.4 -03480.1 -07.6027 26303.7
 31 08 2013  15 17  -21.0761 26071.6 -03479.8 -07.6025 26302.8
 31 08 2013  15 18  -21.0748 26071.0 -03479.8 -07.6025 26302.2
 31 08 2013  15 19  -21.0740 26070.6 -03479.9 -07.6028 26301.8
 31 08 2013  15 20  -21.0735 26070.8 -03480.2 -07.6034 26302.1
 31 08 2013  15 21  -21.0728 26071.1 -03480.3 -07.6037 26302.4
 31 08 2013  15 22  -21.0721 26071.5 -03480.6 -07.6041 26302.8
 31 08 2013  15 23  -21.0710 26071.6 -03480.6 -07.6042 26302.9
 31 08 2013  15 24  -21.0696 26072.1 -03480.8 -07.6044 26303.4
 31 08 2013  15 25  -21.0689 26072.8 -03481.1 -07.6048 26304.1
 31 08 2013  15 26  -21.0683 26073.3 -03481.2 -07.6050 26304.7
 31 08 2013  15 27  -21.0677 26073.8 -03481.3 -07.6049 26305.1
 31 08 2013  15 28  -21.0663 26073.9 -03481.2 -07.6048 26305.3
 31 08 2013  15 29  -21.0648 26074.1 -03481.2 -07.6047 26305.5
 31 08 2013  15 30  -21.0640 26074.4 -03481.3 -07.6049 26305.8
 31 08 2013  15 31  -21.0629 26074.2 -03481.2 -07.6047 26305.6
 31 08 2013  15 32  -21.0616 26073.9 -03481.2 -07.6047 26305.2
 31 08 2013  15 33  -21.0598 26073.6 -03481.2 -07.6049 26305.0
 31 08 2013  15 34  -21.0581 26073.0 -03481.3 -07.6051 26304.4
 31 08 2013  15 35  -21.0569 26072.4 -03481.3 -07.6054 26303.8
 31 08 2013  15 36  -21.0561 26071.6 -03481.3 -07.6057 26303.0
 31 08 2013  15 37  -21.0549 26070.7 -03481.4 -07.6061 26302.1
 31 08 2013  15 38  -21.0543 26070.0 -03481.6 -07.6067 26301.5
 31 08 2013  15 39  -21.0539 26069.3 -03481.8 -07.6073 26300.8
 31 08 2013  15 40  -21.0535 26068.5 -03481.9 -07.6078 26300.0
 31 08 2013  15 41  -21.0530 26067.8 -03482.0 -07.6083 26299.3
 31 08 2013  15 42  -21.0526 26067.2 -03482.3 -07.6090 26298.7
 31 08 2013  15 43  -21.0521 26066.6 -03482.5 -07.6096 26298.2
 31 08 2013  15 44  -21.0521 26066.4 -03482.8 -07.6104 26298.0
 31 08 2013  15 45  -21.0521 26066.4 -03483.1 -07.6111 26298.0
 31 08 2013  15 46  -21.0517 26066.2 -03483.4 -07.6116 26298.0
 31 08 2013  15 47  -21.0512 26066.0 -03483.4 -07.6119 26297.7
 31 08 2013  15 48  -21.0506 26065.4 -03483.4 -07.6119 26297.2
 31 08 2013  15 49  -21.0504 26065.1 -03483.5 -07.6122 26296.9
 31 08 2013  15 50  -21.0500 26064.8 -03483.6 -07.6125 26296.5
 31 08 2013  15 51  -21.0495 26064.3 -03483.6 -07.6127 26296.1
 31 08 2013  15 52  -21.0490 26063.6 -03483.6 -07.6128 26295.4
 31 08 2013  15 53  -21.0485 26063.0 -03483.6 -07.6130 26294.8
 31 08 2013  15 54  -21.0482 26062.3 -03483.5 -07.6131 26294.1
 31 08 2013  15 55  -21.0477 26061.5 -03483.5 -07.6133 26293.3
 31 08 2013  15 56  -21.0474 26060.9 -03483.6 -07.6136 26292.7
 31 08 2013  15 57  -21.0473 26060.3 -03483.7 -07.6139 26292.1
 31 08 2013  15 58  -21.0470 26059.8 -03483.7 -07.6142 26291.6
 31 08 2013  15 59  -21.0467 26059.5 -03483.8 -07.6145 26291.3
 31 08 2013  16 00  -21.0467 26059.2 -03484.0 -07.6150 26291.1
 31 08 2013  16 01  -21.0466 26059.1 -03484.2 -07.6154 26291.0
 31 08 2013  16 02  -21.0466 26059.0 -03484.3 -07.6156 26290.9
 31 08 2013  16 03  -21.0465 26058.6 -03484.3 -07.6158 26290.5
 31 08 2013  16 04  -21.0462 26058.2 -03484.3 -07.6159 26290.1
 31 08 2013  16 05  -21.0458 26057.9 -03484.3 -07.6160 26289.8
 31 08 2013  16 06  -21.0454 26057.6 -03484.3 -07.6161 26289.5
 31 08 2013  16 07  -21.0450 26057.3 -03484.3 -07.6162 26289.2
 31 08 2013  16 08  -21.0444 26056.9 -03484.3 -07.6164 26288.9
 31 08 2013  16 09  -21.0437 26056.6 -03484.3 -07.6165 26288.5
 31 08 2013  16 10  -21.0431 26056.3 -03484.4 -07.6167 26288.2
 31 08 2013  16 11  -21.0425 26056.1 -03484.5 -07.6169 26288.0
 31 08 2013  16 12  -21.0421 26056.1 -03484.7 -07.6174 26288.0
 31 08 2013  16 13  -21.0414 26056.0 -03484.8 -07.6177 26288.0
 31 08 2013  16 14  -21.0409 26056.0 -03484.9 -07.6179 26288.0
 31 08 2013  16 15  -21.0407 26056.1 -03485.1 -07.6182 26288.2
 31 08 2013  16 16  -21.0403 26056.1 -03485.1 -07.6183 26288.2
 31 08 2013  16 17  -21.0396 26055.8 -03485.0 -07.6182 26287.9
 31 08 2013  16 18  -21.0389 26055.5 -03485.0 -07.6182 26287.5
 31 08 2013  16 19  -21.0382 26055.0 -03484.9 -07.6181 26287.0
 31 08 2013  16 20  -21.0376 26054.5 -03484.8 -07.6181 26286.5
 31 08 2013  16 21  -21.0370 26054.1 -03484.8 -07.6182 26286.1
 31 08 2013  16 22  -21.0363 26053.6 -03484.8 -07.6183 26285.6
 31 08 2013  16 23  -21.0354 26053.0 -03484.7 -07.6183 26285.0
 31 08 2013  16 24  -21.0350 26052.5 -03484.7 -07.6184 26284.5
 31 08 2013  16 25  -21.0343 26052.2 -03484.8 -07.6187 26284.2
 31 08 2013  16 26  -21.0339 26052.0 -03484.9 -07.6190 26284.0
 31 08 2013  16 27  -21.0336 26051.8 -03485.0 -07.6192 26283.8
 31 08 2013  16 28  -21.0332 26051.7 -03485.0 -07.6195 26283.7
 31 08 2013  16 29  -21.0328 26051.4 -03485.1 -07.6196 26283.4
 31 08 2013  16 30  -21.0323 26051.2 -03485.1 -07.6197 26283.3
 31 08 2013  16 31  -21.0323 26051.1 -03485.3 -07.6201 26283.2
 31 08 2013  16 32  -21.0322 26050.9 -03485.3 -07.6203 26283.0
 31 08 2013  16 33  -21.0321 26050.8 -03485.5 -07.6206 26283.0
 31 08 2013  16 34  -21.0321 26050.8 -03485.6 -07.6209 26283.0
 31 08 2013  16 35  -21.0318 26050.9 -03485.7 -07.6211 26283.0
 31 08 2013  16 36  -21.0318 26050.9 -03485.8 -07.6213 26283.1
 31 08 2013  16 37  -21.0317 26050.7 -03485.8 -07.6214 26282.9
 31 08 2013  16 38  -21.0314 26050.4 -03485.8 -07.6214 26282.6
 31 08 2013  16 39  -21.0312 26050.0 -03485.7 -07.6213 26282.2
 31 08 2013  16 40  -21.0311 26049.7 -03485.7 -07.6214 26281.9
 31 08 2013  16 41  -21.0316 26049.6 -03485.7 -07.6214 26281.7
 31 08 2013  16 42  -21.0318 26049.5 -03485.8 -07.6216 26281.7
 31 08 2013  16 43  -21.0320 26049.2 -03485.7 -07.6216 26281.4
 31 08 2013  16 44  -21.0319 26048.8 -03485.6 -07.6215 26281.0
 31 08 2013  16 45  -21.0318 26048.3 -03485.5 -07.6214 26280.4
 31 08 2013  16 46  -21.0313 26047.5 -03485.4 -07.6213 26279.6
 31 08 2013  16 47  -21.0309 26046.8 -03485.3 -07.6214 26278.9
 31 08 2013  16 48  -21.0310 26046.3 -03485.3 -07.6216 26278.5
 31 08 2013  16 49  -21.0313 26045.9 -03485.4 -07.6219 26278.1
 31 08 2013  16 50  -21.0314 26045.4 -03485.4 -07.6220 26277.5
 31 08 2013  16 51  -21.0317 26044.9 -03485.4 -07.6222 26277.1
 31 08 2013  16 52  -21.0319 26044.4 -03485.4 -07.6224 26276.6
 31 08 2013  16 53  -21.0321 26044.0 -03485.4 -07.6225 26276.2
 31 08 2013  16 54  -21.0324 26043.6 -03485.5 -07.6227 26275.8
 31 08 2013  16 55  -21.0327 26043.2 -03485.5 -07.6228 26275.4
 31 08 2013  16 56  -21.0326 26042.8 -03485.5 -07.6230 26275.0
 31 08 2013  16 57  -21.0326 26042.6 -03485.6 -07.6232 26274.8
 31 08 2013  16 58  -21.0327 26042.4 -03485.7 -07.6236 26274.6
 31 08 2013  16 59  -21.0327 26042.0 -03485.8 -07.6238 26274.2
 31 08 2013  17 00  -21.0326 26041.5 -03485.8 -07.6240 26273.7
 31 08 2013  17 01  -21.0324 26041.0 -03485.8 -07.6242 26273.3
 31 08 2013  17 02  -21.0326 26040.8 -03486.1 -07.6248 26273.1
 31 08 2013  17 03  -21.0330 26040.8 -03486.3 -07.6253 26273.1
 31 08 2013  17 04  -21.0336 26040.9 -03486.6 -07.6259 26273.2
 31 08 2013  17 05  -21.0339 26040.7 -03486.7 -07.6262 26273.0
 31 08 2013  17 06  -21.0339 26040.3 -03486.7 -07.6264 26272.7
 31 08 2013  17 07  -21.0340 26040.1 -03486.9 -07.6267 26272.5
 31 08 2013  17 08  -21.0345 26039.9 -03487.0 -07.6271 26272.3
 31 08 2013  17 09  -21.0349 26039.6 -03487.1 -07.6275 26272.0
 31 08 2013  17 10  -21.0353 26039.3 -03487.2 -07.6278 26271.7
 31 08 2013  17 11  -21.0354 26038.7 -03487.2 -07.6279 26271.2
 31 08 2013  17 12  -21.0353 26038.1 -03487.2 -07.6280 26270.5
 31 08 2013  17 13  -21.0353 26037.4 -03487.2 -07.6283 26269.9
 31 08 2013  17 14  -21.0351 26036.8 -03487.3 -07.6286 26269.3
 31 08 2013  17 15  -21.0349 26036.4 -03487.5 -07.6291 26268.9
 31 08 2013  17 16  -21.0352 26036.2 -03487.8 -07.6298 26268.8
 31 08 2013  17 17  -21.0355 26036.0 -03488.0 -07.6304 26268.6
 31 08 2013  17 18  -21.0358 26035.8 -03488.3 -07.6310 26268.5
 31 08 2013  17 19  -21.0360 26035.6 -03488.5 -07.6315 26268.3
 31 08 2013  17 20  -21.0366 26035.5 -03488.7 -07.6320 26268.2
 31 08 2013  17 21  -21.0370 26035.1 -03488.7 -07.6322 26267.8
 31 08 2013  17 22  -21.0370 26034.8 -03488.8 -07.6324 26267.6
 31 08 2013  17 23  -21.0372 26034.8 -03489.0 -07.6329 26267.5
 31 08 2013  17 24  -21.0373 26034.7 -03489.1 -07.6332 26267.4
 31 08 2013  17 25  -21.0371 26034.5 -03489.2 -07.6335 26267.2
 31 08 2013  17 26  -21.0371 26034.1 -03489.3 -07.6336 26266.9
 31 08 2013  17 27  -21.0370 26033.7 -03489.3 -07.6339 26266.5
 31 08 2013  17 28  -21.0368 26033.3 -03489.4 -07.6341 26266.1
 31 08 2013  17 29  -21.0369 26033.1 -03489.5 -07.6345 26265.9
 31 08 2013  17 30  -21.0369 26032.9 -03489.7 -07.6349 26265.7
 31 08 2013  17 31  -21.0367 26032.6 -03489.7 -07.6351 26265.5
 31 08 2013  17 32  -21.0367 26032.2 -03489.8 -07.6354 26265.1
 31 08 2013  17 33  -21.0365 26031.7 -03489.8 -07.6354 26264.6
 31 08 2013  17 34  -21.0360 26031.1 -03489.7 -07.6355 26264.0
 31 08 2013  17 35  -21.0358 26030.8 -03489.9 -07.6359 26263.7
 31 08 2013  17 36  -21.0354 26030.7 -03490.0 -07.6362 26263.7
 31 08 2013  17 37  -21.0356 26031.0 -03490.4 -07.6369 26263.9
 31 08 2013  17 38  -21.0360 26031.3 -03490.7 -07.6375 26264.3
 31 08 2013  17 39  -21.0362 26031.5 -03490.8 -07.6377 26264.5
 31 08 2013  17 40  -21.0360 26031.5 -03490.8 -07.6377 26264.5
 31 08 2013  17 41  -21.0358 26031.4 -03490.7 -07.6376 26264.4
 31 08 2013  17 42  -21.0355 26031.3 -03490.7 -07.6376 26264.3
 31 08 2013  17 43  -21.0354 26031.1 -03490.7 -07.6375 26264.1
 31 08 2013  17 44  -21.0353 26030.9 -03490.5 -07.6373 26263.9
 31 08 2013  17 45  -21.0352 26030.7 -03490.4 -07.6372 26263.7
 31 08 2013  17 46  -21.0349 26030.5 -03490.3 -07.6369 26263.4
 31 08 2013  17 47  -21.0346 26030.3 -03490.2 -07.6368 26263.2
 31 08 2013  17 48  -21.0344 26030.1 -03490.1 -07.6367 26263.0
 31 08 2013  17 49  -21.0341 26029.9 -03490.1 -07.6366 26262.9
 31 08 2013  17 50  -21.0340 26029.8 -03490.0 -07.6365 26262.7
 31 08 2013  17 51  -21.0337 26029.7 -03489.9 -07.6363 26262.6
 31 08 2013  17 52  -21.0334 26029.6 -03489.8 -07.6361 26262.5
 31 08 2013  17 53  -21.0332 26029.4 -03489.7 -07.6360 26262.3
 31 08 2013  17 54  -21.0329 26029.4 -03489.7 -07.6359 26262.3
 31 08 2013  17 55  -21.0326 26029.5 -03489.6 -07.6357 26262.3
 31 08 2013  17 56  -21.0322 26029.4 -03489.5 -07.6355 26262.2
 31 08 2013  17 57  -21.0316 26029.2 -03489.3 -07.6353 26262.1
 31 08 2013  17 58  -21.0312 26029.0 -03489.2 -07.6351 26261.8
 31 08 2013  17 59  -21.0304 26028.9 -03489.2 -07.6349 26261.7
 31 08 2013  18 00  -21.0300 26028.8 -03489.1 -07.6348 26261.6
 31 08 2013  18 01  -21.0295 26028.8 -03489.1 -07.6348 26261.7
 31 08 2013  18 02  -21.0291 26028.9 -03489.1 -07.6348 26261.7
 31 08 2013  18 03  -21.0287 26029.0 -03489.1 -07.6348 26261.8
 31 08 2013  18 04  -21.0283 26028.8 -03489.0 -07.6347 26261.6
 31 08 2013  18 05  -21.0282 26028.9 -03489.0 -07.6347 26261.7
 31 08 2013  18 06  -21.0278 26028.9 -03489.0 -07.6346 26261.7
 31 08 2013  18 07  -21.0273 26028.7 -03488.8 -07.6343 26261.4
 31 08 2013  18 08  -21.0269 26028.5 -03488.7 -07.6340 26261.2
 31 08 2013  18 09  -21.0265 26028.3 -03488.6 -07.6338 26261.0
 31 08 2013  18 10  -21.0259 26028.0 -03488.5 -07.6337 26260.7
 31 08 2013  18 11  -21.0256 26027.8 -03488.5 -07.6338 26260.6
 31 08 2013  18 12  -21.0255 26027.8 -03488.5 -07.6337 26260.5
 31 08 2013  18 13  -21.0252 26027.5 -03488.3 -07.6336 26260.2
 31 08 2013  18 14  -21.0247 26027.3 -03488.2 -07.6334 26260.0
 31 08 2013  18 15  -21.0243 26027.1 -03488.2 -07.6334 26259.8
 31 08 2013  18 16  -21.0241 26027.1 -03488.3 -07.6335 26259.9
 31 08 2013  18 17  -21.0239 26027.2 -03488.3 -07.6335 26259.9
 31 08 2013  18 18  -21.0236 26027.1 -03488.2 -07.6335 26259.8
 31 08 2013  18 19  -21.0235 26026.9 -03488.1 -07.6333 26259.6
 31 08 2013  18 20  -21.0230 26026.5 -03488.0 -07.6331 26259.2
 31 08 2013  18 21  -21.0226 26026.2 -03487.9 -07.6329 26258.9
 31 08 2013  18 22  -21.0224 26026.1 -03487.9 -07.6330 26258.8
 31 08 2013  18 23  -21.0224 26026.1 -03487.9 -07.6331 26258.8
 31 08 2013  18 24  -21.0221 26025.9 -03487.9 -07.6330 26258.6
 31 08 2013  18 25  -21.0220 26025.7 -03487.8 -07.6330 26258.4
 31 08 2013  18 26  -21.0218 26025.5 -03487.8 -07.6329 26258.2
 31 08 2013  18 27  -21.0216 26025.3 -03487.7 -07.6328 26257.9
 31 08 2013  18 28  -21.0215 26025.0 -03487.6 -07.6326 26257.7
 31 08 2013  18 29  -21.0214 26024.8 -03487.5 -07.6325 26257.4
 31 08 2013  18 30  -21.0213 26024.5 -03487.4 -07.6324 26257.1
 31 08 2013  18 31  -21.0211 26024.2 -03487.3 -07.6323 26256.8
 31 08 2013  18 32  -21.0209 26024.0 -03487.3 -07.6323 26256.6
 31 08 2013  18 33  -21.0209 26024.0 -03487.3 -07.6324 26256.7
 31 08 2013  18 34  -21.0208 26023.8 -03487.2 -07.6321 26256.4
 31 08 2013  18 35  -21.0208 26023.6 -03487.1 -07.6320 26256.2
 31 08 2013  18 36  -21.0208 26023.3 -03487.0 -07.6319 26255.9
 31 08 2013  18 37  -21.0205 26023.1 -03486.9 -07.6317 26255.6
 31 08 2013  18 38  -21.0204 26022.9 -03486.8 -07.6317 26255.5
 31 08 2013  18 39  -21.0203 26022.7 -03486.8 -07.6316 26255.3
 31 08 2013  18 40  -21.0203 26022.6 -03486.7 -07.6314 26255.1
 31 08 2013  18 41  -21.0201 26022.3 -03486.6 -07.6312 26254.9
 31 08 2013  18 42  -21.0201 26022.1 -03486.5 -07.6311 26254.6
 31 08 2013  18 43  -21.0198 26021.9 -03486.4 -07.6310 26254.4
 31 08 2013  18 44  -21.0196 26021.8 -03486.4 -07.6309 26254.3
 31 08 2013  18 45  -21.0196 26021.6 -03486.3 -07.6309 26254.1
 31 08 2013  18 46  -21.0195 26021.4 -03486.3 -07.6308 26253.9
 31 08 2013  18 47  -21.0197 26021.5 -03486.3 -07.6309 26254.0
 31 08 2013  18 48  -21.0201 26021.5 -03486.3 -07.6309 26254.0
 31 08 2013  18 49  -21.0202 26021.4 -03486.2 -07.6307 26253.9
 31 08 2013  18 50  -21.0204 26021.3 -03486.1 -07.6305 26253.8
 31 08 2013  18 51  -21.0205 26021.4 -03486.0 -07.6303 26253.9
 31 08 2013  18 52  -21.0206 26021.6 -03486.0 -07.6303 26254.1
 31 08 2013  18 53  -21.0203 26021.6 -03485.9 -07.6301 26254.0
 31 08 2013  18 54  -21.0201 26021.4 -03485.8 -07.6299 26253.8
 31 08 2013  18 55  -21.0198 26021.2 -03485.7 -07.6296 26253.6
 31 08 2013  18 56  -21.0196 26021.2 -03485.6 -07.6295 26253.6
 31 08 2013  18 57  -21.0194 26021.3 -03485.6 -07.6295 26253.7
 31 08 2013  18 58  -21.0192 26021.2 -03485.6 -07.6294 26253.6
 31 08 2013  18 59  -21.0190 26021.1 -03485.5 -07.6293 26253.5
 31 08 2013  19 00  -21.0188 26020.8 -03485.4 -07.6291 26253.2
 31 08 2013  19 01  -21.0183 26020.7 -03485.3 -07.6290 26253.0
 31 08 2013  19 02  -21.0181 26020.6 -03485.3 -07.6291 26252.9
 31 08 2013  19 03  -21.0180 26020.6 -03485.4 -07.6292 26253.0
 31 08 2013  19 04  -21.0182 26020.5 -03485.4 -07.6291 26252.9
 31 08 2013  19 05  -21.0181 26020.0 -03485.1 -07.6287 26252.4
 31 08 2013  19 06  -21.0176 26019.6 -03484.9 -07.6285 26251.9
 31 08 2013  19 07  -21.0175 26019.4 -03484.9 -07.6285 26251.8
 31 08 2013  19 08  -21.0174 26019.3 -03484.9 -07.6285 26251.6
 31 08 2013  19 09  -21.0172 26019.1 -03484.8 -07.6283 26251.4
 31 08 2013  19 10  -21.0171 26019.0 -03484.7 -07.6282 26251.3
 31 08 2013  19 11  -21.0170 26018.8 -03484.7 -07.6282 26251.2
 31 08 2013  19 12  -21.0169 26018.7 -03484.6 -07.6281 26251.0
 31 08 2013  19 13  -21.0169 26018.8 -03484.7 -07.6282 26251.1
 31 08 2013  19 14  -21.0170 26018.9 -03484.7 -07.6281 26251.2
 31 08 2013  19 15  -21.0169 26019.0 -03484.6 -07.6281 26251.3
 31 08 2013  19 16  -21.0171 26019.2 -03484.7 -07.6281 26251.5
 31 08 2013  19 17  -21.0173 26019.5 -03484.7 -07.6281 26251.8
 31 08 2013  19 18  -21.0175 26019.7 -03484.7 -07.6279 26252.0
 31 08 2013  19 19  -21.0176 26019.7 -03484.5 -07.6276 26251.9
 31 08 2013  19 20  -21.0174 26019.5 -03484.4 -07.6272 26251.8
 31 08 2013  19 21  -21.0175 26019.4 -03484.2 -07.6270 26251.6
 31 08 2013  19 22  -21.0174 26019.2 -03484.1 -07.6267 26251.5
 31 08 2013  19 23  -21.0172 26019.2 -03483.9 -07.6264 26251.4
 31 08 2013  19 24  -21.0172 26019.1 -03483.9 -07.6263 26251.3
 31 08 2013  19 25  -21.0169 26018.9 -03483.7 -07.6260 26251.1
 31 08 2013  19 26  -21.0167 26018.7 -03483.5 -07.6257 26250.9
 31 08 2013  19 27  -21.0164 26018.6 -03483.4 -07.6255 26250.7
 31 08 2013  19 28  -21.0164 26018.6 -03483.4 -07.6254 26250.7
 31 08 2013  19 29  -21.0163 26018.6 -03483.3 -07.6253 26250.7
 31 08 2013  19 30  -21.0164 26018.5 -03483.2 -07.6251 26250.7
 31 08 2013  19 31  -21.0163 26018.4 -03483.1 -07.6249 26250.5
 31 08 2013  19 32  -21.0163 26018.3 -03483.0 -07.6247 26250.4
 31 08 2013  19 33  -21.0162 26018.2 -03482.9 -07.6246 26250.3
 31 08 2013  19 34  -21.0161 26018.1 -03482.9 -07.6245 26250.2
 31 08 2013  19 35  -21.0160 26018.2 -03482.9 -07.6244 26250.3
 31 08 2013  19 36  -21.0159 26018.4 -03483.0 -07.6246 26250.5
 31 08 2013  19 37  -21.0159 26018.7 -03483.0 -07.6246 26250.8
 31 08 2013  19 38  -21.0160 26019.0 -03483.1 -07.6247 26251.1
 31 08 2013  19 39  -21.0161 26019.3 -03483.1 -07.6247 26251.4
 31 08 2013  19 40  -21.0162 26019.5 -03483.2 -07.6247 26251.7
 31 08 2013  19 41  -21.0163 26019.7 -03483.2 -07.6246 26251.8
 31 08 2013  19 42  -21.0163 26019.8 -03483.1 -07.6245 26251.9
 31 08 2013  19 43  -21.0163 26019.8 -03483.0 -07.6242 26251.9
 31 08 2013  19 44  -21.0164 26019.8 -03482.9 -07.6240 26251.9
 31 08 2013  19 45  -21.0165 26019.8 -03482.8 -07.6239 26251.8
 31 08 2013  19 46  -21.0166 26019.7 -03482.7 -07.6237 26251.7
 31 08 2013  19 47  -21.0166 26019.6 -03482.6 -07.6234 26251.6
 31 08 2013  19 48  -21.0165 26019.4 -03482.5 -07.6232 26251.4
 31 08 2013  19 49  -21.0165 26019.4 -03482.4 -07.6231 26251.4
 31 08 2013  19 50  -21.0166 26019.3 -03482.3 -07.6229 26251.3
 31 08 2013  19 51  -21.0167 26019.4 -03482.3 -07.6228 26251.4
 31 08 2013  19 52  -21.0169 26019.6 -03482.3 -07.6228 26251.6
 31 08 2013  19 53  -21.0169 26019.7 -03482.3 -07.6227 26251.7
 31 08 2013  19 54  -21.0168 26019.7 -03482.1 -07.6224 26251.6
 31 08 2013  19 55  -21.0168 26019.8 -03482.2 -07.6224 26251.7
 31 08 2013  19 56  -21.0168 26019.9 -03482.2 -07.6224 26251.9
 31 08 2013  19 57  -21.0169 26020.1 -03482.2 -07.6225 26252.1
 31 08 2013  19 58  -21.0171 26020.3 -03482.2 -07.6225 26252.2
 31 08 2013  19 59  -21.0172 26020.3 -03482.2 -07.6224 26252.3
 31 08 2013  20 00  -21.0173 26020.3 -03482.2 -07.6223 26252.3
 31 08 2013  20 01  -21.0172 26020.3 -03482.1 -07.6221 26252.3
 31 08 2013  20 02  -21.0172 26020.3 -03482.0 -07.6220 26252.3
 31 08 2013  20 03  -21.0171 26020.4 -03482.0 -07.6219 26252.3
 31 08 2013  20 04  -21.0170 26020.4 -03481.9 -07.6218 26252.3
 31 08 2013  20 05  -21.0169 26020.4 -03481.9 -07.6217 26252.3
 31 08 2013  20 06  -21.0170 26020.5 -03481.9 -07.6216 26252.4
 31 08 2013  20 07  -21.0170 26020.4 -03481.7 -07.6214 26252.3
 31 08 2013  20 08  -21.0171 26020.3 -03481.6 -07.6211 26252.2
 31 08 2013  20 09  -21.0169 26020.1 -03481.5 -07.6208 26252.0
 31 08 2013  20 10  -21.0166 26020.0 -03481.4 -07.6208 26251.9
 31 08 2013  20 11  -21.0163 26020.0 -03481.4 -07.6206 26251.8
 31 08 2013  20 12  -21.0161 26020.1 -03481.4 -07.6207 26252.0
 31 08 2013  20 13  -21.0159 26020.2 -03481.4 -07.6207 26252.1
 31 08 2013  20 14  -21.0157 26020.4 -03481.5 -07.6208 26252.2
 31 08 2013  20 15  -21.0156 26020.5 -03481.5 -07.6209 26252.4
 31 08 2013  20 16  -21.0155 26020.5 -03481.5 -07.6208 26252.3
 31 08 2013  20 17  -21.0153 26020.4 -03481.4 -07.6207 26252.3
 31 08 2013  20 18  -21.0152 26020.2 -03481.3 -07.6204 26252.1
 31 08 2013  20 19  -21.0151 26020.3 -03481.2 -07.6203 26252.1
 31 08 2013  20 20  -21.0152 26020.3 -03481.2 -07.6201 26252.1
 31 08 2013  20 21  -21.0151 26020.2 -03481.1 -07.6200 26252.0
 31 08 2013  20 22  -21.0150 26020.1 -03481.0 -07.6199 26251.9
 31 08 2013  20 23  -21.0149 26019.9 -03480.9 -07.6197 26251.7
 31 08 2013  20 24  -21.0147 26019.8 -03480.8 -07.6195 26251.6
 31 08 2013  20 25  -21.0146 26019.7 -03480.8 -07.6194 26251.5
 31 08 2013  20 26  -21.0143 26019.6 -03480.7 -07.6193 26251.4
 31 08 2013  20 27  -21.0140 26019.6 -03480.6 -07.6192 26251.4
 31 08 2013  20 28  -21.0137 26019.5 -03480.6 -07.6192 26251.3
 31 08 2013  20 29  -21.0136 26019.5 -03480.6 -07.6192 26251.2
 31 08 2013  20 30  -21.0133 26019.5 -03480.6 -07.6192 26251.2
 31 08 2013  20 31  -21.0131 26019.6 -03480.7 -07.6193 26251.4
 31 08 2013  20 32  -21.0129 26019.6 -03480.7 -07.6193 26251.4
 31 08 2013  20 33  -21.0126 26019.7 -03480.7 -07.6194 26251.4
 31 08 2013  20 34  -21.0125 26019.8 -03480.8 -07.6195 26251.5
 31 08 2013  20 35  -21.0123 26019.9 -03480.9 -07.6196 26251.7
 31 08 2013  20 36  -21.0122 26020.0 -03480.9 -07.6197 26251.8
 31 08 2013  20 37  -21.0120 26020.1 -03480.9 -07.6197 26251.9
 31 08 2013  20 38  -21.0118 26020.0 -03480.9 -07.6197 26251.9
 31 08 2013  20 39  -21.0116 26020.0 -03480.9 -07.6196 26251.8
 31 08 2013  20 40  -21.0114 26019.9 -03480.9 -07.6196 26251.7
 31 08 2013  20 41  -21.0112 26019.9 -03480.9 -07.6197 26251.7
 31 08 2013  20 42  -21.0110 26020.1 -03481.0 -07.6199 26251.9
 31 08 2013  20 43  -21.0109 26020.3 -03481.1 -07.6200 26252.1
 31 08 2013  20 44  -21.0110 26020.4 -03481.2 -07.6202 26252.2
 31 08 2013  20 45  -21.0107 26020.5 -03481.3 -07.6203 26252.3
 31 08 2013  20 46  -21.0107 26020.7 -03481.3 -07.6204 26252.5
 31 08 2013  20 47  -21.0107 26020.8 -03481.4 -07.6206 26252.7
 31 08 2013  20 48  -21.0107 26021.0 -03481.5 -07.6207 26252.9
 31 08 2013  20 49  -21.0107 26021.0 -03481.5 -07.6207 26252.9
 31 08 2013  20 50  -21.0107 26021.0 -03481.5 -07.6207 26252.9
 31 08 2013  20 51  -21.0106 26020.8 -03481.4 -07.6205 26252.7
 31 08 2013  20 52  -21.0105 26020.7 -03481.3 -07.6204 26252.6
 31 08 2013  20 53  -21.0103 26020.6 -03481.3 -07.6203 26252.5
 31 08 2013  20 54  -21.0102 26020.6 -03481.3 -07.6203 26252.5
 31 08 2013  20 55  -21.0101 26020.7 -03481.4 -07.6204 26252.6
 31 08 2013  20 56  -21.0100 26020.8 -03481.4 -07.6206 26252.6
 31 08 2013  20 57  -21.0099 26020.8 -03481.5 -07.6206 26252.7
 31 08 2013  20 58  -21.0098 26020.9 -03481.5 -07.6207 26252.7
 31 08 2013  20 59  -21.0097 26020.9 -03481.5 -07.6208 26252.8
 31 08 2013  21 00  -21.0098 26021.0 -03481.6 -07.6209 26252.9
 31 08 2013  21 01  -21.0099 26021.1 -03481.7 -07.6210 26253.0
 31 08 2013  21 02  -21.0101 26021.1 -03481.7 -07.6210 26253.0
 31 08 2013  21 03  -21.0102 26021.2 -03481.7 -07.6210 26253.1
 31 08 2013  21 04  -21.0104 26021.2 -03481.7 -07.6211 26253.1
 31 08 2013  21 05  -21.0104 26021.2 -03481.7 -07.6210 26253.0
 31 08 2013  21 06  -21.0105 26021.1 -03481.6 -07.6209 26253.0
 31 08 2013  21 07  -21.0104 26021.1 -03481.6 -07.6208 26253.0
 31 08 2013  21 08  -21.0104 26021.3 -03481.7 -07.6209 26253.1
 31 08 2013  21 09  -21.0105 26021.3 -03481.7 -07.6211 26253.2
 31 08 2013  21 10  -21.0105 26021.4 -03481.7 -07.6211 26253.3
 31 08 2013  21 11  -21.0106 26021.3 -03481.7 -07.6211 26253.2
 31 08 2013  21 12  -21.0106 26021.3 -03481.7 -07.6211 26253.2
 31 08 2013  21 13  -21.0104 26021.3 -03481.7 -07.6210 26253.2
 31 08 2013  21 14  -21.0105 26021.2 -03481.7 -07.6210 26253.1
 31 08 2013  21 15  -21.0105 26021.3 -03481.7 -07.6211 26253.2
 31 08 2013  21 16  -21.0106 26021.3 -03481.8 -07.6212 26253.2
 31 08 2013  21 17  -21.0109 26021.5 -03481.9 -07.6214 26253.4
 31 08 2013  21 18  -21.0111 26021.8 -03482.0 -07.6216 26253.7
 31 08 2013  21 19  -21.0114 26022.1 -03482.2 -07.6218 26254.0
 31 08 2013  21 20  -21.0116 26022.2 -03482.3 -07.6220 26254.2
 31 08 2013  21 21  -21.0118 26022.4 -03482.3 -07.6221 26254.4
 31 08 2013  21 22  -21.0120 26022.6 -03482.4 -07.6221 26254.6
 31 08 2013  21 23  -21.0123 26022.7 -03482.3 -07.6220 26254.6
 31 08 2013  21 24  -21.0126 26022.6 -03482.3 -07.6219 26254.5
 31 08 2013  21 25  -21.0129 26022.4 -03482.2 -07.6217 26254.4
 31 08 2013  21 26  -21.0132 26022.4 -03482.1 -07.6217 26254.3
 31 08 2013  21 27  -21.0134 26022.5 -03482.2 -07.6217 26254.5
 31 08 2013  21 28  -21.0134 26023.0 -03482.4 -07.6221 26255.0
 31 08 2013  21 29  -21.0133 26023.7 -03482.7 -07.6225 26255.7
 31 08 2013  21 30  -21.0132 26024.3 -03483.0 -07.6229 26256.3
 31 08 2013  21 31  -21.0131 26024.6 -03483.1 -07.6231 26256.6
 31 08 2013  21 32  -21.0132 26024.9 -03483.2 -07.6232 26257.0
 31 08 2013  21 33  -21.0133 26025.1 -03483.3 -07.6233 26257.2
 31 08 2013  21 34  -21.0133 26025.3 -03483.3 -07.6233 26257.4
 31 08 2013  21 35  -21.0134 26025.5 -03483.4 -07.6234 26257.6
 31 08 2013  21 36  -21.0137 26025.6 -03483.3 -07.6233 26257.6
 31 08 2013  21 37  -21.0140 26025.6 -03483.3 -07.6233 26257.7
 31 08 2013  21 38  -21.0143 26025.6 -03483.3 -07.6231 26257.6
 31 08 2013  21 39  -21.0146 26025.3 -03483.1 -07.6229 26257.4
 31 08 2013  21 40  -21.0147 26025.2 -03483.0 -07.6226 26257.3
 31 08 2013  21 41  -21.0149 26025.1 -03482.9 -07.6225 26257.1
 31 08 2013  21 42  -21.0150 26025.1 -03482.8 -07.6223 26257.1
 31 08 2013  21 43  -21.0152 26024.9 -03482.8 -07.6223 26256.9
 31 08 2013  21 44  -21.0155 26024.8 -03482.7 -07.6221 26256.8
 31 08 2013  21 45  -21.0157 26024.6 -03482.6 -07.6220 26256.6
 31 08 2013  21 46  -21.0160 26024.4 -03482.5 -07.6219 26256.4
 31 08 2013  21 47  -21.0161 26024.3 -03482.5 -07.6218 26256.3
 31 08 2013  21 48  -21.0163 26024.2 -03482.4 -07.6216 26256.1
 31 08 2013  21 49  -21.0166 26023.9 -03482.3 -07.6215 26255.9
 31 08 2013  21 50  -21.0170 26023.7 -03482.2 -07.6214 26255.7
 31 08 2013  21 51  -21.0173 26023.5 -03482.1 -07.6213 26255.5
 31 08 2013  21 52  -21.0176 26023.4 -03482.1 -07.6213 26255.3
 31 08 2013  21 53  -21.0178 26023.2 -03482.0 -07.6211 26255.1
 31 08 2013  21 54  -21.0181 26022.9 -03481.9 -07.6210 26254.8
 31 08 2013  21 55  -21.0184 26022.7 -03481.8 -07.6209 26254.6
 31 08 2013  21 56  -21.0187 26022.6 -03481.8 -07.6209 26254.5
 31 08 2013  21 57  -21.0189 26022.5 -03481.8 -07.6209 26254.4
 31 08 2013  21 58  -21.0192 26022.3 -03481.7 -07.6208 26254.2
 31 08 2013  21 59  -21.0196 26022.2 -03481.7 -07.6207 26254.1
 31 08 2013  22 00  -21.0200 26022.1 -03481.7 -07.6207 26253.9
 31 08 2013  22 01  -21.0204 26021.9 -03481.6 -07.6207 26253.8
 31 08 2013  22 02  -21.0206 26021.7 -03481.5 -07.6205 26253.5
 31 08 2013  22 03  -21.0209 26021.4 -03481.4 -07.6203 26253.2
 31 08 2013  22 04  -21.0210 26021.1 -03481.2 -07.6200 26253.0
 31 08 2013  22 05  -21.0212 26020.9 -03481.1 -07.6199 26252.7
 31 08 2013  22 06  -21.0211 26020.6 -03481.0 -07.6197 26252.5
 31 08 2013  22 07  -21.0212 26020.4 -03481.0 -07.6196 26252.2
 31 08 2013  22 08  -21.0213 26020.2 -03480.9 -07.6196 26252.0
 31 08 2013  22 09  -21.0214 26020.2 -03480.9 -07.6196 26252.0
 31 08 2013  22 10  -21.0217 26020.2 -03481.0 -07.6198 26252.0
 31 08 2013  22 11  -21.0219 26020.0 -03480.9 -07.6197 26251.8
 31 08 2013  22 12  -21.0224 26019.7 -03480.9 -07.6197 26251.5
 31 08 2013  22 13  -21.0227 26019.4 -03480.7 -07.6195 26251.2
 31 08 2013  22 14  -21.0230 26019.2 -03480.6 -07.6193 26251.0
 31 08 2013  22 15  -21.0233 26019.2 -03480.6 -07.6193 26250.9
 31 08 2013  22 16  -21.0233 26019.2 -03480.7 -07.6194 26251.0
 31 08 2013  22 17  -21.0233 26019.3 -03480.7 -07.6195 26251.0
 31 08 2013  22 18  -21.0232 26019.4 -03480.8 -07.6196 26251.2
 31 08 2013  22 19  -21.0232 26019.4 -03480.8 -07.6197 26251.2
 31 08 2013  22 20  -21.0233 26019.2 -03480.8 -07.6196 26251.0
 31 08 2013  22 21  -21.0235 26019.2 -03480.8 -07.6197 26251.0
 31 08 2013  22 22  -21.0238 26019.2 -03480.8 -07.6197 26250.9
 31 08 2013  22 23  -21.0239 26019.1 -03480.8 -07.6197 26250.9
 31 08 2013  22 24  -21.0239 26019.2 -03480.9 -07.6198 26251.0
 31 08 2013  22 25  -21.0240 26019.2 -03480.9 -07.6198 26251.0
 31 08 2013  22 26  -21.0239 26019.2 -03480.9 -07.6198 26251.0
 31 08 2013  22 27  -21.0239 26019.4 -03480.9 -07.6199 26251.2
 31 08 2013  22 28  -21.0239 26019.4 -03480.9 -07.6199 26251.2
 31 08 2013  22 29  -21.0239 26019.1 -03480.8 -07.6197 26250.9
 31 08 2013  22 30  -21.0238 26018.7 -03480.7 -07.6195 26250.5
 31 08 2013  22 31  -21.0239 26018.5 -03480.6 -07.6194 26250.2
 31 08 2013  22 32  -21.0240 26018.3 -03480.5 -07.6193 26250.1
 31 08 2013  22 33  -21.0240 26018.3 -03480.5 -07.6193 26250.0
 31 08 2013  22 34  -21.0240 26018.1 -03480.4 -07.6192 26249.8
 31 08 2013  22 35  -21.0239 26017.9 -03480.4 -07.6192 26249.7
 31 08 2013  22 36  -21.0240 26017.7 -03480.4 -07.6191 26249.5
 31 08 2013  22 37  -21.0239 26017.3 -03480.2 -07.6189 26249.1
 31 08 2013  22 38  -21.0239 26017.1 -03480.1 -07.6188 26248.9
 31 08 2013  22 39  -21.0240 26017.0 -03480.1 -07.6188 26248.7
 31 08 2013  22 40  -21.0240 26016.9 -03480.1 -07.6189 26248.6
 31 08 2013  22 41  -21.0240 26016.8 -03480.1 -07.6188 26248.5
 31 08 2013  22 42  -21.0240 26016.4 -03480.0 -07.6187 26248.1
 31 08 2013  22 43  -21.0240 26016.6 -03480.1 -07.6189 26248.3
 31 08 2013  22 44  -21.0238 26017.0 -03480.3 -07.6193 26248.7
 31 08 2013  22 45  -21.0236 26017.1 -03480.5 -07.6195 26248.9
 31 08 2013  22 46  -21.0233 26017.1 -03480.5 -07.6196 26248.9
 31 08 2013  22 47  -21.0231 26017.0 -03480.5 -07.6196 26248.8
 31 08 2013  22 48  -21.0230 26017.2 -03480.6 -07.6197 26249.0
 31 08 2013  22 49  -21.0229 26017.1 -03480.5 -07.6197 26248.8
 31 08 2013  22 50  -21.0230 26017.1 -03480.6 -07.6198 26248.9
 31 08 2013  22 51  -21.0230 26016.9 -03480.5 -07.6197 26248.7
 31 08 2013  22 52  -21.0230 26016.8 -03480.4 -07.6196 26248.6
 31 08 2013  22 53  -21.0230 26017.0 -03480.6 -07.6198 26248.8
 31 08 2013  22 54  -21.0231 26016.9 -03480.6 -07.6198 26248.7
 31 08 2013  22 55  -21.0233 26016.9 -03480.6 -07.6199 26248.7
 31 08 2013  22 56  -21.0235 26017.0 -03480.6 -07.6199 26248.8
 31 08 2013  22 57  -21.0238 26017.2 -03480.7 -07.6200 26249.0
 31 08 2013  22 58  -21.0240 26017.1 -03480.7 -07.6201 26248.9
 31 08 2013  22 59  -21.0241 26017.0 -03480.7 -07.6200 26248.8
 31 08 2013  23 00  -21.0243 26016.9 -03480.6 -07.6199 26248.7
 31 08 2013  23 01  -21.0243 26016.8 -03480.6 -07.6198 26248.5
 31 08 2013  23 02  -21.0242 26016.9 -03480.6 -07.6199 26248.7
 31 08 2013  23 03  -21.0242 26017.1 -03480.7 -07.6200 26248.9
 31 08 2013  23 04  -21.0243 26017.2 -03480.7 -07.6201 26249.0
 31 08 2013  23 05  -21.0243 26017.2 -03480.8 -07.6202 26249.1
 31 08 2013  23 06  -21.0244 26017.2 -03480.7 -07.6201 26249.0
 31 08 2013  23 07  -21.0245 26017.1 -03480.7 -07.6201 26248.9
 31 08 2013  23 08  -21.0245 26017.2 -03480.7 -07.6201 26249.0
 31 08 2013  23 09  -21.0244 26017.1 -03480.7 -07.6200 26248.9
 31 08 2013  23 10  -21.0245 26016.9 -03480.6 -07.6199 26248.7
 31 08 2013  23 11  -21.0244 26016.7 -03480.5 -07.6197 26248.5
 31 08 2013  23 12  -21.0240 26016.9 -03480.5 -07.6197 26248.7
 31 08 2013  23 13  -21.0236 26018.3 -03481.2 -07.6208 26250.1
 31 08 2013  23 14  -21.0231 26018.2 -03481.3 -07.6210 26250.1
 31 08 2013  23 15  -21.0228 26018.7 -03481.5 -07.6214 26250.6
 31 08 2013  23 16  -21.0228 26019.3 -03481.9 -07.6219 26251.2
 31 08 2013  23 17  -21.0229 26019.5 -03482.0 -07.6221 26251.5
 31 08 2013  23 18  -21.0228 26019.8 -03482.0 -07.6222 26251.8
 31 08 2013  23 19  -21.0228 26019.9 -03482.1 -07.6222 26251.8
 31 08 2013  23 20  -21.0230 26020.1 -03482.1 -07.6222 26252.1
 31 08 2013  23 21  -21.0231 26020.3 -03482.2 -07.6223 26252.3
 31 08 2013  23 22  -21.0233 26020.8 -03482.4 -07.6226 26252.8
 31 08 2013  23 23  -21.0232 26021.2 -03482.5 -07.6228 26253.3
 31 08 2013  23 24  -21.0233 26021.5 -03482.6 -07.6229 26253.5
 31 08 2013  23 25  -21.0235 26021.5 -03482.6 -07.6229 26253.5
 31 08 2013  23 26  -21.0235 26021.5 -03482.5 -07.6226 26253.5
 31 08 2013  23 27  -21.0238 26021.6 -03482.4 -07.6225 26253.6
 31 08 2013  23 28  -21.0241 26021.7 -03482.5 -07.6225 26253.7
 31 08 2013  23 29  -21.0242 26022.0 -03482.5 -07.6226 26254.0
 31 08 2013  23 30  -21.0241 26021.8 -03482.4 -07.6223 26253.8
 31 08 2013  23 31  -21.0242 26021.5 -03482.2 -07.6219 26253.5
 31 08 2013  23 32  -21.0242 26021.2 -03482.0 -07.6216 26253.2
 31 08 2013  23 33  -21.0241 26020.7 -03481.7 -07.6211 26252.6
 31 08 2013  23 34  -21.0238 26020.5 -03481.5 -07.6208 26252.4
 31 08 2013  23 35  -21.0236 26020.0 -03481.2 -07.6204 26251.8
 31 08 2013  23 36  -21.0234 26019.6 -03481.0 -07.6200 26251.4
 31 08 2013  23 37  -21.0234 26019.3 -03480.9 -07.6198 26251.1
 31 08 2013  23 38  -21.0234 26019.1 -03480.8 -07.6197 26250.9
 31 08 2013  23 39  -21.0236 26018.6 -03480.6 -07.6195 26250.4
 31 08 2013  23 40  -21.0238 26018.2 -03480.5 -07.6192 26249.9
 31 08 2013  23 41  -21.0239 26017.6 -03480.3 -07.6189 26249.4
 31 08 2013  23 42  -21.0239 26017.3 -03480.1 -07.6188 26249.1
 31 08 2013  23 43  -21.0241 26017.1 -03480.0 -07.6186 26248.8
 31 08 2013  23 44  -21.0242 26016.9 -03480.0 -07.6186 26248.6
 31 08 2013  23 45  -21.0243 26016.6 -03480.0 -07.6186 26248.3
 31 08 2013  23 46  -21.0245 26016.4 -03479.9 -07.6185 26248.1
 31 08 2013  23 47  -21.0247 26016.2 -03479.8 -07.6185 26247.8
 31 08 2013  23 48  -21.0249 26015.9 -03479.8 -07.6184 26247.6
 31 08 2013  23 49  -21.0252 26015.8 -03479.8 -07.6184 26247.5
 31 08 2013  23 50  -21.0253 26015.6 -03479.7 -07.6184 26247.3
 31 08 2013  23 51  -21.0253 26015.3 -03479.7 -07.6183 26247.0
 31 08 2013  23 52  -21.0253 26015.0 -03479.5 -07.6181 26246.6
 31 08 2013  23 53  -21.0252 26014.8 -03479.4 -07.6180 26246.4
 31 08 2013  23 54  -21.0254 26014.7 -03479.4 -07.6181 26246.3
 31 08 2013  23 55  -21.0257 26014.6 -03479.5 -07.6181 26246.2
 31 08 2013  23 56  -21.0258 26014.3 -03479.4 -07.6181 26246.0
 31 08 2013  23 57  -21.0261 26014.0 -03479.3 -07.6179 26245.6
