SAO LUIS EMBRACE-03 <090> 1 Min. Reported data

 DD MM YYYY  HH MM   D(Deg)  H(nT)   Z(nT)   I(Deg)   F(nT)

 31 03 2013  00 00  -21.0563 26025.7 -03422.9 -07.4924 26249.8
 31 03 2013  00 01  -21.0563 26025.8 -03422.9 -07.4925 26249.9
 31 03 2013  00 02  -21.0563 26025.9 -03422.9 -07.4925 26250.0
 31 03 2013  00 03  -21.0563 26025.9 -03422.9 -07.4925 26250.0
 31 03 2013  00 04  -21.0565 26025.8 -03422.9 -07.4925 26249.9
 31 03 2013  00 05  -21.0562 26025.8 -03422.9 -07.4925 26249.9
 31 03 2013  00 06  -21.0565 26025.9 -03422.9 -07.4925 26250.0
 31 03 2013  00 07  -21.0566 26026.0 -03423.0 -07.4926 26250.1
 31 03 2013  00 08  -21.0567 26026.0 -03423.0 -07.4926 26250.2
 31 03 2013  00 09  -21.0566 26026.2 -03423.0 -07.4927 26250.3
 31 03 2013  00 10  -21.0566 26026.2 -03423.0 -07.4927 26250.3
 31 03 2013  00 11  -21.0566 26026.1 -03423.0 -07.4925 26250.2
 31 03 2013  00 12  -21.0565 26026.0 -03422.9 -07.4924 26250.1
 31 03 2013  00 13  -21.0563 26026.0 -03422.9 -07.4924 26250.1
 31 03 2013  00 14  -21.0562 26026.1 -03422.9 -07.4924 26250.2
 31 03 2013  00 15  -21.0561 26026.1 -03422.9 -07.4924 26250.2
 31 03 2013  00 16  -21.0561 26026.0 -03422.9 -07.4924 26250.1
 31 03 2013  00 17  -21.0560 26026.1 -03422.9 -07.4924 26250.2
 31 03 2013  00 18  -21.0561 26026.1 -03422.9 -07.4924 26250.2
 31 03 2013  00 19  -21.0561 26026.0 -03422.9 -07.4924 26250.1
 31 03 2013  00 20  -21.0561 26026.2 -03423.0 -07.4925 26250.4
 31 03 2013  00 21  -21.0561 26026.2 -03423.0 -07.4926 26250.4
 31 03 2013  00 22  -21.0561 26026.3 -03423.0 -07.4926 26250.5
 31 03 2013  00 23  -21.0560 26026.4 -03423.1 -07.4927 26250.5
 31 03 2013  00 24  -21.0558 26026.5 -03423.1 -07.4927 26250.6
 31 03 2013  00 25  -21.0557 26026.6 -03423.1 -07.4928 26250.8
 31 03 2013  00 26  -21.0556 26026.7 -03423.2 -07.4928 26250.8
 31 03 2013  00 27  -21.0555 26026.7 -03423.2 -07.4928 26250.8
 31 03 2013  00 28  -21.0555 26026.7 -03423.1 -07.4927 26250.9
 31 03 2013  00 29  -21.0554 26026.7 -03423.1 -07.4927 26250.9
 31 03 2013  00 30  -21.0552 26026.7 -03423.1 -07.4927 26250.9
 31 03 2013  00 31  -21.0551 26026.7 -03423.1 -07.4926 26250.8
 31 03 2013  00 32  -21.0549 26026.7 -03423.1 -07.4926 26250.9
 31 03 2013  00 33  -21.0547 26026.8 -03423.1 -07.4927 26250.9
 31 03 2013  00 34  -21.0545 26026.8 -03423.1 -07.4927 26250.9
 31 03 2013  00 35  -21.0544 26026.8 -03423.1 -07.4927 26250.9
 31 03 2013  00 36  -21.0543 26026.7 -03423.1 -07.4927 26250.8
 31 03 2013  00 37  -21.0543 26026.7 -03423.1 -07.4926 26250.9
 31 03 2013  00 38  -21.0542 26026.6 -03423.1 -07.4926 26250.8
 31 03 2013  00 39  -21.0543 26026.6 -03423.0 -07.4926 26250.7
 31 03 2013  00 40  -21.0543 26026.5 -03423.0 -07.4925 26250.6
 31 03 2013  00 41  -21.0543 26026.3 -03422.9 -07.4924 26250.4
 31 03 2013  00 42  -21.0543 26026.1 -03422.8 -07.4922 26250.2
 31 03 2013  00 43  -21.0544 26025.9 -03422.7 -07.4921 26250.0
 31 03 2013  00 44  -21.0544 26025.8 -03422.7 -07.4921 26249.9
 31 03 2013  00 45  -21.0543 26025.9 -03422.8 -07.4922 26250.0
 31 03 2013  00 46  -21.0542 26026.0 -03422.9 -07.4923 26250.1
 31 03 2013  00 47  -21.0538 26026.6 -03423.1 -07.4927 26250.7
 31 03 2013  00 48  -21.0536 26026.8 -03423.2 -07.4930 26250.9
 31 03 2013  00 49  -21.0535 26027.0 -03423.4 -07.4931 26251.1
 31 03 2013  00 50  -21.0535 26026.9 -03423.4 -07.4932 26251.1
 31 03 2013  00 51  -21.0539 26026.5 -03423.2 -07.4929 26250.7
 31 03 2013  00 52  -21.0541 26026.5 -03423.1 -07.4927 26250.6
 31 03 2013  00 53  -21.0542 26026.7 -03423.2 -07.4929 26250.8
 31 03 2013  00 54  -21.0546 26026.7 -03423.2 -07.4929 26250.8
 31 03 2013  00 55  -21.0550 26026.4 -03423.1 -07.4927 26250.6
 31 03 2013  00 56  -21.0555 26025.9 -03422.8 -07.4923 26250.0
 31 03 2013  00 57  -21.0557 26025.5 -03422.6 -07.4920 26249.6
 31 03 2013  00 58  -21.0559 26025.3 -03422.6 -07.4919 26249.4
 31 03 2013  00 59  -21.0559 26025.4 -03422.6 -07.4919 26249.5
 31 03 2013  01 00  -21.0560 26025.3 -03422.5 -07.4918 26249.4
 31 03 2013  01 01  -21.0563 26025.0 -03422.4 -07.4916 26249.0
 31 03 2013  01 02  -21.0564 26024.7 -03422.3 -07.4914 26248.7
 31 03 2013  01 03  -21.0561 26024.7 -03422.3 -07.4914 26248.8
 31 03 2013  01 04  -21.0558 26024.9 -03422.4 -07.4916 26249.0
 31 03 2013  01 05  -21.0556 26025.1 -03422.5 -07.4918 26249.1
 31 03 2013  01 06  -21.0557 26025.2 -03422.6 -07.4920 26249.3
 31 03 2013  01 07  -21.0558 26025.4 -03422.8 -07.4923 26249.6
 31 03 2013  01 08  -21.0560 26025.8 -03423.0 -07.4927 26249.9
 31 03 2013  01 09  -21.0561 26026.0 -03423.1 -07.4929 26250.1
 31 03 2013  01 10  -21.0563 26026.0 -03423.1 -07.4929 26250.2
 31 03 2013  01 11  -21.0561 26026.1 -03423.2 -07.4930 26250.3
 31 03 2013  01 12  -21.0558 26025.9 -03423.0 -07.4928 26250.0
 31 03 2013  01 13  -21.0551 26026.3 -03423.1 -07.4929 26250.4
 31 03 2013  01 14  -21.0549 26026.2 -03423.1 -07.4929 26250.4
 31 03 2013  01 15  -21.0549 26025.8 -03422.9 -07.4926 26249.9
 31 03 2013  01 16  -21.0549 26025.7 -03422.9 -07.4925 26249.9
 31 03 2013  01 17  -21.0547 26025.7 -03422.9 -07.4925 26249.9
 31 03 2013  01 18  -21.0547 26025.8 -03422.9 -07.4926 26249.9
 31 03 2013  01 19  -21.0548 26025.7 -03423.0 -07.4927 26249.9
 31 03 2013  01 20  -21.0549 26025.8 -03423.0 -07.4928 26250.0
 31 03 2013  01 21  -21.0550 26025.7 -03423.0 -07.4927 26249.8
 31 03 2013  01 22  -21.0549 26025.7 -03423.0 -07.4928 26249.9
 31 03 2013  01 23  -21.0547 26025.7 -03423.0 -07.4928 26249.9
 31 03 2013  01 24  -21.0545 26025.9 -03423.1 -07.4929 26250.0
 31 03 2013  01 25  -21.0544 26025.9 -03423.1 -07.4930 26250.1
 31 03 2013  01 26  -21.0545 26026.1 -03423.2 -07.4931 26250.2
 31 03 2013  01 27  -21.0545 26026.2 -03423.3 -07.4933 26250.3
 31 03 2013  01 28  -21.0545 26026.2 -03423.3 -07.4932 26250.3
 31 03 2013  01 29  -21.0546 26026.1 -03423.2 -07.4931 26250.3
 31 03 2013  01 30  -21.0546 26026.1 -03423.2 -07.4931 26250.3
 31 03 2013  01 31  -21.0547 26026.1 -03423.3 -07.4932 26250.3
 31 03 2013  01 32  -21.0548 26026.2 -03423.3 -07.4932 26250.3
 31 03 2013  01 33  -21.0548 26026.2 -03423.3 -07.4932 26250.4
 31 03 2013  01 34  -21.0549 26026.3 -03423.3 -07.4932 26250.5
 31 03 2013  01 35  -21.0549 26026.5 -03423.4 -07.4933 26250.6
 31 03 2013  01 36  -21.0550 26026.4 -03423.3 -07.4932 26250.6
 31 03 2013  01 37  -21.0552 26026.4 -03423.3 -07.4933 26250.6
 31 03 2013  01 38  -21.0552 26026.3 -03423.2 -07.4930 26250.4
 31 03 2013  01 39  -21.0553 26026.1 -03423.1 -07.4929 26250.2
 31 03 2013  01 40  -21.0554 26025.9 -03423.0 -07.4926 26250.0
 31 03 2013  01 41  -21.0555 26025.7 -03422.8 -07.4924 26249.8
 31 03 2013  01 42  -21.0556 26025.5 -03422.7 -07.4922 26249.6
 31 03 2013  01 43  -21.0556 26025.3 -03422.7 -07.4921 26249.4
 31 03 2013  01 44  -21.0556 26025.1 -03422.5 -07.4919 26249.2
 31 03 2013  01 45  -21.0557 26025.0 -03422.4 -07.4917 26249.1
 31 03 2013  01 46  -21.0560 26024.9 -03422.4 -07.4917 26249.0
 31 03 2013  01 47  -21.0560 26024.9 -03422.4 -07.4918 26248.9
 31 03 2013  01 48  -21.0561 26024.8 -03422.4 -07.4918 26248.8
 31 03 2013  01 49  -21.0560 26024.9 -03422.5 -07.4919 26249.0
 31 03 2013  01 50  -21.0557 26025.2 -03422.7 -07.4922 26249.3
 31 03 2013  01 51  -21.0555 26025.2 -03422.7 -07.4922 26249.3
 31 03 2013  01 52  -21.0554 26025.5 -03422.9 -07.4925 26249.6
 31 03 2013  01 53  -21.0552 26025.7 -03423.0 -07.4928 26249.8
 31 03 2013  01 54  -21.0551 26025.8 -03423.0 -07.4928 26249.9
 31 03 2013  01 55  -21.0549 26025.8 -03423.1 -07.4929 26249.9
 31 03 2013  01 56  -21.0544 26026.4 -03423.3 -07.4933 26250.5
 31 03 2013  01 57  -21.0544 26026.3 -03423.3 -07.4933 26250.4
 31 03 2013  01 58  -21.0543 26026.6 -03423.5 -07.4935 26250.8
 31 03 2013  01 59  -21.0541 26026.9 -03423.6 -07.4938 26251.1
 31 03 2013  02 00  -21.0541 26027.1 -03423.7 -07.4939 26251.3
 31 03 2013  02 01  -21.0541 26027.2 -03423.8 -07.4940 26251.4
 31 03 2013  02 02  -21.0540 26027.3 -03423.8 -07.4940 26251.5
 31 03 2013  02 03  -21.0540 26027.3 -03423.7 -07.4939 26251.5
 31 03 2013  02 04  -21.0539 26027.2 -03423.7 -07.4938 26251.4
 31 03 2013  02 05  -21.0538 26027.0 -03423.6 -07.4936 26251.2
 31 03 2013  02 06  -21.0537 26026.8 -03423.4 -07.4934 26251.0
 31 03 2013  02 07  -21.0536 26026.7 -03423.4 -07.4932 26250.9
 31 03 2013  02 08  -21.0536 26026.5 -03423.3 -07.4931 26250.7
 31 03 2013  02 09  -21.0536 26026.5 -03423.2 -07.4930 26250.6
 31 03 2013  02 10  -21.0536 26026.4 -03423.2 -07.4930 26250.6
 31 03 2013  02 11  -21.0535 26026.4 -03423.2 -07.4930 26250.6
 31 03 2013  02 12  -21.0535 26026.4 -03423.2 -07.4931 26250.6
 31 03 2013  02 13  -21.0538 26026.3 -03423.2 -07.4931 26250.5
 31 03 2013  02 14  -21.0538 26026.3 -03423.2 -07.4931 26250.4
 31 03 2013  02 15  -21.0539 26026.2 -03423.2 -07.4931 26250.4
 31 03 2013  02 16  -21.0540 26026.2 -03423.2 -07.4931 26250.3
 31 03 2013  02 17  -21.0541 26026.1 -03423.2 -07.4931 26250.3
 31 03 2013  02 18  -21.0543 26026.1 -03423.2 -07.4931 26250.3
 31 03 2013  02 19  -21.0544 26026.2 -03423.2 -07.4931 26250.3
 31 03 2013  02 20  -21.0544 26026.2 -03423.3 -07.4932 26250.4
 31 03 2013  02 21  -21.0544 26026.4 -03423.4 -07.4933 26250.6
 31 03 2013  02 22  -21.0541 26026.7 -03423.6 -07.4937 26251.0
 31 03 2013  02 23  -21.0538 26027.0 -03423.7 -07.4938 26251.3
 31 03 2013  02 24  -21.0537 26027.1 -03423.8 -07.4940 26251.4
 31 03 2013  02 25  -21.0535 26027.4 -03423.9 -07.4941 26251.6
 31 03 2013  02 26  -21.0533 26027.7 -03424.0 -07.4944 26252.0
 31 03 2013  02 27  -21.0531 26028.0 -03424.2 -07.4946 26252.3
 31 03 2013  02 28  -21.0530 26028.2 -03424.3 -07.4948 26252.5
 31 03 2013  02 29  -21.0531 26028.7 -03424.5 -07.4951 26253.0
 31 03 2013  02 30  -21.0532 26029.0 -03424.6 -07.4953 26253.3
 31 03 2013  02 31  -21.0532 26029.4 -03424.8 -07.4955 26253.7
 31 03 2013  02 32  -21.0531 26029.6 -03424.8 -07.4956 26253.9
 31 03 2013  02 33  -21.0529 26029.9 -03424.9 -07.4957 26254.3
 31 03 2013  02 34  -21.0531 26029.7 -03424.8 -07.4956 26254.0
 31 03 2013  02 35  -21.0533 26029.7 -03424.8 -07.4954 26254.1
 31 03 2013  02 36  -21.0534 26029.6 -03424.6 -07.4952 26253.9
 31 03 2013  02 37  -21.0534 26029.5 -03424.6 -07.4950 26253.8
 31 03 2013  02 38  -21.0535 26029.4 -03424.5 -07.4949 26253.7
 31 03 2013  02 39  -21.0537 26029.2 -03424.4 -07.4947 26253.5
 31 03 2013  02 40  -21.0537 26029.3 -03424.4 -07.4947 26253.6
 31 03 2013  02 41  -21.0535 26029.3 -03424.4 -07.4947 26253.6
 31 03 2013  02 42  -21.0535 26029.5 -03424.4 -07.4948 26253.8
 31 03 2013  02 43  -21.0534 26029.6 -03424.5 -07.4948 26253.9
 31 03 2013  02 44  -21.0534 26029.4 -03424.4 -07.4947 26253.7
 31 03 2013  02 45  -21.0531 26029.6 -03424.4 -07.4947 26253.9
 31 03 2013  02 46  -21.0530 26029.5 -03424.4 -07.4947 26253.8
 31 03 2013  02 47  -21.0530 26029.7 -03424.5 -07.4948 26254.0
 31 03 2013  02 48  -21.0531 26029.8 -03424.5 -07.4949 26254.1
 31 03 2013  02 49  -21.0530 26029.9 -03424.6 -07.4950 26254.2
 31 03 2013  02 50  -21.0530 26029.9 -03424.6 -07.4950 26254.2
 31 03 2013  02 51  -21.0529 26030.1 -03424.7 -07.4951 26254.4
 31 03 2013  02 52  -21.0528 26030.3 -03424.7 -07.4952 26254.6
 31 03 2013  02 53  -21.0527 26030.4 -03424.8 -07.4952 26254.7
 31 03 2013  02 54  -21.0526 26030.5 -03424.8 -07.4953 26254.8
 31 03 2013  02 55  -21.0527 26030.5 -03424.8 -07.4953 26254.9
 31 03 2013  02 56  -21.0529 26030.3 -03424.7 -07.4952 26254.6
 31 03 2013  02 57  -21.0532 26030.0 -03424.5 -07.4948 26254.3
 31 03 2013  02 58  -21.0536 26029.8 -03424.4 -07.4946 26254.1
 31 03 2013  02 59  -21.0538 26029.6 -03424.3 -07.4944 26253.9
 31 03 2013  03 00  -21.0540 26029.4 -03424.2 -07.4942 26253.6
 31 03 2013  03 01  -21.0542 26029.1 -03424.0 -07.4940 26253.4
 31 03 2013  03 02  -21.0540 26029.0 -03424.0 -07.4939 26253.2
 31 03 2013  03 03  -21.0539 26029.0 -03424.0 -07.4940 26253.3
 31 03 2013  03 04  -21.0537 26029.4 -03424.2 -07.4943 26253.7
 31 03 2013  03 05  -21.0536 26029.4 -03424.2 -07.4944 26253.7
 31 03 2013  03 06  -21.0538 26029.8 -03424.4 -07.4947 26254.1
 31 03 2013  03 07  -21.0541 26029.9 -03424.6 -07.4949 26254.2
 31 03 2013  03 08  -21.0543 26030.0 -03424.6 -07.4950 26254.4
 31 03 2013  03 09  -21.0545 26029.9 -03424.5 -07.4948 26254.2
 31 03 2013  03 10  -21.0545 26029.8 -03424.4 -07.4947 26254.1
 31 03 2013  03 11  -21.0543 26029.6 -03424.4 -07.4946 26253.9
 31 03 2013  03 12  -21.0542 26029.6 -03424.3 -07.4945 26253.9
 31 03 2013  03 13  -21.0543 26029.6 -03424.3 -07.4945 26253.9
 31 03 2013  03 14  -21.0546 26029.6 -03424.3 -07.4946 26253.9
 31 03 2013  03 15  -21.0546 26029.5 -03424.3 -07.4945 26253.8
 31 03 2013  03 16  -21.0545 26029.5 -03424.3 -07.4944 26253.8
 31 03 2013  03 17  -21.0545 26029.6 -03424.3 -07.4945 26253.8
 31 03 2013  03 18  -21.0546 26029.6 -03424.3 -07.4945 26253.8
 31 03 2013  03 19  -21.0548 26029.5 -03424.3 -07.4946 26253.8
 31 03 2013  03 20  -21.0550 26029.5 -03424.3 -07.4945 26253.8
 31 03 2013  03 21  -21.0550 26029.5 -03424.3 -07.4945 26253.8
 31 03 2013  03 22  -21.0549 26029.5 -03424.3 -07.4945 26253.8
 31 03 2013  03 23  -21.0548 26029.5 -03424.3 -07.4945 26253.7
 31 03 2013  03 24  -21.0547 26029.5 -03424.3 -07.4945 26253.7
 31 03 2013  03 25  -21.0549 26029.5 -03424.3 -07.4945 26253.8
 31 03 2013  03 26  -21.0550 26029.5 -03424.3 -07.4946 26253.8
 31 03 2013  03 27  -21.0551 26029.5 -03424.3 -07.4945 26253.7
 31 03 2013  03 28  -21.0552 26029.5 -03424.3 -07.4945 26253.7
 31 03 2013  03 29  -21.0550 26029.5 -03424.3 -07.4945 26253.8
 31 03 2013  03 30  -21.0550 26029.5 -03424.3 -07.4945 26253.8
 31 03 2013  03 31  -21.0553 26029.6 -03424.3 -07.4946 26253.8
 31 03 2013  03 32  -21.0555 26029.4 -03424.3 -07.4946 26253.7
 31 03 2013  03 33  -21.0556 26029.4 -03424.3 -07.4945 26253.7
 31 03 2013  03 34  -21.0556 26029.5 -03424.3 -07.4946 26253.7
 31 03 2013  03 35  -21.0554 26029.4 -03424.3 -07.4946 26253.7
 31 03 2013  03 36  -21.0553 26029.4 -03424.3 -07.4945 26253.7
 31 03 2013  03 37  -21.0554 26029.4 -03424.3 -07.4946 26253.7
 31 03 2013  03 38  -21.0553 26029.9 -03424.6 -07.4949 26254.2
 31 03 2013  03 39  -21.0553 26029.6 -03424.4 -07.4947 26253.9
 31 03 2013  03 40  -21.0554 26030.1 -03424.6 -07.4949 26254.4
 31 03 2013  03 41  -21.0558 26030.1 -03424.6 -07.4951 26254.4
 31 03 2013  03 42  -21.0561 26030.2 -03424.7 -07.4951 26254.6
 31 03 2013  03 43  -21.0561 26030.3 -03424.7 -07.4951 26254.6
 31 03 2013  03 44  -21.0561 26030.3 -03424.7 -07.4951 26254.6
 31 03 2013  03 45  -21.0561 26030.3 -03424.7 -07.4950 26254.6
 31 03 2013  03 46  -21.0561 26030.2 -03424.6 -07.4949 26254.5
 31 03 2013  03 47  -21.0561 26030.1 -03424.5 -07.4948 26254.5
 31 03 2013  03 48  -21.0560 26030.2 -03424.6 -07.4948 26254.5
 31 03 2013  03 49  -21.0559 26030.2 -03424.6 -07.4949 26254.5
 31 03 2013  03 50  -21.0559 26030.3 -03424.6 -07.4949 26254.6
 31 03 2013  03 51  -21.0562 26030.3 -03424.6 -07.4949 26254.6
 31 03 2013  03 52  -21.0561 26030.4 -03424.6 -07.4949 26254.7
 31 03 2013  03 53  -21.0560 26030.6 -03424.7 -07.4951 26254.9
 31 03 2013  03 54  -21.0559 26030.6 -03424.8 -07.4952 26254.9
 31 03 2013  03 55  -21.0560 26030.7 -03424.8 -07.4952 26255.0
 31 03 2013  03 56  -21.0560 26030.6 -03424.8 -07.4952 26254.9
 31 03 2013  03 57  -21.0558 26030.5 -03424.7 -07.4951 26254.8
 31 03 2013  03 58  -21.0556 26030.5 -03424.7 -07.4950 26254.9
 31 03 2013  03 59  -21.0556 26030.6 -03424.7 -07.4951 26254.9
 31 03 2013  04 00  -21.0556 26030.6 -03424.7 -07.4950 26254.9
 31 03 2013  04 01  -21.0557 26030.8 -03424.8 -07.4951 26255.1
 31 03 2013  04 02  -21.0556 26031.0 -03424.9 -07.4953 26255.3
 31 03 2013  04 03  -21.0555 26031.1 -03424.9 -07.4954 26255.5
 31 03 2013  04 04  -21.0555 26031.3 -03425.0 -07.4954 26255.6
 31 03 2013  04 05  -21.0554 26031.4 -03425.0 -07.4955 26255.8
 31 03 2013  04 06  -21.0553 26031.4 -03424.9 -07.4953 26255.7
 31 03 2013  04 07  -21.0550 26031.1 -03424.8 -07.4951 26255.5
 31 03 2013  04 08  -21.0545 26030.7 -03424.5 -07.4946 26255.0
 31 03 2013  04 09  -21.0541 26030.5 -03424.4 -07.4943 26254.8
 31 03 2013  04 10  -21.0540 26030.4 -03424.3 -07.4942 26254.7
 31 03 2013  04 11  -21.0542 26030.3 -03424.2 -07.4941 26254.6
 31 03 2013  04 12  -21.0541 26030.3 -03424.3 -07.4942 26254.6
 31 03 2013  04 13  -21.0541 26030.5 -03424.3 -07.4943 26254.8
 31 03 2013  04 14  -21.0540 26030.7 -03424.4 -07.4944 26255.0
 31 03 2013  04 15  -21.0540 26030.8 -03424.5 -07.4946 26255.1
 31 03 2013  04 16  -21.0541 26030.8 -03424.5 -07.4946 26255.1
 31 03 2013  04 17  -21.0542 26030.9 -03424.6 -07.4946 26255.2
 31 03 2013  04 18  -21.0541 26031.0 -03424.6 -07.4947 26255.3
 31 03 2013  04 19  -21.0541 26030.8 -03424.5 -07.4944 26255.1
 31 03 2013  04 20  -21.0540 26030.6 -03424.3 -07.4942 26254.9
 31 03 2013  04 21  -21.0540 26030.6 -03424.3 -07.4942 26254.9
 31 03 2013  04 22  -21.0541 26030.7 -03424.3 -07.4942 26255.0
 31 03 2013  04 23  -21.0544 26030.8 -03424.4 -07.4943 26255.1
 31 03 2013  04 24  -21.0547 26030.9 -03424.5 -07.4944 26255.2
 31 03 2013  04 25  -21.0551 26031.0 -03424.5 -07.4944 26255.2
 31 03 2013  04 26  -21.0554 26031.0 -03424.4 -07.4943 26255.2
 31 03 2013  04 27  -21.0556 26030.9 -03424.4 -07.4942 26255.2
 31 03 2013  04 28  -21.0556 26030.9 -03424.3 -07.4941 26255.1
 31 03 2013  04 29  -21.0556 26030.9 -03424.3 -07.4940 26255.1
 31 03 2013  04 30  -21.0559 26030.8 -03424.2 -07.4939 26255.0
 31 03 2013  04 31  -21.0562 26030.8 -03424.2 -07.4939 26255.0
 31 03 2013  04 32  -21.0562 26030.9 -03424.2 -07.4939 26255.1
 31 03 2013  04 33  -21.0562 26031.0 -03424.2 -07.4939 26255.2
 31 03 2013  04 34  -21.0563 26031.0 -03424.2 -07.4939 26255.3
 31 03 2013  04 35  -21.0565 26031.0 -03424.2 -07.4938 26255.2
 31 03 2013  04 36  -21.0566 26031.0 -03424.2 -07.4937 26255.3
 31 03 2013  04 37  -21.0565 26031.1 -03424.2 -07.4937 26255.4
 31 03 2013  04 38  -21.0562 26031.2 -03424.2 -07.4937 26255.4
 31 03 2013  04 39  -21.0560 26031.2 -03424.2 -07.4937 26255.4
 31 03 2013  04 40  -21.0559 26031.3 -03424.2 -07.4937 26255.5
 31 03 2013  04 41  -21.0560 26031.2 -03424.2 -07.4937 26255.5
 31 03 2013  04 42  -21.0561 26031.2 -03424.2 -07.4937 26255.5
 31 03 2013  04 43  -21.0561 26031.3 -03424.2 -07.4937 26255.5
 31 03 2013  04 44  -21.0560 26031.3 -03424.2 -07.4937 26255.6
 31 03 2013  04 45  -21.0557 26031.3 -03424.2 -07.4936 26255.6
 31 03 2013  04 46  -21.0556 26031.4 -03424.1 -07.4936 26255.6
 31 03 2013  04 47  -21.0554 26031.4 -03424.1 -07.4936 26255.6
 31 03 2013  04 48  -21.0551 26031.5 -03424.2 -07.4937 26255.8
 31 03 2013  04 49  -21.0548 26031.6 -03424.3 -07.4938 26255.9
 31 03 2013  04 50  -21.0546 26031.6 -03424.2 -07.4938 26255.8
 31 03 2013  04 51  -21.0545 26031.5 -03424.2 -07.4937 26255.8
 31 03 2013  04 52  -21.0544 26031.5 -03424.2 -07.4937 26255.7
 31 03 2013  04 53  -21.0543 26031.4 -03424.2 -07.4936 26255.7
 31 03 2013  04 54  -21.0540 26031.3 -03424.1 -07.4936 26255.6
 31 03 2013  04 55  -21.0536 26031.3 -03424.1 -07.4935 26255.5
 31 03 2013  04 56  -21.0533 26031.2 -03424.0 -07.4934 26255.4
 31 03 2013  04 57  -21.0528 26031.1 -03424.0 -07.4933 26255.3
 31 03 2013  04 58  -21.0524 26031.0 -03424.0 -07.4934 26255.3
 31 03 2013  04 59  -21.0520 26031.0 -03424.0 -07.4934 26255.3
 31 03 2013  05 00  -21.0518 26030.9 -03424.0 -07.4934 26255.2
 31 03 2013  05 01  -21.0517 26030.9 -03424.0 -07.4934 26255.1
 31 03 2013  05 02  -21.0514 26030.7 -03424.0 -07.4934 26254.9
 31 03 2013  05 03  -21.0512 26030.5 -03423.9 -07.4933 26254.7
 31 03 2013  05 04  -21.0510 26030.3 -03423.8 -07.4932 26254.5
 31 03 2013  05 05  -21.0510 26030.2 -03423.8 -07.4931 26254.4
 31 03 2013  05 06  -21.0510 26030.2 -03423.8 -07.4932 26254.4
 31 03 2013  05 07  -21.0509 26030.2 -03423.9 -07.4933 26254.4
 31 03 2013  05 08  -21.0509 26030.2 -03423.9 -07.4934 26254.5
 31 03 2013  05 09  -21.0507 26030.2 -03423.9 -07.4934 26254.4
 31 03 2013  05 10  -21.0506 26030.2 -03423.9 -07.4935 26254.4
 31 03 2013  05 11  -21.0505 26030.1 -03423.9 -07.4935 26254.3
 31 03 2013  05 12  -21.0504 26030.0 -03423.9 -07.4934 26254.2
 31 03 2013  05 13  -21.0506 26029.9 -03423.9 -07.4935 26254.1
 31 03 2013  05 14  -21.0510 26029.9 -03423.9 -07.4936 26254.1
 31 03 2013  05 15  -21.0514 26029.9 -03424.0 -07.4937 26254.1
 31 03 2013  05 16  -21.0518 26029.9 -03424.0 -07.4937 26254.1
 31 03 2013  05 17  -21.0521 26029.9 -03424.0 -07.4938 26254.1
 31 03 2013  05 18  -21.0525 26029.9 -03424.0 -07.4938 26254.1
 31 03 2013  05 19  -21.0528 26030.0 -03424.1 -07.4938 26254.2
 31 03 2013  05 20  -21.0530 26030.1 -03424.1 -07.4938 26254.3
 31 03 2013  05 21  -21.0532 26030.2 -03424.1 -07.4939 26254.4
 31 03 2013  05 22  -21.0534 26030.3 -03424.2 -07.4940 26254.6
 31 03 2013  05 23  -21.0536 26030.4 -03424.2 -07.4940 26254.7
 31 03 2013  05 24  -21.0537 26030.6 -03424.3 -07.4941 26254.8
 31 03 2013  05 25  -21.0539 26030.6 -03424.3 -07.4941 26254.9
 31 03 2013  05 26  -21.0540 26030.7 -03424.3 -07.4941 26254.9
 31 03 2013  05 27  -21.0540 26030.8 -03424.3 -07.4941 26255.0
 31 03 2013  05 28  -21.0540 26030.7 -03424.2 -07.4939 26255.0
 31 03 2013  05 29  -21.0539 26030.8 -03424.2 -07.4938 26255.0
 31 03 2013  05 30  -21.0539 26030.7 -03424.2 -07.4938 26255.0
 31 03 2013  05 31  -21.0539 26030.8 -03424.1 -07.4938 26255.0
 31 03 2013  05 32  -21.0539 26030.8 -03424.1 -07.4938 26255.0
 31 03 2013  05 33  -21.0538 26030.8 -03424.1 -07.4937 26255.0
 31 03 2013  05 34  -21.0538 26030.8 -03424.1 -07.4937 26255.0
 31 03 2013  05 35  -21.0536 26030.8 -03424.1 -07.4936 26255.0
 31 03 2013  05 36  -21.0535 26030.8 -03424.1 -07.4936 26255.0
 31 03 2013  05 37  -21.0534 26030.9 -03424.1 -07.4937 26255.1
 31 03 2013  05 38  -21.0534 26031.0 -03424.2 -07.4937 26255.2
 31 03 2013  05 39  -21.0534 26031.0 -03424.2 -07.4938 26255.3
 31 03 2013  05 40  -21.0533 26031.1 -03424.2 -07.4938 26255.4
 31 03 2013  05 41  -21.0534 26031.2 -03424.3 -07.4939 26255.5
 31 03 2013  05 42  -21.0533 26031.2 -03424.3 -07.4939 26255.5
 31 03 2013  05 43  -21.0533 26031.2 -03424.2 -07.4939 26255.4
 31 03 2013  05 44  -21.0532 26031.2 -03424.2 -07.4938 26255.4
 31 03 2013  05 45  -21.0531 26031.2 -03424.2 -07.4937 26255.4
 31 03 2013  05 46  -21.0530 26031.2 -03424.2 -07.4937 26255.4
 31 03 2013  05 47  -21.0529 26031.2 -03424.2 -07.4938 26255.5
 31 03 2013  05 48  -21.0528 26031.2 -03424.2 -07.4938 26255.5
 31 03 2013  05 49  -21.0526 26031.2 -03424.2 -07.4938 26255.4
 31 03 2013  05 50  -21.0526 26031.0 -03424.1 -07.4936 26255.3
 31 03 2013  05 51  -21.0525 26030.9 -03424.1 -07.4936 26255.2
 31 03 2013  05 52  -21.0525 26030.9 -03424.0 -07.4935 26255.1
 31 03 2013  05 53  -21.0525 26030.9 -03424.1 -07.4936 26255.2
 31 03 2013  05 54  -21.0525 26031.0 -03424.1 -07.4937 26255.3
 31 03 2013  05 55  -21.0524 26031.0 -03424.2 -07.4937 26255.3
 31 03 2013  05 56  -21.0523 26031.1 -03424.2 -07.4938 26255.4
 31 03 2013  05 57  -21.0522 26031.2 -03424.2 -07.4938 26255.5
 31 03 2013  05 58  -21.0521 26031.3 -03424.3 -07.4939 26255.5
 31 03 2013  05 59  -21.0519 26031.4 -03424.3 -07.4940 26255.7
 31 03 2013  06 00  -21.0518 26031.5 -03424.4 -07.4941 26255.8
 31 03 2013  06 01  -21.0515 26031.7 -03424.5 -07.4942 26256.0
 31 03 2013  06 02  -21.0513 26031.8 -03424.5 -07.4943 26256.1
 31 03 2013  06 03  -21.0510 26032.0 -03424.6 -07.4944 26256.3
 31 03 2013  06 04  -21.0508 26032.0 -03424.6 -07.4944 26256.3
 31 03 2013  06 05  -21.0505 26032.0 -03424.6 -07.4944 26256.3
 31 03 2013  06 06  -21.0503 26032.1 -03424.6 -07.4944 26256.4
 31 03 2013  06 07  -21.0502 26032.2 -03424.6 -07.4945 26256.5
 31 03 2013  06 08  -21.0501 26032.3 -03424.7 -07.4946 26256.6
 31 03 2013  06 09  -21.0500 26032.4 -03424.8 -07.4947 26256.7
 31 03 2013  06 10  -21.0498 26032.3 -03424.7 -07.4946 26256.6
 31 03 2013  06 11  -21.0494 26032.0 -03424.6 -07.4944 26256.3
 31 03 2013  06 12  -21.0491 26031.5 -03424.3 -07.4940 26255.8
 31 03 2013  06 13  -21.0488 26031.2 -03424.2 -07.4937 26255.4
 31 03 2013  06 14  -21.0485 26031.0 -03424.1 -07.4935 26255.2
 31 03 2013  06 15  -21.0480 26030.9 -03424.1 -07.4936 26255.2
 31 03 2013  06 16  -21.0478 26031.1 -03424.2 -07.4939 26255.3
 31 03 2013  06 17  -21.0476 26031.3 -03424.4 -07.4942 26255.6
 31 03 2013  06 18  -21.0474 26031.5 -03424.6 -07.4945 26255.8
 31 03 2013  06 19  -21.0472 26031.6 -03424.7 -07.4947 26255.9
 31 03 2013  06 20  -21.0470 26031.6 -03424.7 -07.4948 26256.0
 31 03 2013  06 21  -21.0468 26031.6 -03424.7 -07.4948 26255.9
 31 03 2013  06 22  -21.0467 26031.5 -03424.7 -07.4948 26255.8
 31 03 2013  06 23  -21.0466 26031.5 -03424.7 -07.4948 26255.8
 31 03 2013  06 24  -21.0465 26031.4 -03424.7 -07.4948 26255.7
 31 03 2013  06 25  -21.0465 26031.3 -03424.7 -07.4947 26255.6
 31 03 2013  06 26  -21.0464 26031.3 -03424.6 -07.4947 26255.6
 31 03 2013  06 27  -21.0462 26031.2 -03424.7 -07.4948 26255.5
 31 03 2013  06 28  -21.0460 26031.2 -03424.7 -07.4948 26255.5
 31 03 2013  06 29  -21.0457 26031.2 -03424.7 -07.4948 26255.5
 31 03 2013  06 30  -21.0456 26031.0 -03424.7 -07.4948 26255.3
 31 03 2013  06 31  -21.0456 26030.9 -03424.6 -07.4948 26255.2
 31 03 2013  06 32  -21.0457 26030.9 -03424.7 -07.4949 26255.3
 31 03 2013  06 33  -21.0457 26030.9 -03424.7 -07.4950 26255.3
 31 03 2013  06 34  -21.0458 26030.9 -03424.7 -07.4950 26255.2
 31 03 2013  06 35  -21.0456 26031.0 -03424.8 -07.4951 26255.3
 31 03 2013  06 36  -21.0456 26031.1 -03424.9 -07.4953 26255.4
 31 03 2013  06 37  -21.0457 26031.2 -03424.9 -07.4954 26255.5
 31 03 2013  06 38  -21.0456 26031.3 -03425.0 -07.4955 26255.6
 31 03 2013  06 39  -21.0456 26031.3 -03425.0 -07.4955 26255.6
 31 03 2013  06 40  -21.0456 26031.2 -03425.0 -07.4954 26255.5
 31 03 2013  06 41  -21.0454 26031.1 -03424.9 -07.4954 26255.4
 31 03 2013  06 42  -21.0451 26031.0 -03424.9 -07.4953 26255.3
 31 03 2013  06 43  -21.0450 26030.9 -03424.9 -07.4953 26255.3
 31 03 2013  06 44  -21.0449 26031.0 -03424.9 -07.4954 26255.3
 31 03 2013  06 45  -21.0448 26031.0 -03424.9 -07.4954 26255.3
 31 03 2013  06 46  -21.0448 26031.0 -03425.0 -07.4955 26255.4
 31 03 2013  06 47  -21.0449 26031.1 -03425.0 -07.4956 26255.4
 31 03 2013  06 48  -21.0449 26031.1 -03425.0 -07.4956 26255.4
 31 03 2013  06 49  -21.0450 26031.0 -03425.0 -07.4956 26255.3
 31 03 2013  06 50  -21.0454 26030.8 -03424.9 -07.4954 26255.1
 31 03 2013  06 51  -21.0456 26030.7 -03424.8 -07.4953 26255.0
 31 03 2013  06 52  -21.0459 26030.6 -03424.8 -07.4952 26254.9
 31 03 2013  06 53  -21.0460 26030.6 -03424.8 -07.4952 26254.9
 31 03 2013  06 54  -21.0460 26030.6 -03424.8 -07.4953 26254.9
 31 03 2013  06 55  -21.0460 26030.4 -03424.8 -07.4952 26254.7
 31 03 2013  06 56  -21.0459 26030.3 -03424.7 -07.4950 26254.6
 31 03 2013  06 57  -21.0459 26030.3 -03424.7 -07.4951 26254.6
 31 03 2013  06 58  -21.0459 26030.4 -03424.8 -07.4953 26254.8
 31 03 2013  06 59  -21.0461 26030.6 -03424.9 -07.4955 26255.0
 31 03 2013  07 00  -21.0461 26030.7 -03425.0 -07.4956 26255.0
 31 03 2013  07 01  -21.0460 26030.7 -03425.0 -07.4956 26255.0
 31 03 2013  07 02  -21.0459 26030.7 -03425.0 -07.4956 26255.1
 31 03 2013  07 03  -21.0458 26030.8 -03425.0 -07.4957 26255.2
 31 03 2013  07 04  -21.0457 26030.9 -03425.1 -07.4958 26255.3
 31 03 2013  07 05  -21.0456 26031.1 -03425.2 -07.4959 26255.4
 31 03 2013  07 06  -21.0455 26031.2 -03425.2 -07.4960 26255.5
 31 03 2013  07 07  -21.0455 26031.2 -03425.3 -07.4961 26255.5
 31 03 2013  07 08  -21.0455 26030.9 -03425.1 -07.4959 26255.3
 31 03 2013  07 09  -21.0453 26030.6 -03425.0 -07.4956 26255.0
 31 03 2013  07 10  -21.0453 26030.5 -03424.9 -07.4955 26254.8
 31 03 2013  07 11  -21.0451 26030.3 -03424.8 -07.4953 26254.7
 31 03 2013  07 12  -21.0448 26030.3 -03424.8 -07.4954 26254.6
 31 03 2013  07 13  -21.0445 26030.2 -03424.8 -07.4954 26254.5
 31 03 2013  07 14  -21.0442 26030.3 -03424.9 -07.4956 26254.7
 31 03 2013  07 15  -21.0438 26030.6 -03425.1 -07.4959 26254.9
 31 03 2013  07 16  -21.0434 26030.5 -03425.2 -07.4960 26254.9
 31 03 2013  07 17  -21.0430 26030.5 -03425.2 -07.4961 26254.9
 31 03 2013  07 18  -21.0429 26030.5 -03425.2 -07.4962 26254.9
 31 03 2013  07 19  -21.0430 26030.6 -03425.4 -07.4964 26255.0
 31 03 2013  07 20  -21.0431 26030.7 -03425.5 -07.4967 26255.1
 31 03 2013  07 21  -21.0433 26030.8 -03425.6 -07.4968 26255.2
 31 03 2013  07 22  -21.0435 26030.7 -03425.5 -07.4968 26255.2
 31 03 2013  07 23  -21.0437 26030.7 -03425.5 -07.4968 26255.1
 31 03 2013  07 24  -21.0438 26030.7 -03425.5 -07.4968 26255.2
 31 03 2013  07 25  -21.0440 26030.9 -03425.6 -07.4969 26255.3
 31 03 2013  07 26  -21.0441 26031.0 -03425.7 -07.4970 26255.4
 31 03 2013  07 27  -21.0443 26031.1 -03425.8 -07.4972 26255.5
 31 03 2013  07 28  -21.0442 26031.1 -03425.7 -07.4971 26255.5
 31 03 2013  07 29  -21.0441 26031.2 -03425.8 -07.4972 26255.7
 31 03 2013  07 30  -21.0441 26031.5 -03425.9 -07.4974 26255.9
 31 03 2013  07 31  -21.0439 26031.7 -03426.0 -07.4976 26256.2
 31 03 2013  07 32  -21.0438 26031.7 -03426.0 -07.4976 26256.2
 31 03 2013  07 33  -21.0438 26031.9 -03426.1 -07.4977 26256.4
 31 03 2013  07 34  -21.0436 26032.1 -03426.2 -07.4979 26256.6
 31 03 2013  07 35  -21.0436 26031.9 -03426.1 -07.4976 26256.3
 31 03 2013  07 36  -21.0436 26031.7 -03426.0 -07.4974 26256.2
 31 03 2013  07 37  -21.0434 26031.7 -03425.9 -07.4973 26256.1
 31 03 2013  07 38  -21.0432 26031.6 -03425.9 -07.4972 26256.1
 31 03 2013  07 39  -21.0430 26031.6 -03425.8 -07.4972 26256.0
 31 03 2013  07 40  -21.0429 26031.4 -03425.8 -07.4971 26255.8
 31 03 2013  07 41  -21.0429 26031.3 -03425.7 -07.4970 26255.8
 31 03 2013  07 42  -21.0429 26031.4 -03425.8 -07.4971 26255.8
 31 03 2013  07 43  -21.0430 26031.5 -03425.9 -07.4973 26255.9
 31 03 2013  07 44  -21.0430 26031.5 -03425.9 -07.4974 26256.0
 31 03 2013  07 45  -21.0429 26031.5 -03426.0 -07.4975 26256.0
 31 03 2013  07 46  -21.0427 26031.5 -03426.0 -07.4976 26256.0
 31 03 2013  07 47  -21.0426 26031.4 -03426.0 -07.4975 26255.9
 31 03 2013  07 48  -21.0424 26031.4 -03426.0 -07.4975 26255.9
 31 03 2013  07 49  -21.0421 26031.4 -03426.0 -07.4976 26255.9
 31 03 2013  07 50  -21.0419 26031.4 -03426.0 -07.4977 26255.9
 31 03 2013  07 51  -21.0415 26031.4 -03426.0 -07.4976 26255.9
 31 03 2013  07 52  -21.0412 26031.4 -03426.0 -07.4977 26255.8
 31 03 2013  07 53  -21.0410 26031.4 -03426.1 -07.4979 26255.9
 31 03 2013  07 54  -21.0408 26031.3 -03426.1 -07.4979 26255.8
 31 03 2013  07 55  -21.0406 26031.1 -03426.0 -07.4978 26255.6
 31 03 2013  07 56  -21.0405 26030.9 -03426.0 -07.4977 26255.3
 31 03 2013  07 57  -21.0406 26031.1 -03426.1 -07.4979 26255.6
 31 03 2013  07 58  -21.0403 26031.2 -03426.2 -07.4981 26255.7
 31 03 2013  07 59  -21.0399 26031.3 -03426.3 -07.4983 26255.8
 31 03 2013  08 00  -21.0393 26031.4 -03426.5 -07.4986 26256.0
 31 03 2013  08 01  -21.0388 26031.5 -03426.5 -07.4987 26256.1
 31 03 2013  08 02  -21.0384 26031.5 -03426.6 -07.4988 26256.1
 31 03 2013  08 03  -21.0381 26031.4 -03426.5 -07.4988 26256.0
 31 03 2013  08 04  -21.0377 26031.3 -03426.5 -07.4988 26255.8
 31 03 2013  08 05  -21.0376 26031.1 -03426.5 -07.4987 26255.7
 31 03 2013  08 06  -21.0376 26031.0 -03426.4 -07.4987 26255.5
 31 03 2013  08 07  -21.0376 26031.0 -03426.5 -07.4988 26255.5
 31 03 2013  08 08  -21.0375 26030.9 -03426.5 -07.4989 26255.5
 31 03 2013  08 09  -21.0375 26030.8 -03426.5 -07.4989 26255.3
 31 03 2013  08 10  -21.0377 26030.6 -03426.5 -07.4990 26255.2
 31 03 2013  08 11  -21.0377 26030.5 -03426.5 -07.4990 26255.1
 31 03 2013  08 12  -21.0378 26030.3 -03426.5 -07.4989 26254.9
 31 03 2013  08 13  -21.0381 26030.3 -03426.5 -07.4991 26254.9
 31 03 2013  08 14  -21.0383 26030.3 -03426.6 -07.4993 26254.9
 31 03 2013  08 15  -21.0382 26030.4 -03426.7 -07.4995 26255.0
 31 03 2013  08 16  -21.0382 26030.4 -03426.7 -07.4995 26254.9
 31 03 2013  08 17  -21.0385 26030.4 -03426.8 -07.4996 26255.0
 31 03 2013  08 18  -21.0387 26030.4 -03426.8 -07.4996 26254.9
 31 03 2013  08 19  -21.0390 26030.3 -03426.8 -07.4997 26254.9
 31 03 2013  08 20  -21.0394 26030.4 -03426.9 -07.4998 26255.0
 31 03 2013  08 21  -21.0396 26030.4 -03426.9 -07.4999 26255.0
 31 03 2013  08 22  -21.0399 26030.5 -03427.0 -07.5000 26255.1
 31 03 2013  08 23  -21.0403 26030.5 -03427.0 -07.5000 26255.1
 31 03 2013  08 24  -21.0405 26030.6 -03427.0 -07.5001 26255.2
 31 03 2013  08 25  -21.0406 26030.6 -03427.0 -07.5000 26255.2
 31 03 2013  08 26  -21.0403 26030.4 -03426.9 -07.4999 26255.0
 31 03 2013  08 27  -21.0400 26030.5 -03426.9 -07.4998 26255.1
 31 03 2013  08 28  -21.0399 26030.5 -03426.9 -07.4998 26255.1
 31 03 2013  08 29  -21.0398 26030.4 -03426.9 -07.4998 26255.0
 31 03 2013  08 30  -21.0400 26030.2 -03426.9 -07.4998 26254.8
 31 03 2013  08 31  -21.0398 26030.0 -03426.8 -07.4997 26254.6
 31 03 2013  08 32  -21.0397 26029.8 -03426.7 -07.4996 26254.3
 31 03 2013  08 33  -21.0396 26029.6 -03426.6 -07.4995 26254.1
 31 03 2013  08 34  -21.0395 26029.5 -03426.6 -07.4995 26254.1
 31 03 2013  08 35  -21.0398 26029.5 -03426.7 -07.4997 26254.1
 31 03 2013  08 36  -21.0399 26029.6 -03426.8 -07.4999 26254.2
 31 03 2013  08 37  -21.0399 26029.5 -03426.8 -07.4999 26254.2
 31 03 2013  08 38  -21.0393 26029.4 -03426.8 -07.4998 26254.0
 31 03 2013  08 39  -21.0389 26029.4 -03426.7 -07.4998 26254.0
 31 03 2013  08 40  -21.0389 26029.4 -03426.8 -07.4999 26254.0
 31 03 2013  08 41  -21.0389 26029.5 -03426.9 -07.5001 26254.1
 31 03 2013  08 42  -21.0387 26029.5 -03426.9 -07.5002 26254.1
 31 03 2013  08 43  -21.0385 26029.5 -03427.0 -07.5003 26254.1
 31 03 2013  08 44  -21.0384 26029.4 -03427.0 -07.5003 26254.1
 31 03 2013  08 45  -21.0380 26029.3 -03427.0 -07.5003 26254.0
 31 03 2013  08 46  -21.0379 26029.2 -03427.0 -07.5004 26253.8
 31 03 2013  08 47  -21.0378 26029.0 -03426.9 -07.5003 26253.6
 31 03 2013  08 48  -21.0375 26028.8 -03426.9 -07.5002 26253.4
 31 03 2013  08 49  -21.0371 26028.7 -03426.8 -07.5002 26253.3
 31 03 2013  08 50  -21.0367 26028.7 -03426.9 -07.5004 26253.3
 31 03 2013  08 51  -21.0368 26028.7 -03427.1 -07.5007 26253.3
 31 03 2013  08 52  -21.0371 26028.8 -03427.3 -07.5011 26253.4
 31 03 2013  08 53  -21.0374 26028.9 -03427.5 -07.5015 26253.6
 31 03 2013  08 54  -21.0373 26028.9 -03427.6 -07.5018 26253.6
 31 03 2013  08 55  -21.0370 26029.0 -03427.7 -07.5020 26253.7
 31 03 2013  08 56  -21.0370 26029.1 -03427.9 -07.5023 26253.9
 31 03 2013  08 57  -21.0374 26029.3 -03428.1 -07.5026 26254.1
 31 03 2013  08 58  -21.0377 26029.4 -03428.2 -07.5030 26254.2
 31 03 2013  08 59  -21.0377 26029.3 -03428.3 -07.5031 26254.1
 31 03 2013  09 00  -21.0377 26029.2 -03428.3 -07.5032 26254.0
 31 03 2013  09 01  -21.0377 26029.3 -03428.4 -07.5034 26254.1
 31 03 2013  09 02  -21.0378 26029.3 -03428.5 -07.5036 26254.1
 31 03 2013  09 03  -21.0380 26029.2 -03428.5 -07.5036 26254.0
 31 03 2013  09 04  -21.0383 26029.0 -03428.5 -07.5037 26253.8
 31 03 2013  09 05  -21.0386 26029.0 -03428.6 -07.5039 26253.8
 31 03 2013  09 06  -21.0391 26028.8 -03428.6 -07.5040 26253.6
 31 03 2013  09 07  -21.0392 26028.8 -03428.6 -07.5041 26253.6
 31 03 2013  09 08  -21.0394 26028.6 -03428.7 -07.5042 26253.5
 31 03 2013  09 09  -21.0396 26028.6 -03428.7 -07.5044 26253.4
 31 03 2013  09 10  -21.0400 26028.5 -03428.8 -07.5046 26253.3
 31 03 2013  09 11  -21.0404 26028.5 -03428.9 -07.5048 26253.4
 31 03 2013  09 12  -21.0408 26028.5 -03429.1 -07.5051 26253.4
 31 03 2013  09 13  -21.0413 26028.7 -03429.2 -07.5054 26253.6
 31 03 2013  09 14  -21.0417 26028.8 -03429.4 -07.5056 26253.7
 31 03 2013  09 15  -21.0420 26028.9 -03429.5 -07.5060 26253.8
 31 03 2013  09 16  -21.0420 26028.9 -03429.6 -07.5061 26253.8
 31 03 2013  09 17  -21.0423 26028.9 -03429.8 -07.5064 26253.9
 31 03 2013  09 18  -21.0427 26029.1 -03429.9 -07.5066 26254.1
 31 03 2013  09 19  -21.0431 26029.1 -03429.9 -07.5068 26254.1
 31 03 2013  09 20  -21.0438 26029.2 -03430.1 -07.5070 26254.2
 31 03 2013  09 21  -21.0443 26029.0 -03430.0 -07.5070 26254.1
 31 03 2013  09 22  -21.0446 26029.0 -03430.0 -07.5070 26254.0
 31 03 2013  09 23  -21.0443 26029.1 -03430.0 -07.5070 26254.1
 31 03 2013  09 24  -21.0445 26029.0 -03430.0 -07.5070 26254.1
 31 03 2013  09 25  -21.0451 26028.8 -03430.1 -07.5071 26253.8
 31 03 2013  09 26  -21.0456 26028.5 -03430.0 -07.5071 26253.6
 31 03 2013  09 27  -21.0460 26028.6 -03430.1 -07.5074 26253.6
 31 03 2013  09 28  -21.0462 26028.6 -03430.2 -07.5076 26253.7
 31 03 2013  09 29  -21.0465 26028.6 -03430.3 -07.5077 26253.6
 31 03 2013  09 30  -21.0469 26028.5 -03430.3 -07.5078 26253.6
 31 03 2013  09 31  -21.0472 26028.4 -03430.4 -07.5079 26253.5
 31 03 2013  09 32  -21.0477 26028.4 -03430.4 -07.5080 26253.5
 31 03 2013  09 33  -21.0482 26028.4 -03430.5 -07.5081 26253.5
 31 03 2013  09 34  -21.0485 26028.4 -03430.5 -07.5082 26253.5
 31 03 2013  09 35  -21.0490 26028.5 -03430.6 -07.5083 26253.6
 31 03 2013  09 36  -21.0495 26028.7 -03430.7 -07.5086 26253.8
 31 03 2013  09 37  -21.0501 26029.0 -03430.9 -07.5090 26254.1
 31 03 2013  09 38  -21.0506 26029.2 -03431.1 -07.5093 26254.4
 31 03 2013  09 39  -21.0510 26029.3 -03431.2 -07.5094 26254.5
 31 03 2013  09 40  -21.0512 26029.2 -03431.2 -07.5094 26254.4
 31 03 2013  09 41  -21.0512 26029.1 -03431.1 -07.5093 26254.3
 31 03 2013  09 42  -21.0515 26029.1 -03431.1 -07.5092 26254.3
 31 03 2013  09 43  -21.0523 26029.2 -03431.1 -07.5092 26254.4
 31 03 2013  09 44  -21.0529 26029.2 -03431.1 -07.5093 26254.3
 31 03 2013  09 45  -21.0535 26029.2 -03431.2 -07.5094 26254.4
 31 03 2013  09 46  -21.0540 26029.2 -03431.2 -07.5094 26254.4
 31 03 2013  09 47  -21.0545 26029.2 -03431.2 -07.5095 26254.4
 31 03 2013  09 48  -21.0549 26029.2 -03431.2 -07.5095 26254.4
 31 03 2013  09 49  -21.0551 26029.3 -03431.2 -07.5095 26254.5
 31 03 2013  09 50  -21.0556 26029.4 -03431.3 -07.5096 26254.6
 31 03 2013  09 51  -21.0563 26029.5 -03431.3 -07.5097 26254.7
 31 03 2013  09 52  -21.0570 26029.6 -03431.4 -07.5098 26254.8
 31 03 2013  09 53  -21.0574 26029.6 -03431.4 -07.5098 26254.8
 31 03 2013  09 54  -21.0579 26029.7 -03431.4 -07.5098 26254.9
 31 03 2013  09 55  -21.0583 26029.7 -03431.4 -07.5099 26254.9
 31 03 2013  09 56  -21.0587 26029.7 -03431.4 -07.5099 26254.9
 31 03 2013  09 57  -21.0589 26029.8 -03431.4 -07.5098 26255.0
 31 03 2013  09 58  -21.0590 26029.8 -03431.4 -07.5098 26255.0
 31 03 2013  09 59  -21.0593 26029.9 -03431.5 -07.5099 26255.1
 31 03 2013  10 00  -21.0595 26029.8 -03431.4 -07.5098 26255.1
 31 03 2013  10 01  -21.0598 26029.8 -03431.4 -07.5098 26255.0
 31 03 2013  10 02  -21.0601 26029.8 -03431.4 -07.5097 26255.0
 31 03 2013  10 03  -21.0606 26029.8 -03431.3 -07.5096 26255.0
 31 03 2013  10 04  -21.0612 26029.7 -03431.3 -07.5095 26254.9
 31 03 2013  10 05  -21.0616 26029.6 -03431.2 -07.5095 26254.8
 31 03 2013  10 06  -21.0621 26029.5 -03431.2 -07.5094 26254.7
 31 03 2013  10 07  -21.0625 26029.5 -03431.2 -07.5094 26254.6
 31 03 2013  10 08  -21.0636 26029.5 -03431.2 -07.5094 26254.6
 31 03 2013  10 09  -21.0640 26029.4 -03431.2 -07.5094 26254.6
 31 03 2013  10 10  -21.0639 26029.5 -03431.2 -07.5093 26254.7
 31 03 2013  10 11  -21.0643 26029.7 -03431.2 -07.5094 26254.9
 31 03 2013  10 12  -21.0655 26029.8 -03431.3 -07.5094 26255.0
 31 03 2013  10 13  -21.0666 26029.9 -03431.3 -07.5095 26255.1
 31 03 2013  10 14  -21.0672 26030.1 -03431.3 -07.5095 26255.3
 31 03 2013  10 15  -21.0672 26030.2 -03431.3 -07.5094 26255.4
 31 03 2013  10 16  -21.0669 26030.4 -03431.3 -07.5094 26255.5
 31 03 2013  10 17  -21.0671 26030.6 -03431.3 -07.5094 26255.8
 31 03 2013  10 18  -21.0677 26031.0 -03431.5 -07.5095 26256.2
 31 03 2013  10 19  -21.0684 26031.3 -03431.5 -07.5096 26256.5
 31 03 2013  10 20  -21.0679 26031.5 -03431.5 -07.5094 26256.7
 31 03 2013  10 21  -21.0666 26031.7 -03431.3 -07.5091 26256.9
 31 03 2013  10 22  -21.0670 26032.0 -03431.3 -07.5090 26257.2
 31 03 2013  10 23  -21.0683 26032.1 -03431.3 -07.5089 26257.3
 31 03 2013  10 24  -21.0689 26032.1 -03431.3 -07.5088 26257.2
 31 03 2013  10 25  -21.0694 26032.2 -03431.2 -07.5087 26257.4
 31 03 2013  10 26  -21.0691 26032.4 -03431.2 -07.5085 26257.6
 31 03 2013  10 27  -21.0693 26032.6 -03431.1 -07.5084 26257.7
 31 03 2013  10 28  -21.0702 26032.8 -03431.1 -07.5083 26257.9
 31 03 2013  10 29  -21.0707 26032.8 -03431.0 -07.5080 26257.9
 31 03 2013  10 30  -21.0714 26032.8 -03430.9 -07.5079 26257.9
 31 03 2013  10 31  -21.0718 26032.8 -03430.9 -07.5078 26257.9
 31 03 2013  10 32  -21.0721 26032.8 -03430.9 -07.5078 26257.9
 31 03 2013  10 33  -21.0726 26033.0 -03430.9 -07.5078 26258.1
 31 03 2013  10 34  -21.0730 26033.2 -03431.0 -07.5079 26258.3
 31 03 2013  10 35  -21.0736 26033.2 -03431.0 -07.5079 26258.3
 31 03 2013  10 36  -21.0741 26033.3 -03431.0 -07.5078 26258.5
 31 03 2013  10 37  -21.0747 26033.6 -03431.0 -07.5078 26258.7
 31 03 2013  10 38  -21.0752 26033.9 -03431.0 -07.5077 26259.0
 31 03 2013  10 39  -21.0755 26033.9 -03430.9 -07.5074 26259.0
 31 03 2013  10 40  -21.0756 26034.1 -03430.8 -07.5071 26259.2
 31 03 2013  10 41  -21.0762 26034.0 -03430.6 -07.5069 26259.0
 31 03 2013  10 42  -21.0765 26034.0 -03430.5 -07.5067 26259.0
 31 03 2013  10 43  -21.0768 26034.1 -03430.5 -07.5067 26259.2
 31 03 2013  10 44  -21.0768 26034.1 -03430.5 -07.5066 26259.2
 31 03 2013  10 45  -21.0772 26034.3 -03430.6 -07.5066 26259.4
 31 03 2013  10 46  -21.0775 26034.6 -03430.7 -07.5068 26259.7
 31 03 2013  10 47  -21.0779 26034.8 -03430.7 -07.5069 26259.9
 31 03 2013  10 48  -21.0782 26035.1 -03430.8 -07.5070 26260.2
 31 03 2013  10 49  -21.0780 26035.4 -03430.9 -07.5070 26260.5
 31 03 2013  10 50  -21.0776 26035.6 -03430.9 -07.5069 26260.7
 31 03 2013  10 51  -21.0775 26035.6 -03430.8 -07.5067 26260.7
 31 03 2013  10 52  -21.0779 26035.8 -03430.8 -07.5068 26260.9
 31 03 2013  10 53  -21.0788 26036.0 -03430.9 -07.5070 26261.1
 31 03 2013  10 54  -21.0797 26036.4 -03431.1 -07.5072 26261.5
 31 03 2013  10 55  -21.0803 26036.7 -03431.2 -07.5074 26261.8
 31 03 2013  10 56  -21.0806 26037.1 -03431.3 -07.5075 26262.2
 31 03 2013  10 57  -21.0808 26037.5 -03431.4 -07.5075 26262.7
 31 03 2013  10 58  -21.0807 26038.1 -03431.4 -07.5074 26263.2
 31 03 2013  10 59  -21.0810 26038.4 -03431.3 -07.5072 26263.5
 31 03 2013  11 00  -21.0811 26038.6 -03431.2 -07.5069 26263.7
 31 03 2013  11 01  -21.0816 26038.6 -03431.1 -07.5065 26263.7
 31 03 2013  11 02  -21.0822 26038.8 -03431.1 -07.5064 26263.8
 31 03 2013  11 03  -21.0827 26039.0 -03431.1 -07.5064 26264.1
 31 03 2013  11 04  -21.0836 26039.1 -03431.0 -07.5063 26264.2
 31 03 2013  11 05  -21.0844 26039.3 -03431.1 -07.5063 26264.4
 31 03 2013  11 06  -21.0851 26039.7 -03431.1 -07.5063 26264.8
 31 03 2013  11 07  -21.0857 26040.1 -03431.1 -07.5062 26265.1
 31 03 2013  11 08  -21.0861 26040.4 -03431.1 -07.5061 26265.4
 31 03 2013  11 09  -21.0864 26040.7 -03431.1 -07.5059 26265.7
 31 03 2013  11 10  -21.0865 26041.2 -03431.1 -07.5059 26266.2
 31 03 2013  11 11  -21.0869 26041.5 -03431.1 -07.5058 26266.5
 31 03 2013  11 12  -21.0873 26041.8 -03431.1 -07.5057 26266.9
 31 03 2013  11 13  -21.0881 26042.2 -03431.1 -07.5056 26267.3
 31 03 2013  11 14  -21.0890 26042.6 -03431.1 -07.5055 26267.7
 31 03 2013  11 15  -21.0896 26043.0 -03431.1 -07.5054 26268.1
 31 03 2013  11 16  -21.0902 26043.4 -03431.1 -07.5053 26268.5
 31 03 2013  11 17  -21.0908 26043.7 -03431.1 -07.5051 26268.7
 31 03 2013  11 18  -21.0912 26044.1 -03431.1 -07.5050 26269.2
 31 03 2013  11 19  -21.0915 26044.6 -03431.0 -07.5048 26269.6
 31 03 2013  11 20  -21.0920 26045.0 -03431.0 -07.5046 26270.1
 31 03 2013  11 21  -21.0926 26045.3 -03430.9 -07.5043 26270.3
 31 03 2013  11 22  -21.0933 26045.6 -03430.9 -07.5041 26270.6
 31 03 2013  11 23  -21.0941 26045.9 -03430.8 -07.5039 26270.9
 31 03 2013  11 24  -21.0949 26046.2 -03430.7 -07.5036 26271.2
 31 03 2013  11 25  -21.0954 26046.4 -03430.6 -07.5033 26271.4
 31 03 2013  11 26  -21.0961 26046.7 -03430.5 -07.5030 26271.7
 31 03 2013  11 27  -21.0971 26047.0 -03430.4 -07.5027 26271.9
 31 03 2013  11 28  -21.0979 26047.2 -03430.4 -07.5025 26272.1
 31 03 2013  11 29  -21.0989 26047.4 -03430.3 -07.5023 26272.3
 31 03 2013  11 30  -21.1003 26047.6 -03430.2 -07.5021 26272.5
 31 03 2013  11 31  -21.1012 26048.0 -03430.2 -07.5019 26272.8
 31 03 2013  11 32  -21.1016 26048.6 -03430.2 -07.5018 26273.5
 31 03 2013  11 33  -21.1019 26049.0 -03430.1 -07.5015 26273.9
 31 03 2013  11 34  -21.1019 26049.5 -03430.0 -07.5011 26274.3
 31 03 2013  11 35  -21.1023 26049.8 -03429.9 -07.5007 26274.6
 31 03 2013  11 36  -21.1031 26049.9 -03429.7 -07.5003 26274.7
 31 03 2013  11 37  -21.1043 26049.9 -03429.4 -07.4998 26274.6
 31 03 2013  11 38  -21.1054 26050.1 -03429.4 -07.4995 26274.9
 31 03 2013  11 39  -21.1062 26050.4 -03429.3 -07.4992 26275.2
 31 03 2013  11 40  -21.1070 26050.7 -03429.1 -07.4988 26275.4
 31 03 2013  11 41  -21.1076 26051.1 -03429.0 -07.4985 26275.8
 31 03 2013  11 42  -21.1083 26051.5 -03428.9 -07.4981 26276.2
 31 03 2013  11 43  -21.1089 26051.9 -03428.8 -07.4978 26276.6
 31 03 2013  11 44  -21.1097 26052.2 -03428.6 -07.4973 26276.9
 31 03 2013  11 45  -21.1106 26052.6 -03428.4 -07.4969 26277.2
 31 03 2013  11 46  -21.1115 26052.9 -03428.2 -07.4963 26277.4
 31 03 2013  11 47  -21.1122 26053.2 -03428.0 -07.4958 26277.8
 31 03 2013  11 48  -21.1130 26053.7 -03427.9 -07.4953 26278.2
 31 03 2013  11 49  -21.1138 26053.9 -03427.6 -07.4946 26278.4
 31 03 2013  11 50  -21.1147 26054.0 -03427.3 -07.4939 26278.5
 31 03 2013  11 51  -21.1158 26054.1 -03427.0 -07.4933 26278.6
 31 03 2013  11 52  -21.1171 26054.3 -03426.8 -07.4928 26278.7
 31 03 2013  11 53  -21.1179 26054.7 -03426.7 -07.4924 26279.1
 31 03 2013  11 54  -21.1186 26055.2 -03426.5 -07.4920 26279.6
 31 03 2013  11 55  -21.1193 26055.8 -03426.5 -07.4916 26280.2
 31 03 2013  11 56  -21.1199 26056.3 -03426.3 -07.4911 26280.6
 31 03 2013  11 57  -21.1200 26057.0 -03426.1 -07.4904 26281.2
 31 03 2013  11 58  -21.1206 26057.4 -03425.8 -07.4897 26281.7
 31 03 2013  11 59  -21.1216 26057.4 -03425.4 -07.4888 26281.6
 31 03 2013  12 00  -21.1228 26057.3 -03425.0 -07.4880 26281.4
 31 03 2013  12 01  -21.1242 26057.3 -03424.7 -07.4874 26281.4
 31 03 2013  12 02  -21.1254 26057.5 -03424.4 -07.4868 26281.5
 31 03 2013  12 03  -21.1261 26057.8 -03424.2 -07.4863 26281.8
 31 03 2013  12 04  -21.1268 26058.3 -03424.1 -07.4858 26282.3
 31 03 2013  12 05  -21.1278 26058.7 -03423.9 -07.4852 26282.7
 31 03 2013  12 06  -21.1287 26059.2 -03423.6 -07.4846 26283.1
 31 03 2013  12 07  -21.1294 26059.6 -03423.4 -07.4839 26283.5
 31 03 2013  12 08  -21.1303 26060.0 -03423.1 -07.4833 26283.9
 31 03 2013  12 09  -21.1310 26060.5 -03422.9 -07.4826 26284.3
 31 03 2013  12 10  -21.1316 26060.8 -03422.6 -07.4819 26284.6
 31 03 2013  12 11  -21.1325 26061.0 -03422.2 -07.4811 26284.7
 31 03 2013  12 12  -21.1336 26061.1 -03422.0 -07.4804 26284.8
 31 03 2013  12 13  -21.1343 26061.4 -03421.7 -07.4799 26285.1
 31 03 2013  12 14  -21.1347 26062.0 -03421.6 -07.4793 26285.6
 31 03 2013  12 15  -21.1349 26062.4 -03421.3 -07.4787 26286.0
 31 03 2013  12 16  -21.1353 26062.9 -03421.1 -07.4781 26286.4
 31 03 2013  12 17  -21.1360 26063.1 -03420.7 -07.4772 26286.6
 31 03 2013  12 18  -21.1367 26063.3 -03420.4 -07.4764 26286.8
 31 03 2013  12 19  -21.1373 26063.5 -03420.1 -07.4758 26287.0
 31 03 2013  12 20  -21.1376 26063.7 -03419.7 -07.4749 26287.1
 31 03 2013  12 21  -21.1381 26063.7 -03419.4 -07.4742 26287.1
 31 03 2013  12 22  -21.1386 26064.1 -03419.2 -07.4736 26287.4
 31 03 2013  12 23  -21.1388 26064.8 -03419.0 -07.4731 26288.1
 31 03 2013  12 24  -21.1392 26065.2 -03418.8 -07.4724 26288.5
 31 03 2013  12 25  -21.1399 26065.4 -03418.5 -07.4717 26288.7
 31 03 2013  12 26  -21.1402 26065.4 -03418.1 -07.4708 26288.6
 31 03 2013  12 27  -21.1407 26065.5 -03417.7 -07.4701 26288.6
 31 03 2013  12 28  -21.1410 26065.8 -03417.5 -07.4695 26288.9
 31 03 2013  12 29  -21.1410 26066.1 -03417.3 -07.4689 26289.2
 31 03 2013  12 30  -21.1413 26066.4 -03417.0 -07.4683 26289.5
 31 03 2013  12 31  -21.1417 26066.7 -03416.8 -07.4677 26289.7
 31 03 2013  12 32  -21.1422 26066.8 -03416.5 -07.4670 26289.7
 31 03 2013  12 33  -21.1428 26066.7 -03416.1 -07.4662 26289.6
 31 03 2013  12 34  -21.1433 26066.9 -03415.9 -07.4658 26289.8
 31 03 2013  12 35  -21.1437 26067.4 -03415.8 -07.4654 26290.3
 31 03 2013  12 36  -21.1442 26067.9 -03415.7 -07.4649 26290.7
 31 03 2013  12 37  -21.1446 26068.2 -03415.5 -07.4645 26291.0
 31 03 2013  12 38  -21.1450 26068.8 -03415.3 -07.4640 26291.5
 31 03 2013  12 39  -21.1451 26069.2 -03415.2 -07.4634 26292.0
 31 03 2013  12 40  -21.1452 26069.6 -03414.9 -07.4628 26292.3
 31 03 2013  12 41  -21.1453 26069.8 -03414.7 -07.4622 26292.5
 31 03 2013  12 42  -21.1454 26070.1 -03414.4 -07.4615 26292.7
 31 03 2013  12 43  -21.1454 26070.5 -03414.2 -07.4610 26293.1
 31 03 2013  12 44  -21.1455 26070.8 -03414.0 -07.4605 26293.4
 31 03 2013  12 45  -21.1457 26071.1 -03413.8 -07.4599 26293.7
 31 03 2013  12 46  -21.1460 26071.3 -03413.6 -07.4594 26293.8
 31 03 2013  12 47  -21.1463 26071.5 -03413.4 -07.4590 26294.0
 31 03 2013  12 48  -21.1463 26071.7 -03413.2 -07.4585 26294.2
 31 03 2013  12 49  -21.1465 26072.1 -03413.1 -07.4582 26294.6
 31 03 2013  12 50  -21.1466 26072.4 -03413.0 -07.4579 26294.8
 31 03 2013  12 51  -21.1468 26072.7 -03412.8 -07.4574 26295.1
 31 03 2013  12 52  -21.1473 26073.1 -03412.7 -07.4571 26295.5
 31 03 2013  12 53  -21.1474 26073.5 -03412.7 -07.4568 26295.9
 31 03 2013  12 54  -21.1471 26073.9 -03412.5 -07.4564 26296.2
 31 03 2013  12 55  -21.1467 26074.4 -03412.5 -07.4561 26296.8
 31 03 2013  12 56  -21.1463 26074.8 -03412.3 -07.4557 26297.2
 31 03 2013  12 57  -21.1461 26075.4 -03412.2 -07.4553 26297.7
 31 03 2013  12 58  -21.1461 26075.8 -03412.1 -07.4549 26298.0
 31 03 2013  12 59  -21.1459 26075.8 -03411.8 -07.4542 26298.1
 31 03 2013  13 00  -21.1458 26075.9 -03411.5 -07.4536 26298.1
 31 03 2013  13 01  -21.1459 26076.1 -03411.4 -07.4533 26298.3
 31 03 2013  13 02  -21.1460 26076.4 -03411.3 -07.4530 26298.6
 31 03 2013  13 03  -21.1458 26076.7 -03411.1 -07.4526 26298.9
 31 03 2013  13 04  -21.1455 26077.2 -03411.1 -07.4523 26299.3
 31 03 2013  13 05  -21.1450 26077.7 -03411.0 -07.4520 26299.8
 31 03 2013  13 06  -21.1448 26078.0 -03410.8 -07.4516 26300.2
 31 03 2013  13 07  -21.1446 26078.0 -03410.5 -07.4510 26300.1
 31 03 2013  13 08  -21.1443 26078.3 -03410.4 -07.4505 26300.3
 31 03 2013  13 09  -21.1439 26078.4 -03410.2 -07.4501 26300.4
 31 03 2013  13 10  -21.1433 26078.5 -03410.0 -07.4496 26300.5
 31 03 2013  13 11  -21.1430 26079.0 -03409.9 -07.4494 26301.0
 31 03 2013  13 12  -21.1429 26079.3 -03409.9 -07.4491 26301.3
 31 03 2013  13 13  -21.1425 26079.8 -03409.8 -07.4488 26301.7
 31 03 2013  13 14  -21.1413 26079.8 -03409.5 -07.4482 26301.7
 31 03 2013  13 15  -21.1400 26079.7 -03409.2 -07.4476 26301.6
 31 03 2013  13 16  -21.1391 26079.9 -03409.1 -07.4473 26301.7
 31 03 2013  13 17  -21.1383 26079.8 -03408.9 -07.4470 26301.7
 31 03 2013  13 18  -21.1376 26079.9 -03408.8 -07.4467 26301.7
 31 03 2013  13 19  -21.1368 26080.1 -03408.8 -07.4465 26302.0
 31 03 2013  13 20  -21.1359 26080.6 -03408.8 -07.4465 26302.4
 31 03 2013  13 21  -21.1351 26081.0 -03408.9 -07.4465 26302.9
 31 03 2013  13 22  -21.1346 26081.4 -03408.8 -07.4464 26303.2
 31 03 2013  13 23  -21.1342 26081.7 -03408.8 -07.4463 26303.5
 31 03 2013  13 24  -21.1334 26081.7 -03408.7 -07.4459 26303.5
 31 03 2013  13 25  -21.1327 26082.1 -03408.7 -07.4458 26303.9
 31 03 2013  13 26  -21.1317 26082.3 -03408.6 -07.4455 26304.1
 31 03 2013  13 27  -21.1308 26082.3 -03408.4 -07.4451 26304.0
 31 03 2013  13 28  -21.1299 26082.4 -03408.3 -07.4450 26304.2
 31 03 2013  13 29  -21.1291 26082.6 -03408.3 -07.4449 26304.4
 31 03 2013  13 30  -21.1286 26083.2 -03408.5 -07.4450 26305.0
 31 03 2013  13 31  -21.1279 26083.8 -03408.6 -07.4451 26305.6
 31 03 2013  13 32  -21.1267 26083.7 -03408.4 -07.4447 26305.5
 31 03 2013  13 33  -21.1254 26084.0 -03408.3 -07.4444 26305.7
 31 03 2013  13 34  -21.1247 26084.8 -03408.5 -07.4446 26306.6
 31 03 2013  13 35  -21.1242 26085.5 -03408.5 -07.4445 26307.3
 31 03 2013  13 36  -21.1238 26086.2 -03408.6 -07.4443 26308.0
 31 03 2013  13 37  -21.1235 26085.8 -03408.0 -07.4434 26307.5
 31 03 2013  13 38  -21.1224 26085.9 -03407.8 -07.4429 26307.5
 31 03 2013  13 39  -21.1208 26085.4 -03407.4 -07.4422 26307.0
 31 03 2013  13 40  -21.1195 26085.5 -03407.4 -07.4420 26307.1
 31 03 2013  13 41  -21.1185 26086.2 -03407.6 -07.4423 26307.8
 31 03 2013  13 42  -21.1174 26086.8 -03407.7 -07.4424 26308.4
 31 03 2013  13 43  -21.1159 26087.0 -03407.6 -07.4421 26308.6
 31 03 2013  13 44  -21.1142 26087.1 -03407.4 -07.4417 26308.6
 31 03 2013  13 45  -21.1130 26087.3 -03407.4 -07.4415 26308.9
 31 03 2013  13 46  -21.1121 26088.2 -03407.6 -07.4418 26309.9
 31 03 2013  13 47  -21.1119 26089.1 -03407.7 -07.4418 26310.7
 31 03 2013  13 48  -21.1125 26090.5 -03408.1 -07.4421 26312.1
 31 03 2013  13 49  -21.1118 26089.6 -03407.4 -07.4408 26311.2
 31 03 2013  13 50  -21.1107 26088.7 -03406.8 -07.4399 26310.2
 31 03 2013  13 51  -21.1095 26088.5 -03406.7 -07.4396 26310.0
 31 03 2013  13 52  -21.1089 26089.2 -03407.0 -07.4402 26310.8
 31 03 2013  13 53  -21.1083 26089.2 -03406.9 -07.4400 26310.7
 31 03 2013  13 54  -21.1078 26089.8 -03407.2 -07.4403 26311.3
 31 03 2013  13 55  -21.1068 26089.5 -03406.9 -07.4398 26311.0
 31 03 2013  13 56  -21.1063 26090.0 -03407.1 -07.4401 26311.5
 31 03 2013  13 57  -21.1060 26090.0 -03407.1 -07.4401 26311.5
 31 03 2013  13 58  -21.1056 26089.9 -03407.0 -07.4399 26311.4
 31 03 2013  13 59  -21.1049 26090.0 -03407.0 -07.4399 26311.5
 31 03 2013  14 00  -21.1044 26090.2 -03407.0 -07.4399 26311.7
 31 03 2013  14 01  -21.1041 26090.4 -03407.0 -07.4399 26311.9
 31 03 2013  14 02  -21.1037 26090.0 -03406.8 -07.4395 26311.5
 31 03 2013  14 03  -21.1034 26089.7 -03406.6 -07.4392 26311.2
 31 03 2013  14 04  -21.1028 26089.4 -03406.4 -07.4388 26310.8
 31 03 2013  14 05  -21.1019 26088.8 -03406.2 -07.4385 26310.2
 31 03 2013  14 06  -21.1010 26088.9 -03406.3 -07.4387 26310.3
 31 03 2013  14 07  -21.1004 26088.9 -03406.3 -07.4388 26310.3
 31 03 2013  14 08  -21.1000 26089.2 -03406.4 -07.4389 26310.6
 31 03 2013  14 09  -21.1002 26089.7 -03406.6 -07.4390 26311.2
 31 03 2013  14 10  -21.1006 26090.1 -03406.6 -07.4390 26311.6
 31 03 2013  14 11  -21.1009 26090.1 -03406.4 -07.4387 26311.5
 31 03 2013  14 12  -21.1007 26089.5 -03406.0 -07.4379 26310.9
 31 03 2013  14 13  -21.0999 26088.7 -03405.5 -07.4372 26310.0
 31 03 2013  14 14  -21.0985 26088.4 -03405.4 -07.4369 26309.7
 31 03 2013  14 15  -21.0971 26088.3 -03405.4 -07.4370 26309.6
 31 03 2013  14 16  -21.0959 26088.4 -03405.5 -07.4372 26309.8
 31 03 2013  14 17  -21.0954 26089.1 -03405.9 -07.4378 26310.5
 31 03 2013  14 18  -21.0946 26089.2 -03405.9 -07.4379 26310.6
 31 03 2013  14 19  -21.0938 26089.4 -03406.0 -07.4380 26310.8
 31 03 2013  14 20  -21.0931 26090.1 -03406.3 -07.4385 26311.5
 31 03 2013  14 21  -21.0920 26090.3 -03406.4 -07.4385 26311.8
 31 03 2013  14 22  -21.0911 26090.7 -03406.5 -07.4386 26312.1
 31 03 2013  14 23  -21.0901 26090.9 -03406.5 -07.4386 26312.3
 31 03 2013  14 24  -21.0890 26090.7 -03406.4 -07.4384 26312.1
 31 03 2013  14 25  -21.0881 26090.8 -03406.5 -07.4386 26312.2
 31 03 2013  14 26  -21.0874 26091.2 -03406.7 -07.4389 26312.6
 31 03 2013  14 27  -21.0868 26091.5 -03406.8 -07.4391 26313.0
 31 03 2013  14 28  -21.0860 26091.4 -03406.8 -07.4390 26312.9
 31 03 2013  14 29  -21.0852 26091.4 -03406.7 -07.4389 26312.9
 31 03 2013  14 30  -21.0848 26091.5 -03406.8 -07.4390 26313.0
 31 03 2013  14 31  -21.0843 26091.5 -03406.8 -07.4390 26313.0
 31 03 2013  14 32  -21.0839 26091.6 -03406.8 -07.4390 26313.1
 31 03 2013  14 33  -21.0833 26091.4 -03406.7 -07.4390 26312.9
 31 03 2013  14 34  -21.0825 26091.2 -03406.6 -07.4388 26312.7
 31 03 2013  14 35  -21.0821 26091.2 -03406.7 -07.4389 26312.7
 31 03 2013  14 36  -21.0816 26091.1 -03406.7 -07.4390 26312.5
 31 03 2013  14 37  -21.0814 26091.0 -03406.7 -07.4391 26312.5
 31 03 2013  14 38  -21.0807 26090.9 -03406.7 -07.4391 26312.4
 31 03 2013  14 39  -21.0802 26091.0 -03406.8 -07.4392 26312.5
 31 03 2013  14 40  -21.0800 26091.2 -03407.0 -07.4395 26312.7
 31 03 2013  14 41  -21.0797 26091.4 -03407.1 -07.4397 26312.9
 31 03 2013  14 42  -21.0794 26091.6 -03407.1 -07.4397 26313.1
 31 03 2013  14 43  -21.0790 26091.6 -03407.0 -07.4396 26313.1
 31 03 2013  14 44  -21.0785 26091.3 -03406.8 -07.4392 26312.8
 31 03 2013  14 45  -21.0778 26091.0 -03406.7 -07.4389 26312.4
 31 03 2013  14 46  -21.0774 26090.8 -03406.7 -07.4390 26312.2
 31 03 2013  14 47  -21.0772 26091.1 -03406.8 -07.4393 26312.6
 31 03 2013  14 48  -21.0769 26091.3 -03406.9 -07.4394 26312.8
 31 03 2013  14 49  -21.0763 26091.5 -03406.9 -07.4393 26313.0
 31 03 2013  14 50  -21.0757 26091.5 -03406.9 -07.4392 26313.0
 31 03 2013  14 51  -21.0753 26091.5 -03406.8 -07.4390 26312.9
 31 03 2013  14 52  -21.0748 26091.3 -03406.7 -07.4389 26312.8
 31 03 2013  14 53  -21.0741 26090.9 -03406.5 -07.4385 26312.4
 31 03 2013  14 54  -21.0734 26090.6 -03406.3 -07.4383 26312.0
 31 03 2013  14 55  -21.0730 26090.6 -03406.4 -07.4384 26312.0
 31 03 2013  14 56  -21.0727 26090.7 -03406.4 -07.4385 26312.1
 31 03 2013  14 57  -21.0725 26090.7 -03406.4 -07.4385 26312.1
 31 03 2013  14 58  -21.0721 26090.7 -03406.4 -07.4385 26312.2
 31 03 2013  14 59  -21.0717 26090.8 -03406.4 -07.4384 26312.3
 31 03 2013  15 00  -21.0714 26090.8 -03406.4 -07.4384 26312.2
 31 03 2013  15 01  -21.0709 26090.9 -03406.4 -07.4383 26312.3
 31 03 2013  15 02  -21.0706 26090.9 -03406.4 -07.4383 26312.3
 31 03 2013  15 03  -21.0702 26090.6 -03406.2 -07.4381 26312.0
 31 03 2013  15 04  -21.0696 26090.1 -03406.0 -07.4377 26311.5
 31 03 2013  15 05  -21.0691 26090.0 -03405.9 -07.4377 26311.4
 31 03 2013  15 06  -21.0688 26089.9 -03406.0 -07.4377 26311.3
 31 03 2013  15 07  -21.0681 26089.7 -03405.9 -07.4377 26311.0
 31 03 2013  15 08  -21.0674 26089.3 -03405.9 -07.4378 26310.7
 31 03 2013  15 09  -21.0670 26089.3 -03406.0 -07.4381 26310.7
 31 03 2013  15 10  -21.0668 26089.2 -03406.2 -07.4384 26310.7
 31 03 2013  15 11  -21.0662 26088.9 -03406.1 -07.4383 26310.3
 31 03 2013  15 12  -21.0654 26088.4 -03406.0 -07.4383 26309.8
 31 03 2013  15 13  -21.0650 26087.9 -03406.0 -07.4383 26309.3
 31 03 2013  15 14  -21.0650 26087.5 -03406.0 -07.4385 26308.9
 31 03 2013  15 15  -21.0647 26087.2 -03406.0 -07.4385 26308.6
 31 03 2013  15 16  -21.0647 26087.0 -03406.0 -07.4386 26308.4
 31 03 2013  15 17  -21.0648 26086.8 -03406.0 -07.4387 26308.2
 31 03 2013  15 18  -21.0647 26086.4 -03405.9 -07.4387 26307.8
 31 03 2013  15 19  -21.0649 26085.6 -03405.7 -07.4384 26307.0
 31 03 2013  15 20  -21.0649 26084.7 -03405.5 -07.4382 26306.1
 31 03 2013  15 21  -21.0638 26083.7 -03405.4 -07.4382 26305.1
 31 03 2013  15 22  -21.0624 26083.1 -03405.4 -07.4385 26304.4
 31 03 2013  15 23  -21.0616 26083.2 -03405.9 -07.4394 26304.6
 31 03 2013  15 24  -21.0612 26083.5 -03406.4 -07.4404 26305.0
 31 03 2013  15 25  -21.0610 26083.9 -03406.8 -07.4413 26305.4
 31 03 2013  15 26  -21.0615 26084.3 -03407.2 -07.4421 26305.9
 31 03 2013  15 27  -21.0615 26084.6 -03407.5 -07.4424 26306.2
 31 03 2013  15 28  -21.0618 26085.2 -03407.8 -07.4429 26306.9
 31 03 2013  15 29  -21.0613 26085.6 -03408.0 -07.4432 26307.3
 31 03 2013  15 30  -21.0614 26086.0 -03408.2 -07.4437 26307.7
 31 03 2013  15 31  -21.0613 26086.6 -03408.5 -07.4442 26308.3
 31 03 2013  15 32  -21.0616 26087.2 -03408.8 -07.4447 26308.9
 31 03 2013  15 33  -21.0621 26087.8 -03409.1 -07.4450 26309.6
 31 03 2013  15 34  -21.0631 26088.3 -03409.2 -07.4452 26310.1
 31 03 2013  15 35  -21.0641 26088.3 -03409.2 -07.4451 26310.1
 31 03 2013  15 36  -21.0649 26088.4 -03409.0 -07.4448 26310.2
 31 03 2013  15 37  -21.0652 26088.2 -03408.8 -07.4444 26309.9
 31 03 2013  15 38  -21.0650 26087.6 -03408.5 -07.4439 26309.3
 31 03 2013  15 39  -21.0648 26087.2 -03408.4 -07.4437 26308.9
 31 03 2013  15 40  -21.0649 26086.9 -03408.4 -07.4438 26308.6
 31 03 2013  15 41  -21.0651 26086.7 -03408.4 -07.4440 26308.4
 31 03 2013  15 42  -21.0653 26086.4 -03408.5 -07.4442 26308.2
 31 03 2013  15 43  -21.0655 26086.4 -03408.6 -07.4445 26308.1
 31 03 2013  15 44  -21.0658 26086.4 -03408.8 -07.4449 26308.2
 31 03 2013  15 45  -21.0663 26086.4 -03408.9 -07.4451 26308.2
 31 03 2013  15 46  -21.0667 26086.3 -03408.9 -07.4451 26308.0
 31 03 2013  15 47  -21.0674 26086.2 -03409.0 -07.4453 26308.0
 31 03 2013  15 48  -21.0677 26086.1 -03409.0 -07.4454 26307.9
 31 03 2013  15 49  -21.0679 26085.8 -03409.0 -07.4454 26307.6
 31 03 2013  15 50  -21.0679 26085.3 -03408.9 -07.4453 26307.1
 31 03 2013  15 51  -21.0680 26085.1 -03409.0 -07.4456 26306.9
 31 03 2013  15 52  -21.0683 26084.9 -03409.1 -07.4458 26306.7
 31 03 2013  15 53  -21.0685 26084.8 -03409.2 -07.4461 26306.6
 31 03 2013  15 54  -21.0688 26084.5 -03409.2 -07.4463 26306.4
 31 03 2013  15 55  -21.0693 26084.2 -03409.3 -07.4465 26306.1
 31 03 2013  15 56  -21.0692 26083.8 -03409.2 -07.4464 26305.6
 31 03 2013  15 57  -21.0695 26083.4 -03409.3 -07.4467 26305.3
 31 03 2013  15 58  -21.0700 26083.2 -03409.4 -07.4470 26305.0
 31 03 2013  15 59  -21.0705 26083.0 -03409.5 -07.4473 26304.9
 31 03 2013  16 00  -21.0703 26081.4 -03409.0 -07.4466 26303.3
 31 03 2013  16 01  -21.0709 26081.3 -03409.3 -07.4473 26303.2
 31 03 2013  16 02  -21.0712 26080.9 -03409.4 -07.4476 26302.8
 31 03 2013  16 03  -21.0722 26080.4 -03409.5 -07.4480 26302.3
 31 03 2013  16 04  -21.0733 26080.3 -03409.7 -07.4485 26302.2
 31 03 2013  16 05  -21.0741 26079.9 -03409.7 -07.4487 26301.9
 31 03 2013  16 06  -21.0747 26079.2 -03409.6 -07.4486 26301.2
 31 03 2013  16 07  -21.0753 26079.2 -03409.8 -07.4491 26301.1
 31 03 2013  16 08  -21.0757 26079.0 -03410.0 -07.4494 26301.0
 31 03 2013  16 09  -21.0763 26079.0 -03410.2 -07.4500 26301.0
 31 03 2013  16 10  -21.0769 26079.0 -03410.4 -07.4504 26301.0
 31 03 2013  16 11  -21.0776 26078.6 -03410.4 -07.4505 26300.6
 31 03 2013  16 12  -21.0786 26078.4 -03410.5 -07.4507 26300.5
 31 03 2013  16 13  -21.0796 26078.0 -03410.5 -07.4509 26300.1
 31 03 2013  16 14  -21.0802 26077.8 -03410.6 -07.4510 26299.9
 31 03 2013  16 15  -21.0808 26077.6 -03410.7 -07.4513 26299.7
 31 03 2013  16 16  -21.0816 26077.5 -03410.8 -07.4518 26299.6
 31 03 2013  16 17  -21.0827 26077.8 -03411.3 -07.4526 26300.0
 31 03 2013  16 18  -21.0833 26077.4 -03411.3 -07.4527 26299.6
 31 03 2013  16 19  -21.0838 26076.7 -03411.1 -07.4526 26298.9
 31 03 2013  16 20  -21.0847 26076.3 -03411.2 -07.4528 26298.5
 31 03 2013  16 21  -21.0853 26076.0 -03411.2 -07.4530 26298.2
 31 03 2013  16 22  -21.0860 26075.5 -03411.2 -07.4531 26297.7
 31 03 2013  16 23  -21.0864 26075.1 -03411.3 -07.4533 26297.3
 31 03 2013  16 24  -21.0871 26074.6 -03411.3 -07.4537 26296.8
 31 03 2013  16 25  -21.0878 26074.2 -03411.5 -07.4541 26296.5
 31 03 2013  16 26  -21.0884 26073.8 -03411.6 -07.4545 26296.0
 31 03 2013  16 27  -21.0892 26073.6 -03411.9 -07.4551 26295.9
 31 03 2013  16 28  -21.0899 26073.3 -03412.0 -07.4554 26295.6
 31 03 2013  16 29  -21.0903 26073.1 -03412.2 -07.4559 26295.4
 31 03 2013  16 30  -21.0909 26073.1 -03412.5 -07.4565 26295.5
 31 03 2013  16 31  -21.0915 26072.9 -03412.6 -07.4569 26295.3
 31 03 2013  16 32  -21.0921 26072.8 -03412.9 -07.4575 26295.2
 31 03 2013  16 33  -21.0931 26072.8 -03413.1 -07.4580 26295.2
 31 03 2013  16 34  -21.0940 26072.6 -03413.2 -07.4582 26295.1
 31 03 2013  16 35  -21.0946 26072.1 -03413.2 -07.4583 26294.6
 31 03 2013  16 36  -21.0949 26071.5 -03413.1 -07.4584 26294.0
 31 03 2013  16 37  -21.0952 26071.2 -03413.3 -07.4588 26293.6
 31 03 2013  16 38  -21.0950 26070.5 -03413.3 -07.4590 26293.0
 31 03 2013  16 39  -21.0951 26069.9 -03413.4 -07.4595 26292.4
 31 03 2013  16 40  -21.0965 26070.1 -03413.9 -07.4604 26292.6
 31 03 2013  16 41  -21.0974 26069.9 -03414.1 -07.4609 26292.5
 31 03 2013  16 42  -21.0981 26069.7 -03414.2 -07.4612 26292.3
 31 03 2013  16 43  -21.0987 26069.3 -03414.2 -07.4613 26291.9
 31 03 2013  16 44  -21.0993 26069.1 -03414.4 -07.4619 26291.8
 31 03 2013  16 45  -21.1000 26068.8 -03414.5 -07.4622 26291.4
 31 03 2013  16 46  -21.1006 26068.4 -03414.6 -07.4624 26291.1
 31 03 2013  16 47  -21.1014 26068.3 -03414.7 -07.4627 26291.0
 31 03 2013  16 48  -21.1019 26067.9 -03414.8 -07.4629 26290.6
 31 03 2013  16 49  -21.1025 26067.4 -03414.7 -07.4628 26290.1
 31 03 2013  16 50  -21.1034 26067.1 -03414.7 -07.4631 26289.8
 31 03 2013  16 51  -21.1045 26066.7 -03414.7 -07.4632 26289.4
 31 03 2013  16 52  -21.1052 26066.4 -03414.7 -07.4633 26289.1
 31 03 2013  16 53  -21.1057 26066.1 -03414.7 -07.4634 26288.8
 31 03 2013  16 54  -21.1060 26066.0 -03414.8 -07.4636 26288.7
 31 03 2013  16 55  -21.1065 26065.8 -03414.9 -07.4638 26288.5
 31 03 2013  16 56  -21.1072 26066.0 -03415.1 -07.4643 26288.8
 31 03 2013  16 57  -21.1080 26066.2 -03415.3 -07.4647 26289.0
 31 03 2013  16 58  -21.1084 26066.0 -03415.3 -07.4647 26288.8
 31 03 2013  16 59  -21.1092 26065.6 -03415.2 -07.4646 26288.4
 31 03 2013  17 00  -21.1106 26065.8 -03415.4 -07.4649 26288.6
 31 03 2013  17 01  -21.1116 26065.6 -03415.3 -07.4648 26288.4
 31 03 2013  17 02  -21.1124 26065.5 -03415.2 -07.4645 26288.3
 31 03 2013  17 03  -21.1127 26065.4 -03415.1 -07.4643 26288.2
 31 03 2013  17 04  -21.1121 26065.2 -03414.8 -07.4637 26287.9
 31 03 2013  17 05  -21.1121 26065.2 -03414.7 -07.4635 26287.9
 31 03 2013  17 06  -21.1123 26065.2 -03414.5 -07.4632 26287.9
 31 03 2013  17 07  -21.1128 26064.9 -03414.3 -07.4627 26287.6
 31 03 2013  17 08  -21.1134 26064.5 -03414.0 -07.4623 26287.1
 31 03 2013  17 09  -21.1137 26064.0 -03413.8 -07.4619 26286.6
 31 03 2013  17 10  -21.1146 26064.1 -03413.9 -07.4622 26286.7
 31 03 2013  17 11  -21.1148 26063.8 -03413.9 -07.4621 26286.4
 31 03 2013  17 12  -21.1152 26063.6 -03414.0 -07.4625 26286.3
 31 03 2013  17 13  -21.1162 26064.4 -03414.5 -07.4634 26287.1
 31 03 2013  17 14  -21.1177 26065.8 -03415.2 -07.4645 26288.6
 31 03 2013  17 15  -21.1191 26067.5 -03415.6 -07.4649 26290.3
 31 03 2013  17 16  -21.1196 26068.1 -03415.4 -07.4642 26290.8
 31 03 2013  17 17  -21.1195 26067.5 -03414.5 -07.4625 26290.2
 31 03 2013  17 18  -21.1192 26066.7 -03413.7 -07.4609 26289.3
 31 03 2013  17 19  -21.1188 26065.6 -03412.8 -07.4594 26288.1
 31 03 2013  17 20  -21.1184 26064.7 -03412.4 -07.4587 26287.1
 31 03 2013  17 21  -21.1189 26064.0 -03412.1 -07.4583 26286.4
 31 03 2013  17 22  -21.1196 26063.7 -03412.1 -07.4584 26286.1
 31 03 2013  17 23  -21.1205 26063.8 -03412.3 -07.4587 26286.2
 31 03 2013  17 24  -21.1211 26063.6 -03412.2 -07.4587 26286.0
 31 03 2013  17 25  -21.1214 26063.6 -03412.1 -07.4585 26286.0
 31 03 2013  17 26  -21.1219 26063.4 -03412.0 -07.4582 26285.8
 31 03 2013  17 27  -21.1221 26062.9 -03411.7 -07.4577 26285.3
 31 03 2013  17 28  -21.1222 26062.6 -03411.5 -07.4573 26284.9
 31 03 2013  17 29  -21.1222 26062.3 -03411.3 -07.4570 26284.6
 31 03 2013  17 30  -21.1226 26062.1 -03411.2 -07.4569 26284.4
 31 03 2013  17 31  -21.1227 26061.7 -03411.0 -07.4566 26284.0
 31 03 2013  17 32  -21.1226 26061.2 -03410.8 -07.4563 26283.4
 31 03 2013  17 33  -21.1225 26060.7 -03410.6 -07.4561 26283.0
 31 03 2013  17 34  -21.1222 26060.2 -03410.5 -07.4559 26282.4
 31 03 2013  17 35  -21.1219 26059.8 -03410.3 -07.4557 26282.0
 31 03 2013  17 36  -21.1223 26059.7 -03410.4 -07.4559 26281.9
 31 03 2013  17 37  -21.1223 26059.6 -03410.4 -07.4559 26281.8
 31 03 2013  17 38  -21.1227 26059.5 -03410.5 -07.4561 26281.8
 31 03 2013  17 39  -21.1232 26059.6 -03410.6 -07.4562 26281.8
 31 03 2013  17 40  -21.1238 26059.6 -03410.5 -07.4562 26281.8
 31 03 2013  17 41  -21.1236 26059.2 -03410.3 -07.4558 26281.4
 31 03 2013  17 42  -21.1232 26058.4 -03410.0 -07.4552 26280.6
 31 03 2013  17 43  -21.1227 26057.7 -03409.7 -07.4550 26279.8
 31 03 2013  17 44  -21.1225 26057.2 -03409.7 -07.4550 26279.3
 31 03 2013  17 45  -21.1225 26056.8 -03409.7 -07.4552 26278.9
 31 03 2013  17 46  -21.1221 26056.2 -03409.6 -07.4551 26278.3
 31 03 2013  17 47  -21.1224 26055.8 -03409.5 -07.4551 26277.9
 31 03 2013  17 48  -21.1227 26055.5 -03409.6 -07.4552 26277.7
 31 03 2013  17 49  -21.1229 26055.3 -03409.5 -07.4552 26277.4
 31 03 2013  17 50  -21.1230 26054.8 -03409.4 -07.4550 26276.9
 31 03 2013  17 51  -21.1223 26054.2 -03409.2 -07.4548 26276.3
 31 03 2013  17 52  -21.1218 26053.9 -03409.2 -07.4550 26276.0
 31 03 2013  17 53  -21.1220 26053.9 -03409.5 -07.4555 26276.0
 31 03 2013  17 54  -21.1219 26053.7 -03409.5 -07.4556 26275.9
 31 03 2013  17 55  -21.1212 26053.5 -03409.5 -07.4557 26275.7
 31 03 2013  17 56  -21.1208 26053.2 -03409.5 -07.4557 26275.4
 31 03 2013  17 57  -21.1207 26053.1 -03409.6 -07.4560 26275.3
 31 03 2013  17 58  -21.1209 26053.0 -03409.8 -07.4563 26275.2
 31 03 2013  17 59  -21.1209 26052.7 -03409.7 -07.4563 26274.8
 31 03 2013  18 00  -21.1205 26051.9 -03409.4 -07.4560 26274.0
 31 03 2013  18 01  -21.1202 26051.2 -03409.3 -07.4559 26273.4
 31 03 2013  18 02  -21.1202 26051.0 -03409.4 -07.4562 26273.1
 31 03 2013  18 03  -21.1201 26050.8 -03409.6 -07.4566 26273.0
 31 03 2013  18 04  -21.1201 26050.6 -03409.6 -07.4567 26272.8
 31 03 2013  18 05  -21.1199 26050.4 -03409.7 -07.4569 26272.6
 31 03 2013  18 06  -21.1199 26050.3 -03409.8 -07.4572 26272.5
 31 03 2013  18 07  -21.1201 26050.4 -03409.9 -07.4574 26272.6
 31 03 2013  18 08  -21.1204 26050.4 -03410.0 -07.4575 26272.6
 31 03 2013  18 09  -21.1206 26050.3 -03409.9 -07.4575 26272.6
 31 03 2013  18 10  -21.1206 26050.2 -03409.9 -07.4574 26272.4
 31 03 2013  18 11  -21.1205 26049.8 -03409.6 -07.4570 26272.0
 31 03 2013  18 12  -21.1204 26049.5 -03409.5 -07.4568 26271.7
 31 03 2013  18 13  -21.1200 26049.3 -03409.5 -07.4567 26271.5
 31 03 2013  18 14  -21.1196 26049.3 -03409.5 -07.4568 26271.5
 31 03 2013  18 15  -21.1195 26049.4 -03409.6 -07.4570 26271.6
 31 03 2013  18 16  -21.1196 26049.3 -03409.5 -07.4569 26271.5
 31 03 2013  18 17  -21.1193 26049.1 -03409.4 -07.4566 26271.2
 31 03 2013  18 18  -21.1190 26048.8 -03409.2 -07.4564 26271.0
 31 03 2013  18 19  -21.1187 26048.5 -03409.1 -07.4561 26270.6
 31 03 2013  18 20  -21.1183 26048.0 -03408.9 -07.4558 26270.1
 31 03 2013  18 21  -21.1179 26047.8 -03408.8 -07.4557 26269.9
 31 03 2013  18 22  -21.1178 26047.5 -03408.7 -07.4556 26269.6
 31 03 2013  18 23  -21.1177 26047.2 -03408.6 -07.4555 26269.3
 31 03 2013  18 24  -21.1173 26047.0 -03408.5 -07.4554 26269.1
 31 03 2013  18 25  -21.1169 26046.8 -03408.5 -07.4554 26268.9
 31 03 2013  18 26  -21.1167 26046.7 -03408.4 -07.4552 26268.7
 31 03 2013  18 27  -21.1164 26046.5 -03408.3 -07.4551 26268.6
 31 03 2013  18 28  -21.1159 26046.4 -03408.2 -07.4549 26268.4
 31 03 2013  18 29  -21.1150 26046.0 -03408.0 -07.4545 26268.0
 31 03 2013  18 30  -21.1141 26045.5 -03407.9 -07.4543 26267.5
 31 03 2013  18 31  -21.1136 26045.3 -03407.8 -07.4544 26267.3
 31 03 2013  18 32  -21.1131 26044.9 -03407.8 -07.4545 26266.9
 31 03 2013  18 33  -21.1127 26044.7 -03407.9 -07.4546 26266.7
 31 03 2013  18 34  -21.1125 26044.6 -03407.9 -07.4548 26266.7
 31 03 2013  18 35  -21.1120 26044.3 -03407.9 -07.4547 26266.3
 31 03 2013  18 36  -21.1113 26043.8 -03407.8 -07.4547 26265.8
 31 03 2013  18 37  -21.1110 26043.7 -03407.9 -07.4551 26265.7
 31 03 2013  18 38  -21.1107 26043.5 -03408.0 -07.4553 26265.6
 31 03 2013  18 39  -21.1103 26043.3 -03408.1 -07.4554 26265.4
 31 03 2013  18 40  -21.1096 26043.0 -03408.1 -07.4556 26265.0
 31 03 2013  18 41  -21.1087 26042.9 -03408.2 -07.4558 26265.0
 31 03 2013  18 42  -21.1084 26043.0 -03408.5 -07.4564 26265.1
 31 03 2013  18 43  -21.1083 26043.0 -03408.6 -07.4567 26265.1
 31 03 2013  18 44  -21.1081 26042.9 -03408.7 -07.4570 26265.1
 31 03 2013  18 45  -21.1079 26042.8 -03408.8 -07.4571 26264.9
 31 03 2013  18 46  -21.1077 26042.7 -03408.8 -07.4573 26264.9
 31 03 2013  18 47  -21.1073 26042.5 -03408.8 -07.4573 26264.6
 31 03 2013  18 48  -21.1069 26042.1 -03408.7 -07.4572 26264.2
 31 03 2013  18 49  -21.1065 26041.9 -03408.8 -07.4574 26264.1
 31 03 2013  18 50  -21.1062 26041.7 -03408.8 -07.4575 26263.9
 31 03 2013  18 51  -21.1058 26041.4 -03408.8 -07.4575 26263.6
 31 03 2013  18 52  -21.1053 26041.2 -03408.9 -07.4577 26263.4
 31 03 2013  18 53  -21.1049 26041.1 -03408.9 -07.4579 26263.3
 31 03 2013  18 54  -21.1048 26040.9 -03409.0 -07.4581 26263.1
 31 03 2013  18 55  -21.1044 26040.7 -03409.0 -07.4582 26262.8
 31 03 2013  18 56  -21.1038 26040.4 -03409.0 -07.4583 26262.5
 31 03 2013  18 57  -21.1032 26040.2 -03409.1 -07.4585 26262.4
 31 03 2013  18 58  -21.1030 26040.0 -03409.1 -07.4587 26262.2
 31 03 2013  18 59  -21.1028 26039.9 -03409.2 -07.4587 26262.1
 31 03 2013  19 00  -21.1028 26039.9 -03409.2 -07.4588 26262.1
 31 03 2013  19 01  -21.1023 26039.7 -03409.1 -07.4587 26261.9
 31 03 2013  19 02  -21.1021 26039.5 -03409.1 -07.4588 26261.8
 31 03 2013  19 03  -21.1014 26039.6 -03409.2 -07.4589 26261.8
 31 03 2013  19 04  -21.1011 26039.7 -03409.3 -07.4591 26262.0
 31 03 2013  19 05  -21.1005 26039.8 -03409.3 -07.4591 26262.0
 31 03 2013  19 06  -21.0997 26039.6 -03409.2 -07.4589 26261.8
 31 03 2013  19 07  -21.0991 26039.4 -03409.2 -07.4590 26261.7
 31 03 2013  19 08  -21.0988 26039.4 -03409.3 -07.4592 26261.6
 31 03 2013  19 09  -21.0985 26039.3 -03409.3 -07.4592 26261.5
 31 03 2013  19 10  -21.0981 26039.3 -03409.3 -07.4592 26261.5
 31 03 2013  19 11  -21.0978 26039.2 -03409.3 -07.4592 26261.4
 31 03 2013  19 12  -21.0973 26039.4 -03409.4 -07.4595 26261.6
 31 03 2013  19 13  -21.0967 26039.5 -03409.5 -07.4596 26261.7
 31 03 2013  19 14  -21.0963 26039.9 -03409.7 -07.4600 26262.1
 31 03 2013  19 15  -21.0956 26040.0 -03409.9 -07.4603 26262.3
 31 03 2013  19 16  -21.0949 26039.2 -03409.6 -07.4600 26261.5
 31 03 2013  19 17  -21.0943 26038.8 -03409.5 -07.4598 26261.1
 31 03 2013  19 18  -21.0936 26038.8 -03409.6 -07.4601 26261.1
 31 03 2013  19 19  -21.0929 26038.2 -03409.5 -07.4599 26260.5
 31 03 2013  19 20  -21.0922 26038.0 -03409.4 -07.4599 26260.3
 31 03 2013  19 21  -21.0914 26037.8 -03409.5 -07.4600 26260.1
 31 03 2013  19 22  -21.0903 26037.6 -03409.5 -07.4602 26259.9
 31 03 2013  19 23  -21.0896 26037.4 -03409.7 -07.4606 26259.7
 31 03 2013  19 24  -21.0883 26037.6 -03409.9 -07.4611 26259.9
 31 03 2013  19 25  -21.0875 26038.3 -03410.6 -07.4622 26260.7
 31 03 2013  19 26  -21.0867 26038.2 -03410.7 -07.4626 26260.6
 31 03 2013  19 27  -21.0863 26038.4 -03410.9 -07.4630 26260.9
 31 03 2013  19 28  -21.0859 26038.5 -03411.1 -07.4633 26261.0
 31 03 2013  19 29  -21.0854 26038.3 -03411.1 -07.4634 26260.8
 31 03 2013  19 30  -21.0848 26038.1 -03411.1 -07.4634 26260.6
 31 03 2013  19 31  -21.0844 26038.2 -03411.2 -07.4636 26260.7
 31 03 2013  19 32  -21.0842 26038.3 -03411.3 -07.4639 26260.8
 31 03 2013  19 33  -21.0840 26038.3 -03411.4 -07.4641 26260.8
 31 03 2013  19 34  -21.0836 26038.1 -03411.4 -07.4641 26260.7
 31 03 2013  19 35  -21.0831 26038.0 -03411.4 -07.4642 26260.5
 31 03 2013  19 36  -21.0827 26037.8 -03411.4 -07.4642 26260.3
 31 03 2013  19 37  -21.0824 26037.8 -03411.5 -07.4644 26260.3
 31 03 2013  19 38  -21.0821 26037.6 -03411.5 -07.4645 26260.2
 31 03 2013  19 39  -21.0816 26037.5 -03411.5 -07.4645 26260.0
 31 03 2013  19 40  -21.0810 26037.1 -03411.4 -07.4645 26259.6
 31 03 2013  19 41  -21.0804 26036.8 -03411.4 -07.4645 26259.3
 31 03 2013  19 42  -21.0800 26036.5 -03411.4 -07.4645 26259.0
 31 03 2013  19 43  -21.0795 26036.2 -03411.4 -07.4646 26258.7
 31 03 2013  19 44  -21.0791 26035.8 -03411.3 -07.4646 26258.3
 31 03 2013  19 45  -21.0784 26035.4 -03411.2 -07.4645 26258.0
 31 03 2013  19 46  -21.0779 26034.9 -03411.2 -07.4645 26257.5
 31 03 2013  19 47  -21.0776 26034.5 -03411.1 -07.4645 26257.0
 31 03 2013  19 48  -21.0777 26034.4 -03411.2 -07.4647 26256.9
 31 03 2013  19 49  -21.0776 26034.1 -03411.2 -07.4648 26256.6
 31 03 2013  19 50  -21.0768 26033.7 -03411.1 -07.4647 26256.2
 31 03 2013  19 51  -21.0760 26033.2 -03411.1 -07.4648 26255.7
 31 03 2013  19 52  -21.0751 26032.8 -03411.1 -07.4649 26255.3
 31 03 2013  19 53  -21.0743 26032.4 -03411.1 -07.4652 26254.9
 31 03 2013  19 54  -21.0734 26032.0 -03411.2 -07.4654 26254.6
 31 03 2013  19 55  -21.0728 26031.8 -03411.3 -07.4657 26254.4
 31 03 2013  19 56  -21.0720 26031.5 -03411.4 -07.4660 26254.1
 31 03 2013  19 57  -21.0714 26031.4 -03411.6 -07.4664 26254.0
 31 03 2013  19 58  -21.0707 26031.3 -03411.7 -07.4668 26253.9
 31 03 2013  19 59  -21.0702 26031.3 -03411.9 -07.4672 26254.0
 31 03 2013  20 00  -21.0695 26031.3 -03412.1 -07.4676 26254.0
 31 03 2013  20 01  -21.0691 26031.1 -03412.2 -07.4679 26253.7
 31 03 2013  20 02  -21.0689 26031.3 -03412.5 -07.4685 26254.0
 31 03 2013  20 03  -21.0685 26031.1 -03412.6 -07.4686 26253.8
 31 03 2013  20 04  -21.0683 26030.9 -03412.6 -07.4688 26253.6
 31 03 2013  20 05  -21.0678 26030.7 -03412.6 -07.4689 26253.4
 31 03 2013  20 06  -21.0670 26030.7 -03412.7 -07.4691 26253.4
 31 03 2013  20 07  -21.0664 26031.1 -03413.1 -07.4698 26253.9
 31 03 2013  20 08  -21.0659 26030.9 -03413.2 -07.4701 26253.8
 31 03 2013  20 09  -21.0659 26030.9 -03413.3 -07.4703 26253.8
 31 03 2013  20 10  -21.0656 26030.9 -03413.4 -07.4705 26253.7
 31 03 2013  20 11  -21.0653 26030.7 -03413.4 -07.4706 26253.6
 31 03 2013  20 12  -21.0652 26030.7 -03413.5 -07.4708 26253.5
 31 03 2013  20 13  -21.0648 26030.8 -03413.7 -07.4712 26253.7
 31 03 2013  20 14  -21.0643 26030.8 -03413.8 -07.4714 26253.7
 31 03 2013  20 15  -21.0641 26031.0 -03414.0 -07.4719 26253.9
 31 03 2013  20 16  -21.0638 26031.0 -03414.2 -07.4722 26254.0
 31 03 2013  20 17  -21.0635 26031.0 -03414.3 -07.4724 26253.9
 31 03 2013  20 18  -21.0632 26030.9 -03414.3 -07.4725 26253.9
 31 03 2013  20 19  -21.0629 26030.7 -03414.4 -07.4726 26253.7
 31 03 2013  20 20  -21.0624 26030.6 -03414.4 -07.4728 26253.5
 31 03 2013  20 21  -21.0620 26030.4 -03414.4 -07.4728 26253.4
 31 03 2013  20 22  -21.0617 26030.3 -03414.5 -07.4731 26253.3
 31 03 2013  20 23  -21.0615 26030.2 -03414.6 -07.4733 26253.2
 31 03 2013  20 24  -21.0614 26030.1 -03414.6 -07.4734 26253.1
 31 03 2013  20 25  -21.0612 26029.9 -03414.7 -07.4737 26252.9
 31 03 2013  20 26  -21.0609 26029.6 -03414.8 -07.4738 26252.7
 31 03 2013  20 27  -21.0607 26029.5 -03414.9 -07.4741 26252.6
 31 03 2013  20 28  -21.0605 26029.6 -03415.1 -07.4745 26252.6
 31 03 2013  20 29  -21.0602 26029.4 -03415.2 -07.4747 26252.5
 31 03 2013  20 30  -21.0600 26029.4 -03415.3 -07.4750 26252.5
 31 03 2013  20 31  -21.0598 26029.3 -03415.4 -07.4752 26252.4
 31 03 2013  20 32  -21.0596 26029.1 -03415.4 -07.4754 26252.2
 31 03 2013  20 33  -21.0595 26029.1 -03415.6 -07.4757 26252.2
 31 03 2013  20 34  -21.0595 26028.8 -03415.6 -07.4759 26251.9
 31 03 2013  20 35  -21.0593 26028.6 -03415.7 -07.4760 26251.8
 31 03 2013  20 36  -21.0590 26028.6 -03415.8 -07.4764 26251.8
 31 03 2013  20 37  -21.0587 26028.7 -03416.0 -07.4767 26251.9
 31 03 2013  20 38  -21.0583 26028.8 -03416.2 -07.4771 26252.0
 31 03 2013  20 39  -21.0580 26029.1 -03416.5 -07.4778 26252.4
 31 03 2013  20 40  -21.0579 26029.2 -03416.8 -07.4783 26252.5
 31 03 2013  20 41  -21.0579 26029.1 -03416.8 -07.4784 26252.4
 31 03 2013  20 42  -21.0578 26028.8 -03416.8 -07.4785 26252.1
 31 03 2013  20 43  -21.0573 26028.9 -03416.9 -07.4787 26252.2
 31 03 2013  20 44  -21.0573 26028.7 -03417.0 -07.4789 26252.0
 31 03 2013  20 45  -21.0573 26028.9 -03417.2 -07.4793 26252.3
 31 03 2013  20 46  -21.0571 26028.8 -03417.3 -07.4795 26252.2
 31 03 2013  20 47  -21.0570 26028.6 -03417.4 -07.4797 26252.0
 31 03 2013  20 48  -21.0569 26028.5 -03417.5 -07.4800 26251.9
 31 03 2013  20 49  -21.0565 26028.7 -03417.6 -07.4803 26252.1
 31 03 2013  20 50  -21.0562 26028.8 -03417.9 -07.4808 26252.3
 31 03 2013  20 51  -21.0564 26028.7 -03418.0 -07.4811 26252.2
 31 03 2013  20 52  -21.0567 26028.4 -03418.0 -07.4811 26251.9
 31 03 2013  20 53  -21.0568 26028.4 -03418.0 -07.4812 26251.8
 31 03 2013  20 54  -21.0568 26028.4 -03418.2 -07.4815 26251.9
 31 03 2013  20 55  -21.0567 26028.5 -03418.3 -07.4818 26252.0
 31 03 2013  20 56  -21.0566 26028.5 -03418.5 -07.4821 26252.0
 31 03 2013  20 57  -21.0565 26028.7 -03418.6 -07.4824 26252.2
 31 03 2013  20 58  -21.0563 26028.9 -03418.8 -07.4827 26252.4
 31 03 2013  20 59  -21.0562 26028.9 -03418.9 -07.4830 26252.5
 31 03 2013  21 00  -21.0562 26029.0 -03419.0 -07.4831 26252.6
 31 03 2013  21 01  -21.0560 26029.0 -03419.1 -07.4833 26252.6
 31 03 2013  21 02  -21.0559 26029.0 -03419.2 -07.4835 26252.6
 31 03 2013  21 03  -21.0558 26029.0 -03419.3 -07.4837 26252.7
 31 03 2013  21 04  -21.0557 26029.1 -03419.3 -07.4839 26252.7
 31 03 2013  21 05  -21.0551 26029.7 -03419.7 -07.4845 26253.3
 31 03 2013  21 06  -21.0546 26029.8 -03419.9 -07.4848 26253.5
 31 03 2013  21 07  -21.0544 26030.4 -03420.2 -07.4854 26254.2
 31 03 2013  21 08  -21.0540 26030.8 -03420.5 -07.4859 26254.6
 31 03 2013  21 09  -21.0538 26031.2 -03420.8 -07.4864 26255.0
 31 03 2013  21 10  -21.0535 26031.6 -03421.1 -07.4868 26255.4
 31 03 2013  21 11  -21.0532 26031.6 -03421.1 -07.4870 26255.5
 31 03 2013  21 12  -21.0533 26031.9 -03421.3 -07.4873 26255.8
 31 03 2013  21 13  -21.0535 26032.0 -03421.4 -07.4876 26255.8
 31 03 2013  21 14  -21.0538 26032.0 -03421.5 -07.4878 26255.9
 31 03 2013  21 15  -21.0541 26031.9 -03421.5 -07.4878 26255.8
 31 03 2013  21 16  -21.0541 26031.8 -03421.5 -07.4877 26255.7
 31 03 2013  21 17  -21.0541 26031.5 -03421.4 -07.4876 26255.4
 31 03 2013  21 18  -21.0540 26031.1 -03421.3 -07.4875 26255.0
 31 03 2013  21 19  -21.0538 26030.9 -03421.2 -07.4874 26254.7
 31 03 2013  21 20  -21.0536 26030.7 -03421.2 -07.4873 26254.5
 31 03 2013  21 21  -21.0533 26030.6 -03421.2 -07.4875 26254.5
 31 03 2013  21 22  -21.0533 26030.5 -03421.3 -07.4878 26254.4
 31 03 2013  21 23  -21.0534 26030.5 -03421.4 -07.4880 26254.4
 31 03 2013  21 24  -21.0534 26030.5 -03421.5 -07.4882 26254.4
 31 03 2013  21 25  -21.0533 26030.4 -03421.6 -07.4883 26254.3
 31 03 2013  21 26  -21.0532 26030.4 -03421.7 -07.4885 26254.3
 31 03 2013  21 27  -21.0530 26030.2 -03421.7 -07.4886 26254.1
 31 03 2013  21 28  -21.0527 26030.0 -03421.6 -07.4886 26254.0
 31 03 2013  21 29  -21.0524 26030.0 -03421.7 -07.4887 26253.9
 31 03 2013  21 30  -21.0519 26029.9 -03421.8 -07.4889 26253.9
 31 03 2013  21 31  -21.0517 26030.1 -03422.0 -07.4892 26254.1
 31 03 2013  21 32  -21.0514 26030.5 -03422.2 -07.4897 26254.5
 31 03 2013  21 33  -21.0513 26030.9 -03422.6 -07.4903 26254.9
 31 03 2013  21 34  -21.0515 26031.2 -03422.8 -07.4908 26255.3
 31 03 2013  21 35  -21.0515 26031.3 -03423.0 -07.4911 26255.4
 31 03 2013  21 36  -21.0516 26031.5 -03423.1 -07.4914 26255.6
 31 03 2013  21 37  -21.0516 26031.4 -03423.2 -07.4915 26255.5
 31 03 2013  21 38  -21.0514 26031.5 -03423.2 -07.4916 26255.6
 31 03 2013  21 39  -21.0512 26031.6 -03423.3 -07.4918 26255.8
 31 03 2013  21 40  -21.0510 26031.9 -03423.5 -07.4920 26256.0
 31 03 2013  21 41  -21.0507 26031.9 -03423.5 -07.4921 26256.0
 31 03 2013  21 42  -21.0504 26032.0 -03423.6 -07.4923 26256.1
 31 03 2013  21 43  -21.0502 26032.1 -03423.7 -07.4925 26256.3
 31 03 2013  21 44  -21.0502 26032.1 -03423.8 -07.4927 26256.3
 31 03 2013  21 45  -21.0501 26032.1 -03423.9 -07.4928 26256.3
 31 03 2013  21 46  -21.0501 26032.2 -03424.0 -07.4930 26256.5
 31 03 2013  21 47  -21.0501 26032.4 -03424.1 -07.4931 26256.6
 31 03 2013  21 48  -21.0500 26032.5 -03424.1 -07.4933 26256.7
 31 03 2013  21 49  -21.0499 26032.5 -03424.2 -07.4933 26256.7
 31 03 2013  21 50  -21.0498 26032.3 -03424.1 -07.4932 26256.5
 31 03 2013  21 51  -21.0499 26032.2 -03424.1 -07.4932 26256.4
 31 03 2013  21 52  -21.0499 26032.1 -03424.1 -07.4932 26256.4
 31 03 2013  21 53  -21.0498 26032.1 -03424.1 -07.4932 26256.3
 31 03 2013  21 54  -21.0497 26031.9 -03424.0 -07.4932 26256.1
 31 03 2013  21 55  -21.0496 26031.6 -03423.9 -07.4929 26255.8
 31 03 2013  21 56  -21.0496 26031.6 -03423.9 -07.4929 26255.8
 31 03 2013  21 57  -21.0497 26031.6 -03423.9 -07.4930 26255.8
 31 03 2013  21 58  -21.0497 26031.4 -03423.9 -07.4930 26255.6
 31 03 2013  21 59  -21.0497 26031.3 -03423.9 -07.4930 26255.5
 31 03 2013  22 00  -21.0499 26031.3 -03423.9 -07.4931 26255.5
 31 03 2013  22 01  -21.0499 26031.2 -03423.9 -07.4931 26255.4
 31 03 2013  22 02  -21.0500 26031.3 -03423.9 -07.4932 26255.5
 31 03 2013  22 03  -21.0501 26031.1 -03423.9 -07.4932 26255.3
 31 03 2013  22 04  -21.0501 26031.0 -03423.9 -07.4932 26255.2
 31 03 2013  22 05  -21.0501 26030.9 -03423.9 -07.4932 26255.1
 31 03 2013  22 06  -21.0502 26030.9 -03424.0 -07.4933 26255.2
 31 03 2013  22 07  -21.0504 26031.0 -03424.0 -07.4935 26255.2
 31 03 2013  22 08  -21.0504 26031.2 -03424.2 -07.4937 26255.5
 31 03 2013  22 09  -21.0506 26031.3 -03424.3 -07.4940 26255.6
 31 03 2013  22 10  -21.0508 26031.1 -03424.2 -07.4938 26255.4
 31 03 2013  22 11  -21.0509 26030.7 -03424.1 -07.4936 26255.0
 31 03 2013  22 12  -21.0511 26030.4 -03423.9 -07.4933 26254.6
 31 03 2013  22 13  -21.0512 26030.1 -03423.7 -07.4931 26254.3
 31 03 2013  22 14  -21.0515 26029.9 -03423.7 -07.4930 26254.1
 31 03 2013  22 15  -21.0516 26029.9 -03423.7 -07.4930 26254.1
 31 03 2013  22 16  -21.0516 26030.2 -03423.9 -07.4933 26254.4
 31 03 2013  22 17  -21.0517 26030.5 -03424.0 -07.4936 26254.7
 31 03 2013  22 18  -21.0517 26030.6 -03424.1 -07.4937 26254.9
 31 03 2013  22 19  -21.0517 26030.8 -03424.2 -07.4938 26255.1
 31 03 2013  22 20  -21.0517 26031.0 -03424.3 -07.4940 26255.3
 31 03 2013  22 21  -21.0517 26031.3 -03424.4 -07.4943 26255.6
 31 03 2013  22 22  -21.0517 26031.3 -03424.5 -07.4943 26255.6
 31 03 2013  22 23  -21.0517 26031.2 -03424.4 -07.4941 26255.4
 31 03 2013  22 24  -21.0518 26030.8 -03424.2 -07.4938 26255.1
 31 03 2013  22 25  -21.0520 26030.3 -03423.9 -07.4934 26254.5
 31 03 2013  22 26  -21.0523 26029.7 -03423.7 -07.4930 26253.9
 31 03 2013  22 27  -21.0526 26029.3 -03423.5 -07.4927 26253.4
 31 03 2013  22 28  -21.0527 26028.8 -03423.2 -07.4924 26252.9
 31 03 2013  22 29  -21.0527 26028.5 -03423.1 -07.4922 26252.7
 31 03 2013  22 30  -21.0528 26028.4 -03423.1 -07.4922 26252.5
 31 03 2013  22 31  -21.0528 26028.4 -03423.2 -07.4924 26252.5
 31 03 2013  22 32  -21.0528 26028.5 -03423.3 -07.4926 26252.7
 31 03 2013  22 33  -21.0528 26028.6 -03423.4 -07.4928 26252.7
 31 03 2013  22 34  -21.0528 26028.6 -03423.4 -07.4929 26252.7
 31 03 2013  22 35  -21.0527 26028.6 -03423.5 -07.4930 26252.8
 31 03 2013  22 36  -21.0527 26028.6 -03423.6 -07.4931 26252.8
 31 03 2013  22 37  -21.0527 26028.6 -03423.6 -07.4932 26252.8
 31 03 2013  22 38  -21.0528 26028.6 -03423.6 -07.4933 26252.8
 31 03 2013  22 39  -21.0529 26028.6 -03423.6 -07.4933 26252.8
 31 03 2013  22 40  -21.0530 26028.6 -03423.7 -07.4933 26252.8
 31 03 2013  22 41  -21.0530 26028.6 -03423.7 -07.4934 26252.8
 31 03 2013  22 42  -21.0530 26028.7 -03423.7 -07.4934 26252.9
 31 03 2013  22 43  -21.0530 26028.6 -03423.7 -07.4934 26252.8
 31 03 2013  22 44  -21.0529 26028.6 -03423.7 -07.4935 26252.8
 31 03 2013  22 45  -21.0530 26028.6 -03423.7 -07.4935 26252.8
 31 03 2013  22 46  -21.0530 26028.6 -03423.8 -07.4936 26252.8
 31 03 2013  22 47  -21.0530 26028.5 -03423.7 -07.4935 26252.8
 31 03 2013  22 48  -21.0530 26028.6 -03423.7 -07.4935 26252.8
 31 03 2013  22 49  -21.0530 26028.6 -03423.8 -07.4936 26252.8
 31 03 2013  22 50  -21.0531 26028.6 -03423.8 -07.4936 26252.8
 31 03 2013  22 51  -21.0531 26028.5 -03423.8 -07.4936 26252.8
 31 03 2013  22 52  -21.0532 26028.5 -03423.8 -07.4936 26252.7
 31 03 2013  22 53  -21.0534 26028.4 -03423.7 -07.4936 26252.6
 31 03 2013  22 54  -21.0535 26028.3 -03423.7 -07.4936 26252.5
 31 03 2013  22 55  -21.0536 26028.4 -03423.8 -07.4936 26252.6
 31 03 2013  22 56  -21.0536 26028.4 -03423.8 -07.4937 26252.6
 31 03 2013  22 57  -21.0536 26028.4 -03423.8 -07.4936 26252.6
 31 03 2013  22 58  -21.0537 26028.3 -03423.8 -07.4937 26252.6
 31 03 2013  22 59  -21.0537 26028.4 -03423.8 -07.4937 26252.6
 31 03 2013  23 00  -21.0538 26028.4 -03423.8 -07.4938 26252.6
 31 03 2013  23 01  -21.0539 26028.3 -03423.8 -07.4937 26252.5
 31 03 2013  23 02  -21.0540 26028.2 -03423.8 -07.4937 26252.4
 31 03 2013  23 03  -21.0540 26028.1 -03423.7 -07.4936 26252.4
 31 03 2013  23 04  -21.0540 26028.2 -03423.8 -07.4937 26252.4
 31 03 2013  23 05  -21.0541 26028.2 -03423.8 -07.4937 26252.4
 31 03 2013  23 06  -21.0541 26028.3 -03423.8 -07.4938 26252.5
 31 03 2013  23 07  -21.0541 26028.3 -03423.9 -07.4939 26252.6
 31 03 2013  23 08  -21.0540 26028.5 -03423.9 -07.4939 26252.7
 31 03 2013  23 09  -21.0538 26028.6 -03424.0 -07.4940 26252.8
 31 03 2013  23 10  -21.0537 26028.6 -03424.0 -07.4941 26252.9
 31 03 2013  23 11  -21.0537 26028.7 -03424.0 -07.4942 26252.9
 31 03 2013  23 12  -21.0538 26028.8 -03424.1 -07.4943 26253.0
 31 03 2013  23 13  -21.0537 26028.8 -03424.1 -07.4943 26253.1
 31 03 2013  23 14  -21.0539 26028.9 -03424.2 -07.4943 26253.1
 31 03 2013  23 15  -21.0539 26028.8 -03424.1 -07.4942 26253.1
 31 03 2013  23 16  -21.0540 26028.8 -03424.1 -07.4942 26253.0
 31 03 2013  23 17  -21.0539 26028.8 -03424.0 -07.4941 26253.0
 31 03 2013  23 18  -21.0539 26028.8 -03424.1 -07.4941 26253.1
 31 03 2013  23 19  -21.0540 26029.0 -03424.1 -07.4943 26253.2
 31 03 2013  23 20  -21.0539 26029.1 -03424.2 -07.4944 26253.4
 31 03 2013  23 21  -21.0540 26029.3 -03424.3 -07.4945 26253.6
 31 03 2013  23 22  -21.0541 26029.4 -03424.4 -07.4946 26253.7
 31 03 2013  23 23  -21.0542 26029.4 -03424.3 -07.4946 26253.7
 31 03 2013  23 24  -21.0543 26029.4 -03424.3 -07.4945 26253.7
 31 03 2013  23 25  -21.0545 26029.3 -03424.2 -07.4944 26253.5
 31 03 2013  23 26  -21.0546 26029.0 -03424.1 -07.4941 26253.2
 31 03 2013  23 27  -21.0548 26028.9 -03424.0 -07.4940 26253.1
 31 03 2013  23 28  -21.0549 26028.9 -03424.0 -07.4940 26253.1
 31 03 2013  23 29  -21.0551 26028.8 -03423.9 -07.4939 26253.0
 31 03 2013  23 30  -21.0553 26028.7 -03423.9 -07.4938 26252.9
 31 03 2013  23 31  -21.0555 26028.5 -03423.8 -07.4936 26252.7
 31 03 2013  23 32  -21.0555 26028.3 -03423.7 -07.4935 26252.6
 31 03 2013  23 33  -21.0554 26028.3 -03423.7 -07.4934 26252.5
 31 03 2013  23 34  -21.0554 26028.4 -03423.7 -07.4935 26252.6
 31 03 2013  23 35  -21.0554 26028.5 -03423.8 -07.4936 26252.7
 31 03 2013  23 36  -21.0555 26028.6 -03423.8 -07.4937 26252.8
 31 03 2013  23 37  -21.0556 26028.7 -03423.9 -07.4938 26252.9
 31 03 2013  23 38  -21.0556 26028.7 -03423.9 -07.4939 26252.9
 31 03 2013  23 39  -21.0557 26028.7 -03423.9 -07.4938 26252.9
 31 03 2013  23 40  -21.0558 26028.6 -03423.9 -07.4938 26252.9
 31 03 2013  23 41  -21.0558 26028.6 -03423.8 -07.4937 26252.8
 31 03 2013  23 42  -21.0558 26028.5 -03423.8 -07.4936 26252.8
 31 03 2013  23 43  -21.0558 26028.5 -03423.7 -07.4935 26252.7
 31 03 2013  23 44  -21.0558 26028.4 -03423.7 -07.4934 26252.6
 31 03 2013  23 45  -21.0557 26028.4 -03423.7 -07.4935 26252.6
 31 03 2013  23 46  -21.0557 26028.4 -03423.7 -07.4935 26252.6
 31 03 2013  23 47  -21.0556 26028.4 -03423.7 -07.4935 26252.7
 31 03 2013  23 48  -21.0555 26028.4 -03423.7 -07.4935 26252.6
 31 03 2013  23 49  -21.0554 26028.4 -03423.7 -07.4935 26252.6
 31 03 2013  23 50  -21.0551 26028.4 -03423.7 -07.4935 26252.6
 31 03 2013  23 51  -21.0549 26028.5 -03423.8 -07.4936 26252.8
 31 03 2013  23 52  -21.0548 26028.8 -03423.9 -07.4938 26253.0
 31 03 2013  23 53  -21.0548 26028.9 -03424.0 -07.4940 26253.2
 31 03 2013  23 54  -21.0549 26029.0 -03424.1 -07.4941 26253.3
 31 03 2013  23 55  -21.0549 26029.1 -03424.1 -07.4941 26253.3
 31 03 2013  23 56  -21.0549 26029.0 -03424.1 -07.4941 26253.3
 31 03 2013  23 57  -21.0548 26029.0 -03424.0 -07.4940 26253.2
