SAO LUIS EMBRACE-03 <242> 1 Min. Reported data

 DD MM YYYY  HH MM   D(Deg)  H(nT)   Z(nT)   I(Deg)   F(nT)

 30 08 2013  00 00  -21.0200 26026.9 -03480.0 -07.6158 26258.6
 30 08 2013  00 01  -21.0199 26027.0 -03480.1 -07.6158 26258.6
 30 08 2013  00 02  -21.0199 26027.0 -03480.1 -07.6158 26258.6
 30 08 2013  00 03  -21.0198 26027.0 -03480.1 -07.6159 26258.6
 30 08 2013  00 04  -21.0198 26027.0 -03480.1 -07.6159 26258.7
 30 08 2013  00 05  -21.0198 26027.1 -03480.2 -07.6160 26258.8
 30 08 2013  00 06  -21.0197 26027.2 -03480.2 -07.6160 26258.8
 30 08 2013  00 07  -21.0196 26027.2 -03480.2 -07.6161 26258.8
 30 08 2013  00 08  -21.0195 26027.2 -03480.2 -07.6161 26258.9
 30 08 2013  00 09  -21.0194 26027.3 -03480.3 -07.6161 26258.9
 30 08 2013  00 10  -21.0193 26027.3 -03480.3 -07.6162 26259.0
 30 08 2013  00 11  -21.0193 26027.3 -03480.3 -07.6162 26259.0
 30 08 2013  00 12  -21.0192 26027.3 -03480.3 -07.6162 26258.9
 30 08 2013  00 13  -21.0192 26027.3 -03480.3 -07.6162 26258.9
 30 08 2013  00 14  -21.0192 26027.3 -03480.3 -07.6162 26258.9
 30 08 2013  00 15  -21.0193 26027.3 -03480.3 -07.6162 26259.0
 30 08 2013  00 16  -21.0193 26027.4 -03480.3 -07.6163 26259.0
 30 08 2013  00 17  -21.0194 26027.4 -03480.3 -07.6163 26259.0
 30 08 2013  00 18  -21.0195 26027.3 -03480.3 -07.6163 26259.0
 30 08 2013  00 19  -21.0194 26027.3 -03480.3 -07.6163 26258.9
 30 08 2013  00 20  -21.0193 26027.2 -03480.3 -07.6163 26258.9
 30 08 2013  00 21  -21.0193 26027.2 -03480.3 -07.6162 26258.8
 30 08 2013  00 22  -21.0191 26027.2 -03480.3 -07.6162 26258.9
 30 08 2013  00 23  -21.0190 26027.3 -03480.3 -07.6163 26258.9
 30 08 2013  00 24  -21.0190 26027.2 -03480.3 -07.6163 26258.9
 30 08 2013  00 25  -21.0189 26027.1 -03480.3 -07.6163 26258.8
 30 08 2013  00 26  -21.0189 26027.1 -03480.3 -07.6162 26258.7
 30 08 2013  00 27  -21.0188 26027.0 -03480.2 -07.6162 26258.7
 30 08 2013  00 28  -21.0187 26027.0 -03480.3 -07.6163 26258.7
 30 08 2013  00 29  -21.0187 26027.1 -03480.3 -07.6164 26258.8
 30 08 2013  00 30  -21.0186 26027.1 -03480.4 -07.6164 26258.8
 30 08 2013  00 31  -21.0186 26027.0 -03480.3 -07.6164 26258.6
 30 08 2013  00 32  -21.0186 26026.8 -03480.3 -07.6163 26258.5
 30 08 2013  00 33  -21.0187 26026.8 -03480.2 -07.6163 26258.5
 30 08 2013  00 34  -21.0188 26026.8 -03480.3 -07.6163 26258.5
 30 08 2013  00 35  -21.0189 26026.9 -03480.3 -07.6164 26258.5
 30 08 2013  00 36  -21.0190 26026.9 -03480.4 -07.6165 26258.6
 30 08 2013  00 37  -21.0191 26026.9 -03480.4 -07.6165 26258.6
 30 08 2013  00 38  -21.0192 26026.9 -03480.4 -07.6166 26258.6
 30 08 2013  00 39  -21.0192 26027.0 -03480.4 -07.6166 26258.7
 30 08 2013  00 40  -21.0193 26027.0 -03480.5 -07.6167 26258.7
 30 08 2013  00 41  -21.0193 26027.0 -03480.5 -07.6167 26258.7
 30 08 2013  00 42  -21.0194 26027.0 -03480.5 -07.6167 26258.7
 30 08 2013  00 43  -21.0195 26026.9 -03480.4 -07.6167 26258.6
 30 08 2013  00 44  -21.0195 26026.9 -03480.4 -07.6167 26258.6
 30 08 2013  00 45  -21.0195 26026.9 -03480.4 -07.6166 26258.5
 30 08 2013  00 46  -21.0195 26026.8 -03480.4 -07.6166 26258.5
 30 08 2013  00 47  -21.0194 26026.9 -03480.4 -07.6167 26258.5
 30 08 2013  00 48  -21.0193 26026.9 -03480.4 -07.6167 26258.6
 30 08 2013  00 49  -21.0193 26026.9 -03480.4 -07.6166 26258.5
 30 08 2013  00 50  -21.0193 26026.9 -03480.5 -07.6167 26258.6
 30 08 2013  00 51  -21.0193 26026.9 -03480.5 -07.6168 26258.6
 30 08 2013  00 52  -21.0192 26026.9 -03480.5 -07.6167 26258.6
 30 08 2013  00 53  -21.0191 26026.9 -03480.5 -07.6168 26258.5
 30 08 2013  00 54  -21.0192 26026.8 -03480.5 -07.6168 26258.5
 30 08 2013  00 55  -21.0191 26026.8 -03480.5 -07.6168 26258.5
 30 08 2013  00 56  -21.0191 26026.8 -03480.5 -07.6169 26258.5
 30 08 2013  00 57  -21.0191 26026.8 -03480.5 -07.6169 26258.5
 30 08 2013  00 58  -21.0190 26026.8 -03480.5 -07.6169 26258.5
 30 08 2013  00 59  -21.0190 26026.7 -03480.5 -07.6168 26258.4
 30 08 2013  01 00  -21.0189 26026.7 -03480.5 -07.6168 26258.4
 30 08 2013  01 01  -21.0189 26026.7 -03480.5 -07.6169 26258.4
 30 08 2013  01 02  -21.0189 26026.7 -03480.5 -07.6169 26258.4
 30 08 2013  01 03  -21.0190 26026.8 -03480.6 -07.6170 26258.5
 30 08 2013  01 04  -21.0189 26026.9 -03480.6 -07.6171 26258.6
 30 08 2013  01 05  -21.0189 26026.9 -03480.7 -07.6172 26258.7
 30 08 2013  01 06  -21.0190 26027.0 -03480.7 -07.6173 26258.7
 30 08 2013  01 07  -21.0190 26026.9 -03480.7 -07.6172 26258.6
 30 08 2013  01 08  -21.0190 26026.9 -03480.7 -07.6172 26258.6
 30 08 2013  01 09  -21.0190 26026.8 -03480.7 -07.6172 26258.6
 30 08 2013  01 10  -21.0191 26026.8 -03480.7 -07.6172 26258.5
 30 08 2013  01 11  -21.0190 26026.8 -03480.7 -07.6172 26258.6
 30 08 2013  01 12  -21.0190 26026.8 -03480.7 -07.6172 26258.5
 30 08 2013  01 13  -21.0190 26026.7 -03480.6 -07.6172 26258.4
 30 08 2013  01 14  -21.0190 26026.5 -03480.6 -07.6171 26258.2
 30 08 2013  01 15  -21.0189 26026.5 -03480.6 -07.6170 26258.2
 30 08 2013  01 16  -21.0189 26026.6 -03480.6 -07.6171 26258.3
 30 08 2013  01 17  -21.0190 26026.5 -03480.6 -07.6172 26258.2
 30 08 2013  01 18  -21.0190 26026.6 -03480.6 -07.6172 26258.3
 30 08 2013  01 19  -21.0191 26026.6 -03480.7 -07.6172 26258.3
 30 08 2013  01 20  -21.0192 26026.5 -03480.7 -07.6173 26258.3
 30 08 2013  01 21  -21.0192 26026.5 -03480.7 -07.6173 26258.2
 30 08 2013  01 22  -21.0193 26026.5 -03480.7 -07.6173 26258.2
 30 08 2013  01 23  -21.0194 26026.5 -03480.7 -07.6173 26258.2
 30 08 2013  01 24  -21.0194 26026.5 -03480.7 -07.6173 26258.2
 30 08 2013  01 25  -21.0194 26026.6 -03480.7 -07.6174 26258.3
 30 08 2013  01 26  -21.0194 26026.6 -03480.8 -07.6175 26258.3
 30 08 2013  01 27  -21.0194 26026.7 -03480.8 -07.6175 26258.4
 30 08 2013  01 28  -21.0194 26026.7 -03480.8 -07.6176 26258.5
 30 08 2013  01 29  -21.0193 26026.7 -03480.9 -07.6176 26258.5
 30 08 2013  01 30  -21.0193 26026.7 -03480.8 -07.6176 26258.4
 30 08 2013  01 31  -21.0193 26026.5 -03480.8 -07.6175 26258.3
 30 08 2013  01 32  -21.0194 26026.5 -03480.7 -07.6174 26258.2
 30 08 2013  01 33  -21.0195 26026.4 -03480.7 -07.6174 26258.2
 30 08 2013  01 34  -21.0196 26026.4 -03480.7 -07.6174 26258.1
 30 08 2013  01 35  -21.0197 26026.4 -03480.7 -07.6175 26258.1
 30 08 2013  01 36  -21.0197 26026.4 -03480.8 -07.6175 26258.2
 30 08 2013  01 37  -21.0198 26026.6 -03480.9 -07.6177 26258.3
 30 08 2013  01 38  -21.0199 26026.7 -03480.9 -07.6178 26258.4
 30 08 2013  01 39  -21.0199 26026.8 -03481.0 -07.6178 26258.6
 30 08 2013  01 40  -21.0199 26026.9 -03481.1 -07.6180 26258.6
 30 08 2013  01 41  -21.0198 26026.9 -03481.1 -07.6180 26258.7
 30 08 2013  01 42  -21.0196 26027.1 -03481.1 -07.6181 26258.9
 30 08 2013  01 43  -21.0193 26027.5 -03481.3 -07.6184 26259.3
 30 08 2013  01 44  -21.0190 26028.1 -03481.6 -07.6187 26259.9
 30 08 2013  01 45  -21.0187 26028.6 -03481.8 -07.6192 26260.5
 30 08 2013  01 46  -21.0187 26028.9 -03481.9 -07.6193 26260.7
 30 08 2013  01 47  -21.0186 26028.9 -03482.0 -07.6194 26260.8
 30 08 2013  01 48  -21.0186 26028.8 -03481.9 -07.6192 26260.7
 30 08 2013  01 49  -21.0187 26028.5 -03481.7 -07.6189 26260.4
 30 08 2013  01 50  -21.0189 26028.2 -03481.5 -07.6186 26260.0
 30 08 2013  01 51  -21.0191 26027.8 -03481.3 -07.6182 26259.6
 30 08 2013  01 52  -21.0194 26027.4 -03481.0 -07.6178 26259.1
 30 08 2013  01 53  -21.0196 26027.0 -03480.8 -07.6175 26258.7
 30 08 2013  01 54  -21.0197 26026.7 -03480.7 -07.6172 26258.4
 30 08 2013  01 55  -21.0197 26026.5 -03480.6 -07.6171 26258.2
 30 08 2013  01 56  -21.0197 26026.4 -03480.5 -07.6170 26258.1
 30 08 2013  01 57  -21.0197 26026.4 -03480.6 -07.6171 26258.1
 30 08 2013  01 58  -21.0197 26026.4 -03480.6 -07.6171 26258.1
 30 08 2013  01 59  -21.0195 26026.3 -03480.6 -07.6172 26258.1
 30 08 2013  02 00  -21.0194 26026.4 -03480.6 -07.6172 26258.1
 30 08 2013  02 01  -21.0195 26026.5 -03480.7 -07.6174 26258.2
 30 08 2013  02 02  -21.0196 26026.5 -03480.8 -07.6175 26258.3
 30 08 2013  02 03  -21.0197 26026.5 -03480.8 -07.6175 26258.2
 30 08 2013  02 04  -21.0199 26026.3 -03480.7 -07.6173 26258.0
 30 08 2013  02 05  -21.0200 26026.1 -03480.6 -07.6172 26257.8
 30 08 2013  02 06  -21.0201 26026.1 -03480.6 -07.6172 26257.8
 30 08 2013  02 07  -21.0200 26026.1 -03480.6 -07.6172 26257.8
 30 08 2013  02 08  -21.0200 26026.3 -03480.7 -07.6173 26258.0
 30 08 2013  02 09  -21.0199 26026.4 -03480.7 -07.6174 26258.1
 30 08 2013  02 10  -21.0198 26026.5 -03480.8 -07.6175 26258.2
 30 08 2013  02 11  -21.0198 26026.5 -03480.8 -07.6176 26258.2
 30 08 2013  02 12  -21.0198 26026.5 -03480.8 -07.6175 26258.2
 30 08 2013  02 13  -21.0198 26026.5 -03480.8 -07.6175 26258.2
 30 08 2013  02 14  -21.0198 26026.5 -03480.8 -07.6175 26258.2
 30 08 2013  02 15  -21.0197 26026.5 -03480.8 -07.6176 26258.3
 30 08 2013  02 16  -21.0197 26026.7 -03480.9 -07.6177 26258.4
 30 08 2013  02 17  -21.0197 26026.8 -03480.9 -07.6177 26258.5
 30 08 2013  02 18  -21.0197 26026.9 -03481.0 -07.6178 26258.6
 30 08 2013  02 19  -21.0196 26027.0 -03481.0 -07.6178 26258.7
 30 08 2013  02 20  -21.0195 26027.0 -03481.0 -07.6179 26258.8
 30 08 2013  02 21  -21.0193 26027.1 -03481.0 -07.6179 26258.8
 30 08 2013  02 22  -21.0191 26027.1 -03481.1 -07.6179 26258.9
 30 08 2013  02 23  -21.0190 26027.2 -03481.1 -07.6179 26258.9
 30 08 2013  02 24  -21.0189 26027.2 -03481.1 -07.6179 26258.9
 30 08 2013  02 25  -21.0189 26027.1 -03481.0 -07.6179 26258.8
 30 08 2013  02 26  -21.0187 26027.0 -03481.0 -07.6179 26258.8
 30 08 2013  02 27  -21.0187 26027.0 -03481.0 -07.6178 26258.8
 30 08 2013  02 28  -21.0186 26027.0 -03481.0 -07.6178 26258.8
 30 08 2013  02 29  -21.0186 26027.0 -03481.0 -07.6178 26258.8
 30 08 2013  02 30  -21.0186 26027.0 -03481.0 -07.6178 26258.7
 30 08 2013  02 31  -21.0186 26027.0 -03480.9 -07.6177 26258.7
 30 08 2013  02 32  -21.0187 26026.9 -03480.9 -07.6178 26258.7
 30 08 2013  02 33  -21.0189 26026.9 -03480.9 -07.6178 26258.6
 30 08 2013  02 34  -21.0189 26026.9 -03480.9 -07.6177 26258.6
 30 08 2013  02 35  -21.0189 26026.8 -03480.9 -07.6177 26258.5
 30 08 2013  02 36  -21.0190 26026.7 -03480.9 -07.6177 26258.5
 30 08 2013  02 37  -21.0189 26026.8 -03480.9 -07.6177 26258.5
 30 08 2013  02 38  -21.0189 26026.7 -03480.9 -07.6177 26258.5
 30 08 2013  02 39  -21.0189 26026.7 -03480.9 -07.6177 26258.4
 30 08 2013  02 40  -21.0188 26026.7 -03480.9 -07.6177 26258.4
 30 08 2013  02 41  -21.0188 26026.6 -03480.9 -07.6177 26258.4
 30 08 2013  02 42  -21.0188 26026.6 -03480.9 -07.6177 26258.4
 30 08 2013  02 43  -21.0188 26026.7 -03480.9 -07.6178 26258.4
 30 08 2013  02 44  -21.0187 26026.7 -03481.0 -07.6178 26258.4
 30 08 2013  02 45  -21.0187 26026.7 -03481.0 -07.6179 26258.5
 30 08 2013  02 46  -21.0187 26026.8 -03481.0 -07.6179 26258.5
 30 08 2013  02 47  -21.0186 26026.8 -03481.0 -07.6180 26258.6
 30 08 2013  02 48  -21.0186 26026.9 -03481.1 -07.6180 26258.6
 30 08 2013  02 49  -21.0185 26026.9 -03481.1 -07.6180 26258.6
 30 08 2013  02 50  -21.0184 26026.9 -03481.1 -07.6180 26258.6
 30 08 2013  02 51  -21.0183 26026.9 -03481.1 -07.6181 26258.6
 30 08 2013  02 52  -21.0183 26026.9 -03481.1 -07.6181 26258.6
 30 08 2013  02 53  -21.0183 26026.8 -03481.1 -07.6180 26258.6
 30 08 2013  02 54  -21.0183 26026.8 -03481.1 -07.6181 26258.6
 30 08 2013  02 55  -21.0185 26026.8 -03481.1 -07.6181 26258.6
 30 08 2013  02 56  -21.0186 26026.9 -03481.1 -07.6181 26258.6
 30 08 2013  02 57  -21.0187 26026.9 -03481.1 -07.6181 26258.6
 30 08 2013  02 58  -21.0187 26026.9 -03481.1 -07.6180 26258.6
 30 08 2013  02 59  -21.0186 26026.9 -03481.1 -07.6180 26258.6
 30 08 2013  03 00  -21.0186 26026.9 -03481.1 -07.6181 26258.6
 30 08 2013  03 01  -21.0185 26026.8 -03481.1 -07.6180 26258.6
 30 08 2013  03 02  -21.0185 26026.9 -03481.1 -07.6181 26258.6
 30 08 2013  03 03  -21.0185 26026.9 -03481.1 -07.6181 26258.6
 30 08 2013  03 04  -21.0184 26026.9 -03481.1 -07.6182 26258.7
 30 08 2013  03 05  -21.0184 26026.9 -03481.1 -07.6182 26258.7
 30 08 2013  03 06  -21.0184 26026.9 -03481.2 -07.6182 26258.7
 30 08 2013  03 07  -21.0184 26026.9 -03481.1 -07.6181 26258.6
 30 08 2013  03 08  -21.0184 26026.8 -03481.1 -07.6181 26258.6
 30 08 2013  03 09  -21.0184 26026.8 -03481.1 -07.6181 26258.6
 30 08 2013  03 10  -21.0184 26026.9 -03481.1 -07.6181 26258.6
 30 08 2013  03 11  -21.0184 26026.8 -03481.1 -07.6181 26258.6
 30 08 2013  03 12  -21.0183 26026.8 -03481.1 -07.6181 26258.5
 30 08 2013  03 13  -21.0184 26026.7 -03481.0 -07.6180 26258.5
 30 08 2013  03 14  -21.0184 26026.7 -03481.0 -07.6179 26258.4
 30 08 2013  03 15  -21.0184 26026.7 -03481.0 -07.6179 26258.4
 30 08 2013  03 16  -21.0184 26026.7 -03481.0 -07.6180 26258.4
 30 08 2013  03 17  -21.0184 26026.8 -03481.1 -07.6180 26258.5
 30 08 2013  03 18  -21.0184 26026.9 -03481.1 -07.6181 26258.6
 30 08 2013  03 19  -21.0184 26026.9 -03481.2 -07.6183 26258.7
 30 08 2013  03 20  -21.0183 26027.0 -03481.2 -07.6183 26258.7
 30 08 2013  03 21  -21.0183 26027.0 -03481.2 -07.6183 26258.8
 30 08 2013  03 22  -21.0183 26026.9 -03481.2 -07.6183 26258.7
 30 08 2013  03 23  -21.0183 26026.9 -03481.2 -07.6182 26258.7
 30 08 2013  03 24  -21.0183 26026.9 -03481.1 -07.6181 26258.7
 30 08 2013  03 25  -21.0183 26026.9 -03481.2 -07.6182 26258.7
 30 08 2013  03 26  -21.0183 26026.9 -03481.2 -07.6182 26258.7
 30 08 2013  03 27  -21.0183 26026.9 -03481.2 -07.6182 26258.7
 30 08 2013  03 28  -21.0184 26026.9 -03481.2 -07.6182 26258.6
 30 08 2013  03 29  -21.0184 26026.8 -03481.2 -07.6182 26258.6
 30 08 2013  03 30  -21.0183 26026.9 -03481.2 -07.6182 26258.6
 30 08 2013  03 31  -21.0183 26027.0 -03481.2 -07.6183 26258.7
 30 08 2013  03 32  -21.0182 26027.0 -03481.3 -07.6184 26258.8
 30 08 2013  03 33  -21.0182 26027.1 -03481.3 -07.6185 26258.9
 30 08 2013  03 34  -21.0182 26027.2 -03481.3 -07.6185 26258.9
 30 08 2013  03 35  -21.0182 26027.2 -03481.3 -07.6185 26259.0
 30 08 2013  03 36  -21.0182 26027.2 -03481.3 -07.6185 26259.0
 30 08 2013  03 37  -21.0183 26027.1 -03481.3 -07.6185 26258.9
 30 08 2013  03 38  -21.0183 26027.0 -03481.3 -07.6184 26258.8
 30 08 2013  03 39  -21.0183 26026.9 -03481.2 -07.6183 26258.7
 30 08 2013  03 40  -21.0183 26026.9 -03481.2 -07.6183 26258.7
 30 08 2013  03 41  -21.0182 26026.8 -03481.2 -07.6183 26258.6
 30 08 2013  03 42  -21.0183 26026.8 -03481.2 -07.6183 26258.6
 30 08 2013  03 43  -21.0183 26026.7 -03481.2 -07.6183 26258.5
 30 08 2013  03 44  -21.0183 26026.7 -03481.2 -07.6183 26258.5
 30 08 2013  03 45  -21.0182 26026.7 -03481.2 -07.6183 26258.4
 30 08 2013  03 46  -21.0181 26026.8 -03481.2 -07.6184 26258.6
 30 08 2013  03 47  -21.0181 26026.9 -03481.3 -07.6185 26258.6
 30 08 2013  03 48  -21.0181 26026.9 -03481.3 -07.6186 26258.7
 30 08 2013  03 49  -21.0181 26026.9 -03481.4 -07.6187 26258.7
 30 08 2013  03 50  -21.0182 26026.9 -03481.4 -07.6187 26258.7
 30 08 2013  03 51  -21.0182 26026.8 -03481.3 -07.6186 26258.6
 30 08 2013  03 52  -21.0182 26026.8 -03481.3 -07.6186 26258.6
 30 08 2013  03 53  -21.0183 26026.7 -03481.3 -07.6186 26258.5
 30 08 2013  03 54  -21.0183 26026.7 -03481.3 -07.6186 26258.5
 30 08 2013  03 55  -21.0183 26026.7 -03481.3 -07.6186 26258.5
 30 08 2013  03 56  -21.0184 26026.6 -03481.3 -07.6186 26258.4
 30 08 2013  03 57  -21.0184 26026.6 -03481.3 -07.6186 26258.4
 30 08 2013  03 58  -21.0184 26026.6 -03481.3 -07.6186 26258.3
 30 08 2013  03 59  -21.0184 26026.5 -03481.3 -07.6186 26258.3
 30 08 2013  04 00  -21.0185 26026.5 -03481.3 -07.6186 26258.3
 30 08 2013  04 01  -21.0185 26026.5 -03481.3 -07.6186 26258.3
 30 08 2013  04 02  -21.0185 26026.5 -03481.3 -07.6187 26258.3
 30 08 2013  04 03  -21.0185 26026.5 -03481.3 -07.6187 26258.3
 30 08 2013  04 04  -21.0186 26026.5 -03481.3 -07.6187 26258.3
 30 08 2013  04 05  -21.0185 26026.5 -03481.4 -07.6188 26258.3
 30 08 2013  04 06  -21.0185 26026.6 -03481.4 -07.6188 26258.4
 30 08 2013  04 07  -21.0185 26026.6 -03481.4 -07.6189 26258.4
 30 08 2013  04 08  -21.0184 26026.6 -03481.4 -07.6189 26258.4
 30 08 2013  04 09  -21.0184 26026.6 -03481.4 -07.6189 26258.4
 30 08 2013  04 10  -21.0184 26026.6 -03481.4 -07.6189 26258.4
 30 08 2013  04 11  -21.0183 26026.6 -03481.5 -07.6190 26258.5
 30 08 2013  04 12  -21.0182 26026.7 -03481.5 -07.6190 26258.5
 30 08 2013  04 13  -21.0181 26026.7 -03481.5 -07.6190 26258.5
 30 08 2013  04 14  -21.0180 26026.7 -03481.5 -07.6189 26258.5
 30 08 2013  04 15  -21.0179 26026.7 -03481.5 -07.6190 26258.5
 30 08 2013  04 16  -21.0178 26026.6 -03481.5 -07.6190 26258.5
 30 08 2013  04 17  -21.0177 26026.6 -03481.5 -07.6190 26258.4
 30 08 2013  04 18  -21.0175 26026.6 -03481.5 -07.6189 26258.4
 30 08 2013  04 19  -21.0174 26026.5 -03481.5 -07.6190 26258.4
 30 08 2013  04 20  -21.0172 26026.5 -03481.5 -07.6190 26258.4
 30 08 2013  04 21  -21.0171 26026.5 -03481.5 -07.6190 26258.3
 30 08 2013  04 22  -21.0169 26026.5 -03481.5 -07.6190 26258.3
 30 08 2013  04 23  -21.0168 26026.5 -03481.5 -07.6191 26258.3
 30 08 2013  04 24  -21.0166 26026.5 -03481.5 -07.6190 26258.3
 30 08 2013  04 25  -21.0165 26026.5 -03481.5 -07.6191 26258.3
 30 08 2013  04 26  -21.0164 26026.5 -03481.5 -07.6192 26258.3
 30 08 2013  04 27  -21.0164 26026.5 -03481.6 -07.6192 26258.3
 30 08 2013  04 28  -21.0163 26026.5 -03481.5 -07.6192 26258.3
 30 08 2013  04 29  -21.0163 26026.4 -03481.6 -07.6193 26258.3
 30 08 2013  04 30  -21.0163 26026.4 -03481.6 -07.6192 26258.3
 30 08 2013  04 31  -21.0162 26026.4 -03481.6 -07.6193 26258.2
 30 08 2013  04 32  -21.0162 26026.4 -03481.6 -07.6193 26258.2
 30 08 2013  04 33  -21.0161 26026.4 -03481.6 -07.6193 26258.2
 30 08 2013  04 34  -21.0161 26026.4 -03481.6 -07.6194 26258.2
 30 08 2013  04 35  -21.0160 26026.4 -03481.6 -07.6194 26258.3
 30 08 2013  04 36  -21.0159 26026.4 -03481.7 -07.6194 26258.3
 30 08 2013  04 37  -21.0158 26026.5 -03481.7 -07.6195 26258.3
 30 08 2013  04 38  -21.0156 26026.5 -03481.7 -07.6195 26258.3
 30 08 2013  04 39  -21.0154 26026.4 -03481.7 -07.6195 26258.3
 30 08 2013  04 40  -21.0153 26026.4 -03481.7 -07.6195 26258.3
 30 08 2013  04 41  -21.0153 26026.4 -03481.7 -07.6195 26258.3
 30 08 2013  04 42  -21.0152 26026.4 -03481.7 -07.6195 26258.2
 30 08 2013  04 43  -21.0151 26026.4 -03481.7 -07.6195 26258.2
 30 08 2013  04 44  -21.0150 26026.4 -03481.7 -07.6196 26258.2
 30 08 2013  04 45  -21.0148 26026.3 -03481.7 -07.6196 26258.2
 30 08 2013  04 46  -21.0147 26026.2 -03481.7 -07.6195 26258.1
 30 08 2013  04 47  -21.0145 26026.2 -03481.6 -07.6195 26258.0
 30 08 2013  04 48  -21.0142 26026.1 -03481.6 -07.6195 26257.9
 30 08 2013  04 49  -21.0141 26026.0 -03481.7 -07.6195 26257.9
 30 08 2013  04 50  -21.0139 26026.0 -03481.6 -07.6195 26257.8
 30 08 2013  04 51  -21.0139 26025.9 -03481.7 -07.6196 26257.7
 30 08 2013  04 52  -21.0139 26025.9 -03481.7 -07.6196 26257.7
 30 08 2013  04 53  -21.0139 26025.9 -03481.7 -07.6197 26257.7
 30 08 2013  04 54  -21.0138 26025.9 -03481.7 -07.6197 26257.7
 30 08 2013  04 55  -21.0138 26025.9 -03481.7 -07.6197 26257.7
 30 08 2013  04 56  -21.0137 26025.8 -03481.7 -07.6198 26257.7
 30 08 2013  04 57  -21.0136 26025.8 -03481.7 -07.6197 26257.6
 30 08 2013  04 58  -21.0137 26025.7 -03481.8 -07.6198 26257.6
 30 08 2013  04 59  -21.0137 26025.8 -03481.8 -07.6199 26257.7
 30 08 2013  05 00  -21.0137 26025.9 -03481.8 -07.6200 26257.7
 30 08 2013  05 01  -21.0137 26025.9 -03481.9 -07.6200 26257.8
 30 08 2013  05 02  -21.0138 26025.9 -03481.9 -07.6201 26257.8
 30 08 2013  05 03  -21.0139 26026.0 -03481.9 -07.6201 26257.8
 30 08 2013  05 04  -21.0137 26026.1 -03482.0 -07.6202 26258.0
 30 08 2013  05 05  -21.0139 26026.2 -03482.0 -07.6203 26258.1
 30 08 2013  05 06  -21.0140 26026.1 -03482.0 -07.6203 26258.0
 30 08 2013  05 07  -21.0141 26026.1 -03482.0 -07.6202 26258.0
 30 08 2013  05 08  -21.0141 26026.1 -03482.0 -07.6202 26258.0
 30 08 2013  05 09  -21.0142 26026.2 -03482.0 -07.6203 26258.1
 30 08 2013  05 10  -21.0144 26026.2 -03482.0 -07.6203 26258.1
 30 08 2013  05 11  -21.0145 26026.2 -03482.0 -07.6203 26258.1
 30 08 2013  05 12  -21.0145 26026.2 -03482.0 -07.6203 26258.1
 30 08 2013  05 13  -21.0145 26026.3 -03482.1 -07.6203 26258.2
 30 08 2013  05 14  -21.0145 26026.4 -03482.1 -07.6204 26258.3
 30 08 2013  05 15  -21.0148 26026.4 -03482.1 -07.6203 26258.3
 30 08 2013  05 16  -21.0147 26026.4 -03482.1 -07.6203 26258.3
 30 08 2013  05 17  -21.0147 26026.6 -03482.1 -07.6204 26258.5
 30 08 2013  05 18  -21.0149 26026.5 -03482.1 -07.6204 26258.5
 30 08 2013  05 19  -21.0150 26026.5 -03482.1 -07.6203 26258.4
 30 08 2013  05 20  -21.0148 26026.7 -03482.2 -07.6204 26258.7
 30 08 2013  05 21  -21.0149 26026.8 -03482.2 -07.6205 26258.7
 30 08 2013  05 22  -21.0151 26026.6 -03482.1 -07.6203 26258.5
 30 08 2013  05 23  -21.0149 26026.6 -03482.0 -07.6202 26258.5
 30 08 2013  05 24  -21.0151 26026.7 -03482.1 -07.6203 26258.6
 30 08 2013  05 25  -21.0152 26026.7 -03482.1 -07.6204 26258.6
 30 08 2013  05 26  -21.0152 26026.8 -03482.2 -07.6204 26258.8
 30 08 2013  05 27  -21.0153 26026.9 -03482.2 -07.6205 26258.9
 30 08 2013  05 28  -21.0154 26026.7 -03482.1 -07.6202 26258.6
 30 08 2013  05 29  -21.0151 26026.8 -03482.1 -07.6202 26258.7
 30 08 2013  05 30  -21.0152 26026.8 -03482.1 -07.6202 26258.6
 30 08 2013  05 31  -21.0151 26026.7 -03482.0 -07.6202 26258.6
 30 08 2013  05 32  -21.0151 26026.7 -03482.0 -07.6202 26258.6
 30 08 2013  05 33  -21.0151 26026.7 -03482.0 -07.6201 26258.5
 30 08 2013  05 34  -21.0149 26026.6 -03481.9 -07.6200 26258.5
 30 08 2013  05 35  -21.0150 26026.7 -03482.0 -07.6201 26258.6
 30 08 2013  05 36  -21.0149 26026.9 -03482.0 -07.6201 26258.8
 30 08 2013  05 37  -21.0150 26026.7 -03482.0 -07.6201 26258.6
 30 08 2013  05 38  -21.0148 26026.8 -03482.0 -07.6201 26258.7
 30 08 2013  05 39  -21.0148 26026.9 -03482.1 -07.6202 26258.8
 30 08 2013  05 40  -21.0149 26026.8 -03482.0 -07.6201 26258.7
 30 08 2013  05 41  -21.0146 26027.2 -03482.2 -07.6203 26259.1
 30 08 2013  05 42  -21.0148 26027.4 -03482.3 -07.6206 26259.4
 30 08 2013  05 43  -21.0147 26027.3 -03482.2 -07.6204 26259.3
 30 08 2013  05 44  -21.0143 26027.7 -03482.4 -07.6207 26259.7
 30 08 2013  05 45  -21.0146 26027.5 -03482.3 -07.6205 26259.4
 30 08 2013  05 46  -21.0143 26027.4 -03482.2 -07.6203 26259.3
 30 08 2013  05 47  -21.0143 26027.7 -03482.3 -07.6205 26259.6
 30 08 2013  05 48  -21.0145 26027.7 -03482.3 -07.6204 26259.6
 30 08 2013  05 49  -21.0142 26027.7 -03482.3 -07.6204 26259.6
 30 08 2013  05 50  -21.0143 26027.6 -03482.2 -07.6204 26259.5
 30 08 2013  05 51  -21.0142 26027.4 -03482.1 -07.6201 26259.3
 30 08 2013  05 52  -21.0140 26027.6 -03482.2 -07.6202 26259.5
 30 08 2013  05 53  -21.0140 26027.8 -03482.3 -07.6204 26259.7
 30 08 2013  05 54  -21.0140 26027.7 -03482.2 -07.6203 26259.6
 30 08 2013  05 55  -21.0140 26027.5 -03482.1 -07.6201 26259.4
 30 08 2013  05 56  -21.0140 26027.3 -03482.0 -07.6200 26259.2
 30 08 2013  05 57  -21.0141 26027.4 -03482.0 -07.6200 26259.3
 30 08 2013  05 58  -21.0142 26027.3 -03482.0 -07.6199 26259.2
 30 08 2013  05 59  -21.0142 26027.2 -03481.9 -07.6198 26259.1
 30 08 2013  06 00  -21.0141 26027.1 -03481.9 -07.6197 26259.0
 30 08 2013  06 01  -21.0141 26027.3 -03481.9 -07.6198 26259.1
 30 08 2013  06 02  -21.0139 26027.5 -03482.1 -07.6200 26259.4
 30 08 2013  06 03  -21.0133 26027.9 -03482.3 -07.6204 26259.9
 30 08 2013  06 04  -21.0126 26028.5 -03482.6 -07.6208 26260.5
 30 08 2013  06 05  -21.0122 26029.3 -03483.0 -07.6215 26261.3
 30 08 2013  06 06  -21.0119 26029.9 -03483.3 -07.6220 26261.9
 30 08 2013  06 07  -21.0116 26030.5 -03483.5 -07.6223 26262.5
 30 08 2013  06 08  -21.0111 26030.9 -03483.7 -07.6225 26263.0
 30 08 2013  06 09  -21.0108 26031.2 -03483.8 -07.6226 26263.3
 30 08 2013  06 10  -21.0104 26031.2 -03483.7 -07.6224 26263.3
 30 08 2013  06 11  -21.0099 26031.2 -03483.6 -07.6222 26263.3
 30 08 2013  06 12  -21.0096 26031.4 -03483.6 -07.6221 26263.4
 30 08 2013  06 13  -21.0094 26031.4 -03483.6 -07.6221 26263.5
 30 08 2013  06 14  -21.0093 26031.2 -03483.4 -07.6219 26263.3
 30 08 2013  06 15  -21.0090 26031.1 -03483.3 -07.6216 26263.1
 30 08 2013  06 16  -21.0091 26031.0 -03483.3 -07.6216 26263.0
 30 08 2013  06 17  -21.0090 26030.8 -03483.1 -07.6214 26262.8
 30 08 2013  06 18  -21.0096 26030.5 -03483.0 -07.6212 26262.5
 30 08 2013  06 19  -21.0099 26029.9 -03482.7 -07.6206 26261.9
 30 08 2013  06 20  -21.0103 26029.3 -03482.3 -07.6200 26261.2
 30 08 2013  06 21  -21.0105 26029.0 -03482.2 -07.6198 26260.9
 30 08 2013  06 22  -21.0108 26028.7 -03482.0 -07.6196 26260.6
 30 08 2013  06 23  -21.0109 26028.6 -03482.0 -07.6196 26260.5
 30 08 2013  06 24  -21.0110 26028.7 -03482.1 -07.6197 26260.6
 30 08 2013  06 25  -21.0109 26028.7 -03482.2 -07.6199 26260.6
 30 08 2013  06 26  -21.0109 26029.0 -03482.3 -07.6202 26260.9
 30 08 2013  06 27  -21.0110 26029.0 -03482.4 -07.6203 26260.9
 30 08 2013  06 28  -21.0111 26029.0 -03482.4 -07.6203 26260.9
 30 08 2013  06 29  -21.0112 26029.0 -03482.4 -07.6203 26260.9
 30 08 2013  06 30  -21.0112 26029.0 -03482.3 -07.6201 26260.9
 30 08 2013  06 31  -21.0110 26028.8 -03482.3 -07.6200 26260.7
 30 08 2013  06 32  -21.0109 26028.7 -03482.2 -07.6199 26260.6
 30 08 2013  06 33  -21.0108 26028.7 -03482.2 -07.6199 26260.6
 30 08 2013  06 34  -21.0102 26028.8 -03482.2 -07.6199 26260.7
 30 08 2013  06 35  -21.0099 26028.9 -03482.3 -07.6201 26260.8
 30 08 2013  06 36  -21.0095 26028.8 -03482.3 -07.6202 26260.7
 30 08 2013  06 37  -21.0092 26028.6 -03482.2 -07.6201 26260.5
 30 08 2013  06 38  -21.0091 26028.7 -03482.3 -07.6202 26260.6
 30 08 2013  06 39  -21.0091 26028.7 -03482.4 -07.6203 26260.6
 30 08 2013  06 40  -21.0088 26028.7 -03482.4 -07.6203 26260.6
 30 08 2013  06 41  -21.0088 26028.6 -03482.3 -07.6203 26260.5
 30 08 2013  06 42  -21.0083 26028.7 -03482.4 -07.6203 26260.6
 30 08 2013  06 43  -21.0081 26028.6 -03482.3 -07.6203 26260.5
 30 08 2013  06 44  -21.0076 26028.6 -03482.4 -07.6203 26260.5
 30 08 2013  06 45  -21.0069 26028.6 -03482.4 -07.6204 26260.5
 30 08 2013  06 46  -21.0062 26028.6 -03482.4 -07.6205 26260.5
 30 08 2013  06 47  -21.0056 26028.8 -03482.6 -07.6208 26260.7
 30 08 2013  06 48  -21.0052 26029.0 -03482.7 -07.6210 26261.0
 30 08 2013  06 49  -21.0048 26029.1 -03482.8 -07.6212 26261.1
 30 08 2013  06 50  -21.0044 26029.2 -03482.8 -07.6212 26261.2
 30 08 2013  06 51  -21.0040 26029.4 -03483.0 -07.6215 26261.4
 30 08 2013  06 52  -21.0037 26029.6 -03483.2 -07.6218 26261.7
 30 08 2013  06 53  -21.0032 26029.9 -03483.3 -07.6220 26261.9
 30 08 2013  06 54  -21.0028 26030.0 -03483.4 -07.6222 26262.0
 30 08 2013  06 55  -21.0022 26030.1 -03483.5 -07.6223 26262.2
 30 08 2013  06 56  -21.0018 26030.4 -03483.6 -07.6225 26262.5
 30 08 2013  06 57  -21.0014 26030.7 -03483.8 -07.6227 26262.8
 30 08 2013  06 58  -21.0012 26030.8 -03483.8 -07.6228 26262.8
 30 08 2013  06 59  -21.0007 26030.7 -03483.8 -07.6228 26262.8
 30 08 2013  07 00  -21.0003 26030.7 -03483.8 -07.6228 26262.8
 30 08 2013  07 01  -20.9998 26030.9 -03483.9 -07.6230 26263.0
 30 08 2013  07 02  -20.9996 26031.1 -03484.1 -07.6233 26263.2
 30 08 2013  07 03  -20.9993 26031.1 -03484.1 -07.6233 26263.2
 30 08 2013  07 04  -20.9991 26031.1 -03484.1 -07.6233 26263.2
 30 08 2013  07 05  -20.9992 26031.0 -03484.1 -07.6234 26263.1
 30 08 2013  07 06  -20.9996 26030.8 -03484.0 -07.6232 26263.0
 30 08 2013  07 07  -20.9998 26030.7 -03483.9 -07.6230 26262.8
 30 08 2013  07 08  -21.0001 26030.8 -03483.9 -07.6230 26262.9
 30 08 2013  07 09  -21.0001 26030.8 -03483.9 -07.6230 26262.9
 30 08 2013  07 10  -21.0002 26030.9 -03483.9 -07.6231 26263.0
 30 08 2013  07 11  -21.0002 26030.7 -03483.9 -07.6230 26262.8
 30 08 2013  07 12  -21.0002 26030.5 -03483.8 -07.6229 26262.6
 30 08 2013  07 13  -21.0002 26030.4 -03483.8 -07.6229 26262.5
 30 08 2013  07 14  -21.0004 26030.5 -03483.9 -07.6231 26262.6
 30 08 2013  07 15  -21.0004 26030.5 -03483.9 -07.6231 26262.6
 30 08 2013  07 16  -21.0002 26030.5 -03483.9 -07.6231 26262.6
 30 08 2013  07 17  -21.0002 26030.6 -03484.0 -07.6232 26262.7
 30 08 2013  07 18  -20.9999 26030.8 -03484.0 -07.6233 26262.9
 30 08 2013  07 19  -20.9998 26031.0 -03484.2 -07.6235 26263.1
 30 08 2013  07 20  -20.9997 26031.1 -03484.2 -07.6236 26263.2
 30 08 2013  07 21  -20.9997 26031.2 -03484.3 -07.6238 26263.4
 30 08 2013  07 22  -20.9995 26031.3 -03484.4 -07.6239 26263.5
 30 08 2013  07 23  -20.9993 26031.5 -03484.5 -07.6240 26263.7
 30 08 2013  07 24  -20.9993 26031.6 -03484.5 -07.6241 26263.7
 30 08 2013  07 25  -20.9994 26031.6 -03484.5 -07.6241 26263.8
 30 08 2013  07 26  -20.9992 26031.7 -03484.5 -07.6240 26263.9
 30 08 2013  07 27  -20.9992 26031.7 -03484.4 -07.6239 26263.9
 30 08 2013  07 28  -20.9990 26031.6 -03484.4 -07.6238 26263.8
 30 08 2013  07 29  -20.9988 26031.6 -03484.3 -07.6236 26263.7
 30 08 2013  07 30  -20.9987 26031.5 -03484.2 -07.6235 26263.6
 30 08 2013  07 31  -20.9985 26031.5 -03484.2 -07.6235 26263.7
 30 08 2013  07 32  -20.9985 26031.5 -03484.2 -07.6234 26263.7
 30 08 2013  07 33  -20.9983 26031.5 -03484.2 -07.6234 26263.7
 30 08 2013  07 34  -20.9983 26031.5 -03484.2 -07.6234 26263.7
 30 08 2013  07 35  -20.9982 26031.6 -03484.2 -07.6235 26263.8
 30 08 2013  07 36  -20.9983 26031.7 -03484.3 -07.6236 26263.8
 30 08 2013  07 37  -20.9987 26031.6 -03484.2 -07.6235 26263.8
 30 08 2013  07 38  -20.9990 26031.5 -03484.2 -07.6234 26263.6
 30 08 2013  07 39  -20.9992 26031.3 -03484.0 -07.6231 26263.4
 30 08 2013  07 40  -20.9994 26031.2 -03483.9 -07.6230 26263.3
 30 08 2013  07 41  -20.9994 26031.1 -03483.8 -07.6228 26263.2
 30 08 2013  07 42  -20.9993 26031.1 -03483.8 -07.6227 26263.2
 30 08 2013  07 43  -20.9994 26031.3 -03483.9 -07.6229 26263.4
 30 08 2013  07 44  -20.9995 26031.5 -03484.0 -07.6231 26263.6
 30 08 2013  07 45  -20.9996 26031.7 -03484.1 -07.6233 26263.8
 30 08 2013  07 46  -20.9999 26031.8 -03484.2 -07.6234 26264.0
 30 08 2013  07 47  -21.0001 26031.8 -03484.2 -07.6233 26264.0
 30 08 2013  07 48  -21.0001 26031.8 -03484.1 -07.6231 26263.9
 30 08 2013  07 49  -21.0000 26031.6 -03483.9 -07.6228 26263.7
 30 08 2013  07 50  -20.9998 26031.6 -03483.9 -07.6227 26263.7
 30 08 2013  07 51  -20.9997 26031.6 -03483.8 -07.6226 26263.7
 30 08 2013  07 52  -20.9995 26031.5 -03483.7 -07.6225 26263.6
 30 08 2013  07 53  -20.9992 26031.4 -03483.7 -07.6224 26263.5
 30 08 2013  07 54  -20.9991 26031.4 -03483.6 -07.6223 26263.4
 30 08 2013  07 55  -20.9992 26031.4 -03483.6 -07.6222 26263.4
 30 08 2013  07 56  -20.9993 26031.4 -03483.6 -07.6222 26263.4
 30 08 2013  07 57  -20.9994 26031.4 -03483.6 -07.6222 26263.5
 30 08 2013  07 58  -20.9992 26031.5 -03483.6 -07.6222 26263.5
 30 08 2013  07 59  -20.9990 26031.5 -03483.6 -07.6221 26263.5
 30 08 2013  08 00  -20.9990 26031.5 -03483.6 -07.6221 26263.6
 30 08 2013  08 01  -20.9991 26031.5 -03483.6 -07.6221 26263.6
 30 08 2013  08 02  -20.9990 26031.7 -03483.6 -07.6221 26263.7
 30 08 2013  08 03  -20.9988 26031.8 -03483.7 -07.6222 26263.9
 30 08 2013  08 04  -20.9986 26032.0 -03483.7 -07.6223 26264.1
 30 08 2013  08 05  -20.9986 26032.1 -03483.7 -07.6223 26264.1
 30 08 2013  08 06  -20.9983 26032.1 -03483.7 -07.6222 26264.2
 30 08 2013  08 07  -20.9978 26032.1 -03483.6 -07.6220 26264.2
 30 08 2013  08 08  -20.9971 26032.2 -03483.6 -07.6220 26264.2
 30 08 2013  08 09  -20.9963 26032.3 -03483.6 -07.6220 26264.3
 30 08 2013  08 10  -20.9958 26032.4 -03483.7 -07.6221 26264.5
 30 08 2013  08 11  -20.9953 26032.4 -03483.7 -07.6221 26264.4
 30 08 2013  08 12  -20.9945 26032.4 -03483.7 -07.6221 26264.4
 30 08 2013  08 13  -20.9936 26032.5 -03483.7 -07.6221 26264.6
 30 08 2013  08 14  -20.9929 26032.7 -03483.8 -07.6223 26264.8
 30 08 2013  08 15  -20.9924 26032.9 -03484.0 -07.6226 26265.0
 30 08 2013  08 16  -20.9920 26032.9 -03484.1 -07.6228 26265.0
 30 08 2013  08 17  -20.9917 26033.1 -03484.2 -07.6229 26265.2
 30 08 2013  08 18  -20.9914 26033.3 -03484.3 -07.6231 26265.4
 30 08 2013  08 19  -20.9910 26033.4 -03484.3 -07.6232 26265.5
 30 08 2013  08 20  -20.9905 26033.7 -03484.4 -07.6233 26265.8
 30 08 2013  08 21  -20.9902 26033.9 -03484.5 -07.6234 26266.0
 30 08 2013  08 22  -20.9898 26034.0 -03484.5 -07.6234 26266.2
 30 08 2013  08 23  -20.9895 26033.9 -03484.4 -07.6233 26266.0
 30 08 2013  08 24  -20.9891 26033.9 -03484.4 -07.6231 26266.1
 30 08 2013  08 25  -20.9887 26034.0 -03484.4 -07.6231 26266.2
 30 08 2013  08 26  -20.9885 26034.1 -03484.4 -07.6231 26266.2
 30 08 2013  08 27  -20.9884 26033.8 -03484.3 -07.6229 26266.0
 30 08 2013  08 28  -20.9883 26033.7 -03484.1 -07.6226 26265.8
 30 08 2013  08 29  -20.9882 26033.7 -03484.0 -07.6225 26265.7
 30 08 2013  08 30  -20.9882 26033.5 -03484.0 -07.6223 26265.6
 30 08 2013  08 31  -20.9883 26033.6 -03484.0 -07.6225 26265.7
 30 08 2013  08 32  -20.9884 26033.6 -03484.0 -07.6224 26265.7
 30 08 2013  08 33  -20.9883 26033.6 -03483.9 -07.6223 26265.7
 30 08 2013  08 34  -20.9882 26033.6 -03483.8 -07.6221 26265.6
 30 08 2013  08 35  -20.9879 26033.5 -03483.7 -07.6218 26265.5
 30 08 2013  08 36  -20.9877 26033.6 -03483.7 -07.6217 26265.7
 30 08 2013  08 37  -20.9874 26033.7 -03483.7 -07.6216 26265.8
 30 08 2013  08 38  -20.9871 26033.8 -03483.6 -07.6215 26265.8
 30 08 2013  08 39  -20.9867 26033.8 -03483.7 -07.6216 26265.9
 30 08 2013  08 40  -20.9861 26033.9 -03483.6 -07.6215 26265.9
 30 08 2013  08 41  -20.9855 26034.0 -03483.7 -07.6215 26266.1
 30 08 2013  08 42  -20.9847 26034.2 -03483.7 -07.6216 26266.2
 30 08 2013  08 43  -20.9839 26034.4 -03483.8 -07.6217 26266.5
 30 08 2013  08 44  -20.9830 26034.7 -03483.9 -07.6219 26266.8
 30 08 2013  08 45  -20.9819 26035.0 -03484.0 -07.6220 26267.1
 30 08 2013  08 46  -20.9807 26035.5 -03484.3 -07.6225 26267.6
 30 08 2013  08 47  -20.9797 26035.9 -03484.5 -07.6229 26268.0
 30 08 2013  08 48  -20.9786 26036.1 -03484.6 -07.6231 26268.2
 30 08 2013  08 49  -20.9775 26036.3 -03484.7 -07.6232 26268.5
 30 08 2013  08 50  -20.9767 26036.4 -03484.8 -07.6234 26268.5
 30 08 2013  08 51  -20.9759 26036.2 -03484.7 -07.6232 26268.3
 30 08 2013  08 52  -20.9753 26036.0 -03484.6 -07.6231 26268.2
 30 08 2013  08 53  -20.9749 26036.0 -03484.6 -07.6231 26268.2
 30 08 2013  08 54  -20.9742 26036.1 -03484.7 -07.6232 26268.3
 30 08 2013  08 55  -20.9737 26036.2 -03484.8 -07.6233 26268.3
 30 08 2013  08 56  -20.9733 26036.1 -03484.7 -07.6233 26268.3
 30 08 2013  08 57  -20.9728 26036.1 -03484.7 -07.6233 26268.3
 30 08 2013  08 58  -20.9722 26036.1 -03484.8 -07.6235 26268.3
 30 08 2013  08 59  -20.9717 26036.1 -03484.9 -07.6237 26268.3
 30 08 2013  09 00  -20.9710 26036.2 -03485.0 -07.6238 26268.4
 30 08 2013  09 01  -20.9706 26036.4 -03485.1 -07.6241 26268.6
 30 08 2013  09 02  -20.9701 26036.6 -03485.5 -07.6247 26268.9
 30 08 2013  09 03  -20.9696 26036.7 -03485.6 -07.6249 26268.9
 30 08 2013  09 04  -20.9692 26036.7 -03485.7 -07.6251 26268.9
 30 08 2013  09 05  -20.9686 26036.7 -03485.7 -07.6253 26269.0
 30 08 2013  09 06  -20.9681 26036.8 -03485.9 -07.6256 26269.1
 30 08 2013  09 07  -20.9673 26037.1 -03486.1 -07.6260 26269.4
 30 08 2013  09 08  -20.9669 26037.2 -03486.3 -07.6264 26269.5
 30 08 2013  09 09  -20.9667 26037.2 -03486.5 -07.6268 26269.6
 30 08 2013  09 10  -20.9666 26037.2 -03486.7 -07.6271 26269.6
 30 08 2013  09 11  -20.9662 26037.2 -03486.8 -07.6273 26269.7
 30 08 2013  09 12  -20.9654 26037.3 -03486.8 -07.6275 26269.8
 30 08 2013  09 13  -20.9651 26037.8 -03487.1 -07.6280 26270.2
 30 08 2013  09 14  -20.9656 26037.9 -03487.4 -07.6285 26270.4
 30 08 2013  09 15  -20.9658 26037.5 -03487.3 -07.6285 26270.0
 30 08 2013  09 16  -20.9661 26037.1 -03487.3 -07.6286 26269.6
 30 08 2013  09 17  -20.9664 26036.9 -03487.2 -07.6284 26269.4
 30 08 2013  09 18  -20.9667 26036.7 -03487.2 -07.6284 26269.2
 30 08 2013  09 19  -20.9670 26036.5 -03487.2 -07.6285 26269.0
 30 08 2013  09 20  -20.9675 26036.3 -03487.2 -07.6287 26268.8
 30 08 2013  09 21  -20.9675 26036.3 -03487.4 -07.6290 26268.8
 30 08 2013  09 22  -20.9674 26036.3 -03487.5 -07.6292 26268.8
 30 08 2013  09 23  -20.9673 26036.3 -03487.6 -07.6295 26268.8
 30 08 2013  09 24  -20.9674 26036.3 -03487.8 -07.6297 26268.9
 30 08 2013  09 25  -20.9674 26036.5 -03488.0 -07.6301 26269.1
 30 08 2013  09 26  -20.9672 26036.9 -03488.2 -07.6306 26269.5
 30 08 2013  09 27  -20.9668 26037.3 -03488.4 -07.6309 26269.9
 30 08 2013  09 28  -20.9672 26037.3 -03488.5 -07.6310 26270.0
 30 08 2013  09 29  -20.9671 26037.5 -03488.7 -07.6315 26270.2
 30 08 2013  09 30  -20.9669 26037.8 -03488.9 -07.6318 26270.6
 30 08 2013  09 31  -20.9663 26038.4 -03489.3 -07.6324 26271.2
 30 08 2013  09 32  -20.9665 26038.6 -03489.6 -07.6330 26271.4
 30 08 2013  09 33  -20.9674 26038.4 -03489.7 -07.6333 26271.2
 30 08 2013  09 34  -20.9677 26038.1 -03489.4 -07.6329 26270.8
 30 08 2013  09 35  -20.9682 26037.7 -03489.1 -07.6322 26270.4
 30 08 2013  09 36  -20.9686 26037.3 -03488.8 -07.6318 26270.0
 30 08 2013  09 37  -20.9690 26036.8 -03488.6 -07.6314 26269.5
 30 08 2013  09 38  -20.9697 26036.6 -03488.6 -07.6315 26269.3
 30 08 2013  09 39  -20.9698 26036.5 -03488.6 -07.6315 26269.1
 30 08 2013  09 40  -20.9697 26036.4 -03488.7 -07.6317 26269.0
 30 08 2013  09 41  -20.9694 26036.3 -03488.8 -07.6320 26269.0
 30 08 2013  09 42  -20.9691 26036.3 -03488.9 -07.6322 26269.0
 30 08 2013  09 43  -20.9689 26036.4 -03489.1 -07.6326 26269.1
 30 08 2013  09 44  -20.9684 26036.5 -03489.2 -07.6328 26269.3
 30 08 2013  09 45  -20.9685 26036.6 -03489.4 -07.6331 26269.4
 30 08 2013  09 46  -20.9681 26036.8 -03489.5 -07.6335 26269.5
 30 08 2013  09 47  -20.9676 26037.0 -03489.7 -07.6337 26269.8
 30 08 2013  09 48  -20.9677 26037.3 -03489.9 -07.6340 26270.2
 30 08 2013  09 49  -20.9681 26037.9 -03490.2 -07.6346 26270.8
 30 08 2013  09 50  -20.9672 26038.5 -03490.5 -07.6350 26271.4
 30 08 2013  09 51  -20.9668 26038.9 -03490.7 -07.6353 26271.8
 30 08 2013  09 52  -20.9669 26039.5 -03491.0 -07.6359 26272.4
 30 08 2013  09 53  -20.9671 26040.0 -03491.3 -07.6364 26273.0
 30 08 2013  09 54  -20.9669 26040.6 -03491.6 -07.6368 26273.7
 30 08 2013  09 55  -20.9673 26041.3 -03491.8 -07.6371 26274.4
 30 08 2013  09 56  -20.9678 26041.8 -03492.0 -07.6373 26274.9
 30 08 2013  09 57  -20.9684 26042.0 -03492.0 -07.6373 26275.1
 30 08 2013  09 58  -20.9692 26042.1 -03492.0 -07.6372 26275.2
 30 08 2013  09 59  -20.9695 26042.0 -03491.9 -07.6370 26275.0
 30 08 2013  10 00  -20.9701 26041.7 -03491.7 -07.6366 26274.8
 30 08 2013  10 01  -20.9706 26041.5 -03491.5 -07.6364 26274.5
 30 08 2013  10 02  -20.9710 26041.3 -03491.5 -07.6363 26274.4
 30 08 2013  10 03  -20.9715 26041.3 -03491.6 -07.6365 26274.3
 30 08 2013  10 04  -20.9721 26041.2 -03491.6 -07.6368 26274.2
 30 08 2013  10 05  -20.9724 26041.2 -03491.7 -07.6369 26274.3
 30 08 2013  10 06  -20.9725 26041.3 -03491.8 -07.6371 26274.4
 30 08 2013  10 07  -20.9729 26041.3 -03491.9 -07.6372 26274.4
 30 08 2013  10 08  -20.9732 26041.5 -03492.0 -07.6375 26274.6
 30 08 2013  10 09  -20.9739 26041.6 -03492.1 -07.6377 26274.7
 30 08 2013  10 10  -20.9747 26041.8 -03492.3 -07.6381 26274.9
 30 08 2013  10 11  -20.9748 26041.8 -03492.3 -07.6380 26275.0
 30 08 2013  10 12  -20.9751 26041.9 -03492.3 -07.6379 26275.0
 30 08 2013  10 13  -20.9754 26041.9 -03492.3 -07.6379 26275.0
 30 08 2013  10 14  -20.9760 26042.1 -03492.4 -07.6381 26275.3
 30 08 2013  10 15  -20.9765 26042.1 -03492.4 -07.6380 26275.3
 30 08 2013  10 16  -20.9770 26042.1 -03492.4 -07.6380 26275.2
 30 08 2013  10 17  -20.9770 26042.2 -03492.4 -07.6381 26275.3
 30 08 2013  10 18  -20.9774 26042.3 -03492.5 -07.6383 26275.4
 30 08 2013  10 19  -20.9777 26042.7 -03492.7 -07.6386 26275.9
 30 08 2013  10 20  -20.9778 26043.0 -03492.8 -07.6388 26276.2
 30 08 2013  10 21  -20.9782 26043.2 -03492.9 -07.6388 26276.4
 30 08 2013  10 22  -20.9787 26043.6 -03493.0 -07.6390 26276.8
 30 08 2013  10 23  -20.9791 26044.0 -03493.1 -07.6391 26277.2
 30 08 2013  10 24  -20.9798 26044.3 -03493.1 -07.6391 26277.5
 30 08 2013  10 25  -20.9807 26044.4 -03493.1 -07.6390 26277.6
 30 08 2013  10 26  -20.9813 26044.6 -03493.1 -07.6388 26277.8
 30 08 2013  10 27  -20.9818 26044.7 -03492.8 -07.6383 26277.8
 30 08 2013  10 28  -20.9827 26044.5 -03492.6 -07.6378 26277.7
 30 08 2013  10 29  -20.9834 26044.5 -03492.5 -07.6376 26277.7
 30 08 2013  10 30  -20.9844 26044.5 -03492.5 -07.6376 26277.7
 30 08 2013  10 31  -20.9854 26044.5 -03492.4 -07.6375 26277.6
 30 08 2013  10 32  -20.9859 26044.8 -03492.4 -07.6373 26277.9
 30 08 2013  10 33  -20.9864 26045.0 -03492.3 -07.6370 26278.1
 30 08 2013  10 34  -20.9871 26045.1 -03492.2 -07.6367 26278.2
 30 08 2013  10 35  -20.9883 26045.1 -03492.1 -07.6366 26278.2
 30 08 2013  10 36  -20.9893 26045.4 -03492.1 -07.6366 26278.5
 30 08 2013  10 37  -20.9906 26045.7 -03492.1 -07.6365 26278.7
 30 08 2013  10 38  -20.9915 26046.0 -03492.2 -07.6364 26279.1
 30 08 2013  10 39  -20.9923 26046.5 -03492.2 -07.6363 26279.5
 30 08 2013  10 40  -20.9932 26046.8 -03492.1 -07.6361 26279.9
 30 08 2013  10 41  -20.9942 26046.9 -03491.9 -07.6357 26279.9
 30 08 2013  10 42  -20.9951 26047.1 -03491.8 -07.6355 26280.1
 30 08 2013  10 43  -20.9959 26047.4 -03491.8 -07.6354 26280.4
 30 08 2013  10 44  -20.9970 26047.8 -03491.9 -07.6354 26280.8
 30 08 2013  10 45  -20.9978 26048.2 -03491.8 -07.6351 26281.2
 30 08 2013  10 46  -20.9981 26049.0 -03491.9 -07.6351 26282.0
 30 08 2013  10 47  -20.9993 26049.3 -03492.0 -07.6352 26282.3
 30 08 2013  10 48  -20.9999 26049.9 -03492.3 -07.6355 26282.9
 30 08 2013  10 49  -21.0001 26050.6 -03492.4 -07.6356 26283.7
 30 08 2013  10 50  -20.9985 26052.3 -03492.7 -07.6357 26285.3
 30 08 2013  10 51  -20.9986 26052.2 -03492.4 -07.6351 26285.2
 30 08 2013  10 52  -21.0003 26052.3 -03492.2 -07.6348 26285.3
 30 08 2013  10 53  -21.0021 26052.5 -03491.9 -07.6340 26285.4
 30 08 2013  10 54  -21.0044 26051.5 -03490.8 -07.6320 26284.4
 30 08 2013  10 55  -21.0068 26050.4 -03489.9 -07.6302 26283.1
 30 08 2013  10 56  -21.0086 26049.9 -03489.1 -07.6287 26282.5
 30 08 2013  10 57  -21.0102 26048.7 -03488.2 -07.6272 26281.2
 30 08 2013  10 58  -21.0115 26047.9 -03487.8 -07.6265 26280.3
 30 08 2013  10 59  -21.0132 26047.1 -03487.5 -07.6261 26279.5
 30 08 2013  11 00  -21.0148 26046.8 -03487.4 -07.6258 26279.2
 30 08 2013  11 01  -21.0162 26046.9 -03487.3 -07.6256 26279.3
 30 08 2013  11 02  -21.0170 26047.5 -03487.3 -07.6255 26279.9
 30 08 2013  11 03  -21.0176 26048.5 -03487.4 -07.6256 26280.9
 30 08 2013  11 04  -21.0187 26049.4 -03487.5 -07.6255 26281.8
 30 08 2013  11 05  -21.0206 26050.3 -03487.6 -07.6254 26282.7
 30 08 2013  11 06  -21.0221 26051.3 -03487.7 -07.6253 26283.7
 30 08 2013  11 07  -21.0232 26052.1 -03487.6 -07.6248 26284.5
 30 08 2013  11 08  -21.0241 26053.2 -03487.4 -07.6241 26285.6
 30 08 2013  11 09  -21.0247 26054.3 -03487.2 -07.6233 26286.7
 30 08 2013  11 10  -21.0254 26055.0 -03486.8 -07.6222 26287.3
 30 08 2013  11 11  -21.0261 26055.3 -03486.3 -07.6211 26287.5
 30 08 2013  11 12  -21.0282 26055.1 -03485.6 -07.6198 26287.2
 30 08 2013  11 13  -21.0309 26054.5 -03484.8 -07.6181 26286.5
 30 08 2013  11 14  -21.0322 26054.2 -03484.0 -07.6164 26286.1
 30 08 2013  11 15  -21.0324 26053.6 -03483.1 -07.6146 26285.4
 30 08 2013  11 16  -21.0324 26051.9 -03481.9 -07.6125 26283.6
 30 08 2013  11 17  -21.0328 26050.1 -03480.9 -07.6109 26281.6
 30 08 2013  11 18  -21.0333 26048.7 -03480.4 -07.6102 26280.2
 30 08 2013  11 19  -21.0338 26048.0 -03480.2 -07.6100 26279.5
 30 08 2013  11 20  -21.0344 26048.0 -03480.3 -07.6102 26279.5
 30 08 2013  11 21  -21.0350 26047.8 -03480.3 -07.6104 26279.3
 30 08 2013  11 22  -21.0361 26047.4 -03480.4 -07.6105 26278.9
 30 08 2013  11 23  -21.0361 26047.7 -03480.7 -07.6111 26279.2
 30 08 2013  11 24  -21.0360 26047.4 -03480.8 -07.6114 26279.0
 30 08 2013  11 25  -21.0360 26047.2 -03480.9 -07.6118 26278.8
 30 08 2013  11 26  -21.0366 26047.3 -03481.2 -07.6125 26278.9
 30 08 2013  11 27  -21.0375 26047.5 -03481.4 -07.6129 26279.1
 30 08 2013  11 28  -21.0380 26047.7 -03481.6 -07.6131 26279.4
 30 08 2013  11 29  -21.0385 26047.5 -03481.4 -07.6129 26279.2
 30 08 2013  11 30  -21.0389 26047.3 -03481.3 -07.6127 26278.9
 30 08 2013  11 31  -21.0392 26047.0 -03481.4 -07.6129 26278.7
 30 08 2013  11 32  -21.0400 26046.4 -03481.4 -07.6131 26278.1
 30 08 2013  11 33  -21.0410 26046.9 -03482.0 -07.6142 26278.6
 30 08 2013  11 34  -21.0419 26047.2 -03482.4 -07.6149 26278.9
 30 08 2013  11 35  -21.0424 26047.6 -03482.6 -07.6154 26279.4
 30 08 2013  11 36  -21.0419 26048.3 -03482.9 -07.6158 26280.1
 30 08 2013  11 37  -21.0415 26048.5 -03483.0 -07.6159 26280.3
 30 08 2013  11 38  -21.0414 26048.9 -03483.2 -07.6162 26280.7
 30 08 2013  11 39  -21.0417 26049.6 -03483.5 -07.6166 26281.5
 30 08 2013  11 40  -21.0423 26050.2 -03483.6 -07.6167 26282.1
 30 08 2013  11 41  -21.0430 26050.7 -03483.6 -07.6166 26282.6
 30 08 2013  11 42  -21.0432 26051.1 -03483.5 -07.6162 26283.0
 30 08 2013  11 43  -21.0430 26051.5 -03483.3 -07.6158 26283.4
 30 08 2013  11 44  -21.0427 26051.7 -03483.1 -07.6152 26283.5
 30 08 2013  11 45  -21.0428 26051.6 -03482.8 -07.6147 26283.3
 30 08 2013  11 46  -21.0433 26051.5 -03482.6 -07.6142 26283.3
 30 08 2013  11 47  -21.0438 26051.8 -03482.6 -07.6140 26283.6
 30 08 2013  11 48  -21.0444 26051.6 -03482.3 -07.6135 26283.4
 30 08 2013  11 49  -21.0446 26051.7 -03482.1 -07.6132 26283.4
 30 08 2013  11 50  -21.0449 26051.7 -03482.0 -07.6128 26283.4
 30 08 2013  11 51  -21.0447 26052.5 -03482.1 -07.6128 26284.1
 30 08 2013  11 52  -21.0454 26052.0 -03481.9 -07.6125 26283.7
 30 08 2013  11 53  -21.0460 26052.1 -03482.1 -07.6128 26283.8
 30 08 2013  11 54  -21.0462 26053.5 -03482.7 -07.6139 26285.3
 30 08 2013  11 55  -21.0466 26054.9 -03483.1 -07.6143 26286.7
 30 08 2013  11 56  -21.0465 26056.3 -03483.3 -07.6143 26288.1
 30 08 2013  11 57  -21.0463 26057.1 -03483.1 -07.6136 26288.9
 30 08 2013  11 58  -21.0467 26057.8 -03482.8 -07.6128 26289.5
 30 08 2013  11 59  -21.0474 26057.9 -03482.2 -07.6116 26289.5
 30 08 2013  12 00  -21.0477 26058.0 -03481.7 -07.6104 26289.6
 30 08 2013  12 01  -21.0469 26058.2 -03481.3 -07.6094 26289.7
 30 08 2013  12 02  -21.0465 26058.9 -03481.1 -07.6088 26290.4
 30 08 2013  12 03  -21.0467 26059.1 -03480.8 -07.6081 26290.6
 30 08 2013  12 04  -21.0470 26060.5 -03481.0 -07.6082 26291.9
 30 08 2013  12 05  -21.0487 26061.9 -03481.1 -07.6079 26293.3
 30 08 2013  12 06  -21.0485 26062.4 -03480.6 -07.6067 26293.8
 30 08 2013  12 07  -21.0482 26062.4 -03480.0 -07.6055 26293.7
 30 08 2013  12 08  -21.0479 26063.0 -03479.8 -07.6048 26294.3
 30 08 2013  12 09  -21.0481 26063.5 -03479.7 -07.6045 26294.8
 30 08 2013  12 10  -21.0494 26063.4 -03479.4 -07.6038 26294.6
 30 08 2013  12 11  -21.0501 26062.7 -03478.9 -07.6029 26293.9
 30 08 2013  12 12  -21.0500 26062.2 -03478.4 -07.6022 26293.3
 30 08 2013  12 13  -21.0510 26061.4 -03478.1 -07.6015 26292.5
 30 08 2013  12 14  -21.0522 26060.5 -03477.9 -07.6014 26291.5
 30 08 2013  12 15  -21.0534 26059.9 -03477.9 -07.6016 26290.9
 30 08 2013  12 16  -21.0542 26059.7 -03478.1 -07.6020 26290.8
 30 08 2013  12 17  -21.0556 26059.5 -03478.2 -07.6024 26290.6
 30 08 2013  12 18  -21.0569 26059.6 -03478.4 -07.6029 26290.7
 30 08 2013  12 19  -21.0572 26059.8 -03478.6 -07.6031 26290.9
 30 08 2013  12 20  -21.0577 26060.2 -03478.8 -07.6034 26291.3
 30 08 2013  12 21  -21.0588 26059.4 -03478.5 -07.6031 26290.5
 30 08 2013  12 22  -21.0602 26059.5 -03478.6 -07.6034 26290.6
 30 08 2013  12 23  -21.0617 26059.9 -03478.8 -07.6036 26291.1
 30 08 2013  12 24  -21.0627 26059.6 -03478.6 -07.6032 26290.8
 30 08 2013  12 25  -21.0630 26059.1 -03478.3 -07.6027 26290.2
 30 08 2013  12 26  -21.0637 26058.3 -03478.0 -07.6023 26289.3
 30 08 2013  12 27  -21.0642 26057.7 -03477.9 -07.6023 26288.8
 30 08 2013  12 28  -21.0646 26057.0 -03477.9 -07.6025 26288.1
 30 08 2013  12 29  -21.0649 26056.7 -03478.0 -07.6028 26287.8
 30 08 2013  12 30  -21.0656 26056.8 -03478.2 -07.6033 26287.9
 30 08 2013  12 31  -21.0661 26056.6 -03478.2 -07.6033 26287.7
 30 08 2013  12 32  -21.0665 26056.1 -03478.1 -07.6033 26287.3
 30 08 2013  12 33  -21.0665 26056.0 -03478.1 -07.6033 26287.1
 30 08 2013  12 34  -21.0664 26056.1 -03478.2 -07.6034 26287.2
 30 08 2013  12 35  -21.0658 26056.4 -03478.3 -07.6035 26287.6
 30 08 2013  12 36  -21.0657 26056.1 -03478.2 -07.6034 26287.3
 30 08 2013  12 37  -21.0660 26055.6 -03478.0 -07.6032 26286.7
 30 08 2013  12 38  -21.0666 26055.7 -03478.2 -07.6035 26286.8
 30 08 2013  12 39  -21.0669 26056.2 -03478.4 -07.6039 26287.3
 30 08 2013  12 40  -21.0666 26056.4 -03478.4 -07.6038 26287.5
 30 08 2013  12 41  -21.0667 26056.3 -03478.4 -07.6038 26287.5
 30 08 2013  12 42  -21.0675 26056.4 -03478.5 -07.6039 26287.5
 30 08 2013  12 43  -21.0684 26057.4 -03478.6 -07.6039 26288.6
 30 08 2013  12 44  -21.0671 26058.5 -03478.5 -07.6034 26289.7
 30 08 2013  12 45  -21.0643 26057.9 -03477.9 -07.6022 26289.0
 30 08 2013  12 46  -21.0626 26056.9 -03477.5 -07.6017 26287.9
 30 08 2013  12 47  -21.0609 26056.8 -03477.9 -07.6025 26287.9
 30 08 2013  12 48  -21.0595 26056.2 -03478.1 -07.6031 26287.4
 30 08 2013  12 49  -21.0589 26056.5 -03478.8 -07.6045 26287.7
 30 08 2013  12 50  -21.0591 26057.3 -03479.5 -07.6059 26288.5
 30 08 2013  12 51  -21.0589 26058.3 -03480.2 -07.6071 26289.6
 30 08 2013  12 52  -21.0590 26059.3 -03480.6 -07.6077 26290.7
 30 08 2013  12 53  -21.0592 26059.9 -03480.7 -07.6078 26291.3
 30 08 2013  12 54  -21.0592 26060.0 -03480.6 -07.6074 26291.4
 30 08 2013  12 55  -21.0601 26060.3 -03480.5 -07.6071 26291.7
 30 08 2013  12 56  -21.0603 26059.9 -03480.0 -07.6061 26291.2
 30 08 2013  12 57  -21.0607 26059.7 -03479.7 -07.6056 26291.0
 30 08 2013  12 58  -21.0611 26059.6 -03479.6 -07.6055 26290.9
 30 08 2013  12 59  -21.0611 26059.8 -03479.7 -07.6056 26291.1
 30 08 2013  13 00  -21.0612 26059.9 -03479.9 -07.6060 26291.2
 30 08 2013  13 01  -21.0616 26060.1 -03480.2 -07.6065 26291.4
 30 08 2013  13 02  -21.0617 26060.7 -03480.5 -07.6070 26292.1
 30 08 2013  13 03  -21.0612 26061.2 -03480.6 -07.6072 26292.6
 30 08 2013  13 04  -21.0604 26061.7 -03480.8 -07.6073 26293.1
 30 08 2013  13 05  -21.0591 26061.4 -03480.6 -07.6070 26292.8
 30 08 2013  13 06  -21.0584 26061.0 -03480.6 -07.6072 26292.4
 30 08 2013  13 07  -21.0577 26060.3 -03480.6 -07.6073 26291.7
 30 08 2013  13 08  -21.0583 26059.8 -03480.7 -07.6077 26291.2
 30 08 2013  13 09  -21.0592 26059.3 -03480.9 -07.6084 26290.7
 30 08 2013  13 10  -21.0589 26059.1 -03481.2 -07.6090 26290.6
 30 08 2013  13 11  -21.0585 26061.1 -03482.2 -07.6106 26292.7
 30 08 2013  13 12  -21.0576 26061.0 -03482.1 -07.6105 26292.6
 30 08 2013  13 13  -21.0571 26060.8 -03482.3 -07.6108 26292.4
 30 08 2013  13 14  -21.0572 26060.6 -03482.4 -07.6113 26292.2
 30 08 2013  13 15  -21.0569 26060.0 -03482.7 -07.6119 26291.7
 30 08 2013  13 16  -21.0565 26060.2 -03483.1 -07.6128 26291.9
 30 08 2013  13 17  -21.0570 26059.9 -03483.4 -07.6134 26291.7
 30 08 2013  13 18  -21.0580 26060.3 -03483.9 -07.6144 26292.2
 30 08 2013  13 19  -21.0583 26059.6 -03483.8 -07.6144 26291.4
 30 08 2013  13 20  -21.0584 26059.8 -03484.1 -07.6151 26291.6
 30 08 2013  13 21  -21.0586 26060.3 -03484.6 -07.6161 26292.2
 30 08 2013  13 22  -21.0589 26060.1 -03484.8 -07.6164 26292.1
 30 08 2013  13 23  -21.0594 26059.2 -03484.7 -07.6166 26291.2
 30 08 2013  13 24  -21.0595 26058.5 -03484.8 -07.6169 26290.5
 30 08 2013  13 25  -21.0597 26058.2 -03485.0 -07.6175 26290.2
 30 08 2013  13 26  -21.0600 26058.0 -03485.4 -07.6183 26290.1
 30 08 2013  13 27  -21.0603 26057.9 -03485.7 -07.6190 26290.0
 30 08 2013  13 28  -21.0607 26058.1 -03486.0 -07.6197 26290.2
 30 08 2013  13 29  -21.0613 26058.0 -03486.3 -07.6203 26290.2
 30 08 2013  13 30  -21.0619 26058.1 -03486.6 -07.6209 26290.3
 30 08 2013  13 31  -21.0622 26058.7 -03487.1 -07.6218 26290.9
 30 08 2013  13 32  -21.0623 26059.0 -03487.4 -07.6223 26291.3
 30 08 2013  13 33  -21.0621 26059.0 -03487.5 -07.6227 26291.4
 30 08 2013  13 34  -21.0622 26058.9 -03487.6 -07.6229 26291.2
 30 08 2013  13 35  -21.0632 26059.1 -03487.9 -07.6234 26291.4
 30 08 2013  13 36  -21.0640 26059.7 -03488.3 -07.6241 26292.1
 30 08 2013  13 37  -21.0643 26060.7 -03488.8 -07.6250 26293.2
 30 08 2013  13 38  -21.0643 26061.6 -03489.3 -07.6257 26294.2
 30 08 2013  13 39  -21.0642 26061.9 -03489.4 -07.6259 26294.5
 30 08 2013  13 40  -21.0639 26061.4 -03489.2 -07.6257 26293.9
 30 08 2013  13 41  -21.0635 26060.7 -03489.1 -07.6255 26293.2
 30 08 2013  13 42  -21.0633 26060.4 -03489.2 -07.6259 26292.9
 30 08 2013  13 43  -21.0638 26061.0 -03489.7 -07.6267 26293.6
 30 08 2013  13 44  -21.0635 26060.8 -03489.7 -07.6268 26293.4
 30 08 2013  13 45  -21.0631 26060.5 -03489.6 -07.6268 26293.1
 30 08 2013  13 46  -21.0629 26060.5 -03489.8 -07.6273 26293.1
 30 08 2013  13 47  -21.0627 26060.1 -03489.9 -07.6276 26292.8
 30 08 2013  13 48  -21.0630 26059.9 -03490.1 -07.6281 26292.5
 30 08 2013  13 49  -21.0630 26060.0 -03490.5 -07.6287 26292.7
 30 08 2013  13 50  -21.0633 26060.5 -03490.9 -07.6294 26293.3
 30 08 2013  13 51  -21.0635 26060.5 -03490.9 -07.6296 26293.3
 30 08 2013  13 52  -21.0633 26059.6 -03490.6 -07.6292 26292.4
 30 08 2013  13 53  -21.0627 26059.1 -03490.6 -07.6293 26291.9
 30 08 2013  13 54  -21.0626 26059.1 -03490.9 -07.6300 26291.9
 30 08 2013  13 55  -21.0629 26059.0 -03491.3 -07.6309 26291.9
 30 08 2013  13 56  -21.0632 26058.8 -03491.7 -07.6318 26291.7
 30 08 2013  13 57  -21.0637 26059.1 -03492.3 -07.6331 26292.1
 30 08 2013  13 58  -21.0638 26059.5 -03492.9 -07.6341 26292.6
 30 08 2013  13 59  -21.0645 26060.1 -03493.4 -07.6350 26293.2
 30 08 2013  14 00  -21.0648 26060.3 -03493.5 -07.6353 26293.4
 30 08 2013  14 01  -21.0646 26060.5 -03493.6 -07.6354 26293.7
 30 08 2013  14 02  -21.0641 26060.3 -03493.5 -07.6352 26293.5
 30 08 2013  14 03  -21.0634 26059.5 -03493.3 -07.6349 26292.6
 30 08 2013  14 04  -21.0628 26059.1 -03493.4 -07.6354 26292.2
 30 08 2013  14 05  -21.0628 26058.6 -03493.6 -07.6359 26291.8
 30 08 2013  14 06  -21.0631 26058.3 -03493.9 -07.6367 26291.5
 30 08 2013  14 07  -21.0631 26058.0 -03494.2 -07.6374 26291.2
 30 08 2013  14 08  -21.0633 26058.4 -03494.7 -07.6383 26291.7
 30 08 2013  14 09  -21.0638 26058.9 -03495.1 -07.6392 26292.3
 30 08 2013  14 10  -21.0639 26059.1 -03495.4 -07.6397 26292.5
 30 08 2013  14 11  -21.0639 26059.4 -03495.8 -07.6403 26292.8
 30 08 2013  14 12  -21.0641 26059.8 -03496.1 -07.6410 26293.3
 30 08 2013  14 13  -21.0644 26059.8 -03496.2 -07.6413 26293.2
 30 08 2013  14 14  -21.0648 26059.9 -03496.5 -07.6417 26293.4
 30 08 2013  14 15  -21.0649 26059.7 -03496.5 -07.6419 26293.3
 30 08 2013  14 16  -21.0656 26060.1 -03496.7 -07.6423 26293.7
 30 08 2013  14 17  -21.0663 26060.6 -03496.8 -07.6423 26294.1
 30 08 2013  14 18  -21.0664 26060.1 -03496.6 -07.6419 26293.6
 30 08 2013  14 19  -21.0666 26059.4 -03496.3 -07.6415 26292.9
 30 08 2013  14 20  -21.0666 26058.7 -03496.0 -07.6412 26292.1
 30 08 2013  14 21  -21.0671 26057.9 -03496.0 -07.6413 26291.4
 30 08 2013  14 22  -21.0675 26057.4 -03496.1 -07.6417 26290.9
 30 08 2013  14 23  -21.0683 26057.2 -03496.4 -07.6425 26290.8
 30 08 2013  14 24  -21.0691 26057.0 -03496.7 -07.6430 26290.6
 30 08 2013  14 25  -21.0698 26056.9 -03496.9 -07.6435 26290.5
 30 08 2013  14 26  -21.0705 26056.5 -03497.0 -07.6439 26290.1
 30 08 2013  14 27  -21.0713 26056.3 -03497.3 -07.6445 26290.0
 30 08 2013  14 28  -21.0719 26055.8 -03497.3 -07.6447 26289.5
 30 08 2013  14 29  -21.0721 26055.5 -03497.5 -07.6452 26289.2
 30 08 2013  14 30  -21.0723 26055.5 -03497.7 -07.6457 26289.2
 30 08 2013  14 31  -21.0728 26055.8 -03498.1 -07.6464 26289.6
 30 08 2013  14 32  -21.0737 26056.4 -03498.5 -07.6472 26290.3
 30 08 2013  14 33  -21.0745 26056.8 -03498.7 -07.6475 26290.6
 30 08 2013  14 34  -21.0751 26056.9 -03498.7 -07.6474 26290.7
 30 08 2013  14 35  -21.0753 26057.0 -03498.7 -07.6475 26290.8
 30 08 2013  14 36  -21.0755 26057.1 -03498.8 -07.6475 26291.0
 30 08 2013  14 37  -21.0757 26057.4 -03498.9 -07.6476 26291.2
 30 08 2013  14 38  -21.0758 26057.5 -03498.9 -07.6477 26291.4
 30 08 2013  14 39  -21.0764 26057.8 -03499.0 -07.6477 26291.7
 30 08 2013  14 40  -21.0769 26058.2 -03499.0 -07.6478 26292.1
 30 08 2013  14 41  -21.0776 26059.0 -03499.2 -07.6480 26292.9
 30 08 2013  14 42  -21.0779 26059.6 -03499.3 -07.6480 26293.5
 30 08 2013  14 43  -21.0782 26060.0 -03499.3 -07.6479 26293.9
 30 08 2013  14 44  -21.0785 26060.1 -03499.2 -07.6476 26294.0
 30 08 2013  14 45  -21.0786 26059.5 -03498.8 -07.6470 26293.3
 30 08 2013  14 46  -21.0786 26058.9 -03498.7 -07.6468 26292.7
 30 08 2013  14 47  -21.0784 26058.9 -03498.8 -07.6471 26292.7
 30 08 2013  14 48  -21.0791 26059.5 -03499.3 -07.6479 26293.4
 30 08 2013  14 49  -21.0792 26060.1 -03499.6 -07.6484 26294.0
 30 08 2013  14 50  -21.0795 26060.3 -03499.7 -07.6486 26294.3
 30 08 2013  14 51  -21.0795 26060.3 -03499.7 -07.6487 26294.2
 30 08 2013  14 52  -21.0797 26060.3 -03499.8 -07.6489 26294.3
 30 08 2013  14 53  -21.0798 26060.1 -03499.9 -07.6491 26294.1
 30 08 2013  14 54  -21.0798 26060.1 -03500.1 -07.6495 26294.1
 30 08 2013  14 55  -21.0797 26060.6 -03500.5 -07.6502 26294.7
 30 08 2013  14 56  -21.0801 26061.3 -03500.9 -07.6510 26295.4
 30 08 2013  14 57  -21.0798 26061.7 -03501.2 -07.6514 26295.9
 30 08 2013  14 58  -21.0801 26062.3 -03501.5 -07.6519 26296.4
 30 08 2013  14 59  -21.0801 26062.8 -03501.7 -07.6522 26297.0
 30 08 2013  15 00  -21.0804 26063.2 -03501.8 -07.6522 26297.4
 30 08 2013  15 01  -21.0807 26063.3 -03501.6 -07.6519 26297.5
 30 08 2013  15 02  -21.0812 26063.9 -03501.7 -07.6520 26298.1
 30 08 2013  15 03  -21.0820 26064.5 -03501.9 -07.6521 26298.7
 30 08 2013  15 04  -21.0830 26064.9 -03501.8 -07.6518 26299.1
 30 08 2013  15 05  -21.0839 26065.2 -03501.7 -07.6515 26299.4
 30 08 2013  15 06  -21.0846 26065.3 -03501.5 -07.6509 26299.4
 30 08 2013  15 07  -21.0852 26065.5 -03501.1 -07.6500 26299.6
 30 08 2013  15 08  -21.0848 26065.7 -03500.7 -07.6492 26299.8
 30 08 2013  15 09  -21.0843 26066.0 -03500.4 -07.6485 26300.0
 30 08 2013  15 10  -21.0831 26066.3 -03500.1 -07.6478 26300.2
 30 08 2013  15 11  -21.0820 26067.0 -03500.0 -07.6474 26300.9
 30 08 2013  15 12  -21.0817 26067.8 -03500.0 -07.6471 26301.7
 30 08 2013  15 13  -21.0818 26067.5 -03499.5 -07.6461 26301.4
 30 08 2013  15 14  -21.0816 26067.2 -03499.1 -07.6453 26301.0
 30 08 2013  15 15  -21.0810 26067.6 -03499.1 -07.6453 26301.5
 30 08 2013  15 16  -21.0809 26068.2 -03499.3 -07.6454 26302.0
 30 08 2013  15 17  -21.0809 26068.5 -03499.2 -07.6451 26302.3
 30 08 2013  15 18  -21.0811 26068.1 -03498.7 -07.6442 26301.8
 30 08 2013  15 19  -21.0807 26067.2 -03498.2 -07.6434 26300.8
 30 08 2013  15 20  -21.0805 26066.9 -03498.2 -07.6435 26300.6
 30 08 2013  15 21  -21.0816 26067.4 -03498.6 -07.6442 26301.1
 30 08 2013  15 22  -21.0822 26067.6 -03498.7 -07.6444 26301.3
 30 08 2013  15 23  -21.0828 26068.2 -03499.0 -07.6449 26302.0
 30 08 2013  15 24  -21.0835 26068.5 -03499.0 -07.6447 26302.3
 30 08 2013  15 25  -21.0835 26068.4 -03498.7 -07.6442 26302.1
 30 08 2013  15 26  -21.0831 26068.1 -03498.4 -07.6436 26301.8
 30 08 2013  15 27  -21.0829 26067.7 -03498.2 -07.6433 26301.4
 30 08 2013  15 28  -21.0832 26067.5 -03498.2 -07.6432 26301.2
 30 08 2013  15 29  -21.0833 26067.8 -03498.3 -07.6433 26301.5
 30 08 2013  15 30  -21.0835 26068.1 -03498.4 -07.6436 26301.8
 30 08 2013  15 31  -21.0834 26068.9 -03498.7 -07.6440 26302.6
 30 08 2013  15 32  -21.0837 26068.7 -03498.6 -07.6437 26302.4
 30 08 2013  15 33  -21.0839 26068.4 -03498.3 -07.6433 26302.0
 30 08 2013  15 34  -21.0841 26068.0 -03498.1 -07.6430 26301.6
 30 08 2013  15 35  -21.0841 26067.9 -03498.2 -07.6432 26301.6
 30 08 2013  15 36  -21.0840 26067.6 -03498.2 -07.6433 26301.3
 30 08 2013  15 37  -21.0844 26067.3 -03498.3 -07.6435 26300.9
 30 08 2013  15 38  -21.0846 26067.2 -03498.4 -07.6438 26300.9
 30 08 2013  15 39  -21.0848 26067.3 -03498.5 -07.6440 26301.0
 30 08 2013  15 40  -21.0846 26066.8 -03498.4 -07.6439 26300.6
 30 08 2013  15 41  -21.0847 26066.4 -03498.4 -07.6439 26300.1
 30 08 2013  15 42  -21.0846 26066.4 -03498.5 -07.6443 26300.1
 30 08 2013  15 43  -21.0852 26066.1 -03498.6 -07.6444 26299.9
 30 08 2013  15 44  -21.0857 26065.8 -03498.5 -07.6445 26299.5
 30 08 2013  15 45  -21.0862 26065.8 -03498.7 -07.6449 26299.6
 30 08 2013  15 46  -21.0865 26065.2 -03498.4 -07.6444 26298.9
 30 08 2013  15 47  -21.0867 26064.8 -03498.3 -07.6443 26298.6
 30 08 2013  15 48  -21.0875 26065.1 -03498.5 -07.6446 26298.9
 30 08 2013  15 49  -21.0879 26065.1 -03498.3 -07.6443 26298.8
 30 08 2013  15 50  -21.0878 26065.1 -03498.1 -07.6438 26298.8
 30 08 2013  15 51  -21.0877 26065.5 -03498.2 -07.6438 26299.2
 30 08 2013  15 52  -21.0877 26065.5 -03497.9 -07.6433 26299.1
 30 08 2013  15 53  -21.0881 26065.0 -03497.6 -07.6427 26298.7
 30 08 2013  15 54  -21.0883 26064.8 -03497.4 -07.6423 26298.4
 30 08 2013  15 55  -21.0880 26064.6 -03497.2 -07.6421 26298.1
 30 08 2013  15 56  -21.0875 26064.4 -03497.1 -07.6418 26298.0
 30 08 2013  15 57  -21.0873 26063.6 -03496.7 -07.6413 26297.1
 30 08 2013  15 58  -21.0869 26063.0 -03496.6 -07.6411 26296.5
 30 08 2013  15 59  -21.0872 26062.6 -03496.6 -07.6412 26296.1
 30 08 2013  16 00  -21.0874 26062.4 -03496.7 -07.6415 26295.9
 30 08 2013  16 01  -21.0876 26062.4 -03496.9 -07.6419 26296.0
 30 08 2013  16 02  -21.0876 26062.5 -03497.1 -07.6423 26296.1
 30 08 2013  16 03  -21.0880 26062.8 -03497.3 -07.6426 26296.4
 30 08 2013  16 04  -21.0884 26062.8 -03497.3 -07.6427 26296.4
 30 08 2013  16 05  -21.0884 26062.6 -03497.2 -07.6425 26296.2
 30 08 2013  16 06  -21.0881 26062.6 -03497.2 -07.6426 26296.2
 30 08 2013  16 07  -21.0878 26063.0 -03497.4 -07.6429 26296.6
 30 08 2013  16 08  -21.0874 26063.3 -03497.5 -07.6429 26296.9
 30 08 2013  16 09  -21.0871 26063.2 -03497.2 -07.6424 26296.8
 30 08 2013  16 10  -21.0867 26062.6 -03496.9 -07.6418 26296.2
 30 08 2013  16 11  -21.0862 26062.5 -03496.7 -07.6415 26296.0
 30 08 2013  16 12  -21.0860 26062.7 -03496.7 -07.6414 26296.2
 30 08 2013  16 13  -21.0859 26062.8 -03496.7 -07.6414 26296.4
 30 08 2013  16 14  -21.0860 26063.6 -03496.9 -07.6417 26297.1
 30 08 2013  16 15  -21.0864 26064.4 -03497.1 -07.6419 26298.0
 30 08 2013  16 16  -21.0866 26064.7 -03497.0 -07.6414 26298.2
 30 08 2013  16 17  -21.0864 26064.7 -03496.7 -07.6408 26298.2
 30 08 2013  16 18  -21.0861 26065.0 -03496.5 -07.6402 26298.5
 30 08 2013  16 19  -21.0855 26065.1 -03496.2 -07.6396 26298.6
 30 08 2013  16 20  -21.0852 26065.0 -03495.8 -07.6388 26298.3
 30 08 2013  16 21  -21.0851 26064.6 -03495.3 -07.6379 26297.9
 30 08 2013  16 22  -21.0851 26064.5 -03495.0 -07.6372 26297.8
 30 08 2013  16 23  -21.0848 26064.9 -03494.9 -07.6369 26298.2
 30 08 2013  16 24  -21.0842 26065.1 -03494.7 -07.6365 26298.3
 30 08 2013  16 25  -21.0840 26065.3 -03494.6 -07.6362 26298.5
 30 08 2013  16 26  -21.0842 26064.9 -03494.2 -07.6354 26298.0
 30 08 2013  16 27  -21.0841 26064.7 -03493.9 -07.6348 26297.8
 30 08 2013  16 28  -21.0842 26064.6 -03493.7 -07.6344 26297.7
 30 08 2013  16 29  -21.0837 26064.4 -03493.6 -07.6342 26297.5
 30 08 2013  16 30  -21.0829 26065.1 -03493.9 -07.6348 26298.2
 30 08 2013  16 31  -21.0827 26065.9 -03494.2 -07.6351 26299.1
 30 08 2013  16 32  -21.0822 26066.5 -03494.1 -07.6348 26299.7
 30 08 2013  16 33  -21.0819 26067.4 -03494.2 -07.6347 26300.6
 30 08 2013  16 34  -21.0826 26067.0 -03493.6 -07.6334 26300.0
 30 08 2013  16 35  -21.0814 26064.4 -03492.0 -07.6307 26297.3
 30 08 2013  16 36  -21.0808 26062.6 -03491.2 -07.6295 26295.4
 30 08 2013  16 37  -21.0802 26061.4 -03490.9 -07.6292 26294.2
 30 08 2013  16 38  -21.0796 26061.7 -03491.1 -07.6296 26294.5
 30 08 2013  16 39  -21.0806 26062.1 -03491.1 -07.6295 26294.9
 30 08 2013  16 40  -21.0804 26061.7 -03490.5 -07.6283 26294.4
 30 08 2013  16 41  -21.0797 26061.9 -03490.4 -07.6280 26294.6
 30 08 2013  16 42  -21.0795 26061.9 -03490.2 -07.6276 26294.6
 30 08 2013  16 43  -21.0800 26062.4 -03490.2 -07.6274 26295.1
 30 08 2013  16 44  -21.0801 26062.6 -03489.9 -07.6268 26295.2
 30 08 2013  16 45  -21.0794 26062.6 -03489.5 -07.6259 26295.1
 30 08 2013  16 46  -21.0791 26062.7 -03489.3 -07.6255 26295.2
 30 08 2013  16 47  -21.0783 26062.3 -03488.9 -07.6246 26294.8
 30 08 2013  16 48  -21.0775 26062.0 -03488.6 -07.6241 26294.5
 30 08 2013  16 49  -21.0762 26061.5 -03488.3 -07.6236 26294.0
 30 08 2013  16 50  -21.0757 26061.3 -03488.2 -07.6234 26293.7
 30 08 2013  16 51  -21.0749 26060.9 -03487.9 -07.6229 26293.2
 30 08 2013  16 52  -21.0744 26060.2 -03487.6 -07.6224 26292.5
 30 08 2013  16 53  -21.0736 26060.2 -03487.6 -07.6225 26292.5
 30 08 2013  16 54  -21.0737 26060.5 -03487.8 -07.6228 26292.9
 30 08 2013  16 55  -21.0728 26060.2 -03487.4 -07.6221 26292.5
 30 08 2013  16 56  -21.0716 26059.9 -03487.2 -07.6217 26292.2
 30 08 2013  16 57  -21.0708 26060.2 -03487.3 -07.6219 26292.5
 30 08 2013  16 58  -21.0700 26060.4 -03487.4 -07.6220 26292.7
 30 08 2013  16 59  -21.0691 26060.3 -03487.3 -07.6218 26292.6
 30 08 2013  17 00  -21.0684 26060.1 -03487.2 -07.6217 26292.4
 30 08 2013  17 01  -21.0683 26060.3 -03487.2 -07.6217 26292.6
 30 08 2013  17 02  -21.0683 26060.6 -03487.2 -07.6216 26292.9
 30 08 2013  17 03  -21.0680 26060.6 -03487.0 -07.6212 26292.9
 30 08 2013  17 04  -21.0676 26060.3 -03486.8 -07.6207 26292.5
 30 08 2013  17 05  -21.0669 26059.7 -03486.5 -07.6203 26291.9
 30 08 2013  17 06  -21.0660 26059.0 -03486.3 -07.6201 26291.2
 30 08 2013  17 07  -21.0655 26058.8 -03486.4 -07.6203 26291.0
 30 08 2013  17 08  -21.0653 26057.9 -03486.2 -07.6201 26290.0
 30 08 2013  17 09  -21.0651 26056.6 -03485.9 -07.6198 26288.8
 30 08 2013  17 10  -21.0647 26056.6 -03486.0 -07.6201 26288.8
 30 08 2013  17 11  -21.0646 26056.6 -03486.1 -07.6204 26288.7
 30 08 2013  17 12  -21.0637 26056.0 -03485.9 -07.6202 26288.1
 30 08 2013  17 13  -21.0630 26055.8 -03485.9 -07.6202 26287.9
 30 08 2013  17 14  -21.0627 26055.5 -03485.9 -07.6202 26287.6
 30 08 2013  17 15  -21.0615 26055.0 -03485.8 -07.6201 26287.1
 30 08 2013  17 16  -21.0603 26054.4 -03485.6 -07.6198 26286.5
 30 08 2013  17 17  -21.0594 26054.0 -03485.5 -07.6197 26286.1
 30 08 2013  17 18  -21.0585 26054.0 -03485.6 -07.6199 26286.1
 30 08 2013  17 19  -21.0567 26053.4 -03485.4 -07.6197 26285.5
 30 08 2013  17 20  -21.0558 26053.2 -03485.4 -07.6198 26285.3
 30 08 2013  17 21  -21.0554 26052.8 -03485.3 -07.6198 26284.9
 30 08 2013  17 22  -21.0545 26052.7 -03485.3 -07.6196 26284.8
 30 08 2013  17 23  -21.0539 26052.5 -03485.2 -07.6194 26284.6
 30 08 2013  17 24  -21.0533 26052.4 -03485.0 -07.6192 26284.4
 30 08 2013  17 25  -21.0529 26052.6 -03485.1 -07.6193 26284.7
 30 08 2013  17 26  -21.0526 26053.0 -03485.1 -07.6193 26285.1
 30 08 2013  17 27  -21.0526 26053.5 -03485.1 -07.6191 26285.6
 30 08 2013  17 28  -21.0522 26053.8 -03484.9 -07.6186 26285.8
 30 08 2013  17 29  -21.0515 26053.7 -03484.7 -07.6181 26285.7
 30 08 2013  17 30  -21.0509 26053.6 -03484.5 -07.6177 26285.6
 30 08 2013  17 31  -21.0507 26053.7 -03484.4 -07.6175 26285.6
 30 08 2013  17 32  -21.0499 26053.4 -03484.1 -07.6169 26285.3
 30 08 2013  17 33  -21.0493 26053.2 -03483.9 -07.6164 26285.1
 30 08 2013  17 34  -21.0487 26053.2 -03483.7 -07.6162 26285.1
 30 08 2013  17 35  -21.0473 26053.0 -03483.6 -07.6160 26284.8
 30 08 2013  17 36  -21.0466 26052.7 -03483.5 -07.6159 26284.6
 30 08 2013  17 37  -21.0457 26052.4 -03483.4 -07.6158 26284.2
 30 08 2013  17 38  -21.0453 26052.3 -03483.4 -07.6158 26284.1
 30 08 2013  17 39  -21.0450 26052.2 -03483.4 -07.6158 26284.1
 30 08 2013  17 40  -21.0447 26052.3 -03483.5 -07.6158 26284.2
 30 08 2013  17 41  -21.0438 26052.2 -03483.4 -07.6158 26284.1
 30 08 2013  17 42  -21.0433 26052.1 -03483.4 -07.6157 26284.0
 30 08 2013  17 43  -21.0437 26052.1 -03483.4 -07.6158 26284.0
 30 08 2013  17 44  -21.0435 26052.1 -03483.2 -07.6154 26283.9
 30 08 2013  17 45  -21.0439 26052.4 -03483.3 -07.6155 26284.3
 30 08 2013  17 46  -21.0442 26052.7 -03483.3 -07.6155 26284.5
 30 08 2013  17 47  -21.0439 26052.2 -03483.0 -07.6149 26284.0
 30 08 2013  17 48  -21.0434 26051.4 -03482.6 -07.6143 26283.2
 30 08 2013  17 49  -21.0429 26051.1 -03482.5 -07.6141 26282.8
 30 08 2013  17 50  -21.0429 26051.2 -03482.6 -07.6144 26282.9
 30 08 2013  17 51  -21.0427 26051.1 -03482.7 -07.6145 26282.9
 30 08 2013  17 52  -21.0424 26051.1 -03482.7 -07.6146 26282.9
 30 08 2013  17 53  -21.0431 26051.3 -03482.8 -07.6146 26283.1
 30 08 2013  17 54  -21.0433 26051.3 -03482.6 -07.6142 26283.1
 30 08 2013  17 55  -21.0427 26051.1 -03482.3 -07.6138 26282.8
 30 08 2013  17 56  -21.0424 26050.5 -03482.0 -07.6132 26282.2
 30 08 2013  17 57  -21.0419 26050.0 -03481.8 -07.6129 26281.6
 30 08 2013  17 58  -21.0416 26049.8 -03481.8 -07.6130 26281.4
 30 08 2013  17 59  -21.0415 26049.6 -03481.8 -07.6131 26281.3
 30 08 2013  18 00  -21.0411 26049.3 -03481.7 -07.6129 26280.9
 30 08 2013  18 01  -21.0406 26049.2 -03481.7 -07.6129 26280.9
 30 08 2013  18 02  -21.0405 26048.9 -03481.6 -07.6128 26280.6
 30 08 2013  18 03  -21.0400 26048.5 -03481.4 -07.6125 26280.1
 30 08 2013  18 04  -21.0397 26048.1 -03481.3 -07.6125 26279.8
 30 08 2013  18 05  -21.0397 26047.9 -03481.3 -07.6124 26279.5
 30 08 2013  18 06  -21.0396 26047.9 -03481.3 -07.6125 26279.5
 30 08 2013  18 07  -21.0399 26048.2 -03481.5 -07.6128 26279.8
 30 08 2013  18 08  -21.0398 26048.3 -03481.5 -07.6128 26280.0
 30 08 2013  18 09  -21.0402 26048.6 -03481.5 -07.6128 26280.2
 30 08 2013  18 10  -21.0395 26048.2 -03481.2 -07.6122 26279.8
 30 08 2013  18 11  -21.0387 26047.5 -03480.9 -07.6116 26279.1
 30 08 2013  18 12  -21.0387 26047.6 -03481.0 -07.6118 26279.2
 30 08 2013  18 13  -21.0387 26047.4 -03480.9 -07.6116 26279.0
 30 08 2013  18 14  -21.0383 26047.2 -03480.7 -07.6113 26278.8
 30 08 2013  18 15  -21.0381 26047.1 -03480.6 -07.6111 26278.6
 30 08 2013  18 16  -21.0376 26046.9 -03480.5 -07.6109 26278.4
 30 08 2013  18 17  -21.0373 26046.5 -03480.3 -07.6106 26278.0
 30 08 2013  18 18  -21.0368 26046.2 -03480.1 -07.6104 26277.7
 30 08 2013  18 19  -21.0364 26045.5 -03479.9 -07.6101 26277.0
 30 08 2013  18 20  -21.0359 26044.5 -03479.5 -07.6095 26275.9
 30 08 2013  18 21  -21.0356 26044.1 -03479.4 -07.6094 26275.5
 30 08 2013  18 22  -21.0350 26043.8 -03479.4 -07.6095 26275.1
 30 08 2013  18 23  -21.0344 26043.3 -03479.3 -07.6096 26274.7
 30 08 2013  18 24  -21.0342 26043.1 -03479.4 -07.6097 26274.5
 30 08 2013  18 25  -21.0338 26043.1 -03479.5 -07.6099 26274.5
 30 08 2013  18 26  -21.0341 26042.7 -03479.4 -07.6099 26274.1
 30 08 2013  18 27  -21.0336 26042.2 -03479.2 -07.6095 26273.6
 30 08 2013  18 28  -21.0328 26041.7 -03479.1 -07.6094 26273.0
 30 08 2013  18 29  -21.0319 26040.9 -03478.9 -07.6093 26272.3
 30 08 2013  18 30  -21.0310 26040.3 -03478.9 -07.6095 26271.6
 30 08 2013  18 31  -21.0308 26040.0 -03479.1 -07.6100 26271.4
 30 08 2013  18 32  -21.0306 26040.0 -03479.3 -07.6104 26271.4
 30 08 2013  18 33  -21.0309 26039.9 -03479.5 -07.6108 26271.4
 30 08 2013  18 34  -21.0310 26039.8 -03479.5 -07.6110 26271.2
 30 08 2013  18 35  -21.0312 26039.4 -03479.4 -07.6109 26270.8
 30 08 2013  18 36  -21.0311 26039.0 -03479.3 -07.6107 26270.4
 30 08 2013  18 37  -21.0310 26038.5 -03479.2 -07.6106 26269.9
 30 08 2013  18 38  -21.0303 26038.3 -03479.1 -07.6105 26269.7
 30 08 2013  18 39  -21.0312 26038.5 -03479.3 -07.6109 26269.9
 30 08 2013  18 40  -21.0313 26038.6 -03479.3 -07.6108 26270.1
 30 08 2013  18 41  -21.0309 26038.5 -03479.2 -07.6106 26269.9
 30 08 2013  18 42  -21.0306 26038.3 -03479.1 -07.6105 26269.7
 30 08 2013  18 43  -21.0303 26038.3 -03479.1 -07.6106 26269.7
 30 08 2013  18 44  -21.0299 26038.1 -03479.1 -07.6105 26269.5
 30 08 2013  18 45  -21.0301 26038.1 -03479.1 -07.6106 26269.5
 30 08 2013  18 46  -21.0300 26038.2 -03479.1 -07.6106 26269.6
 30 08 2013  18 47  -21.0298 26038.2 -03479.1 -07.6106 26269.6
 30 08 2013  18 48  -21.0289 26038.2 -03479.1 -07.6105 26269.6
 30 08 2013  18 49  -21.0283 26038.3 -03479.2 -07.6107 26269.7
 30 08 2013  18 50  -21.0283 26038.3 -03479.3 -07.6109 26269.8
 30 08 2013  18 51  -21.0278 26038.1 -03479.2 -07.6108 26269.5
 30 08 2013  18 52  -21.0273 26037.6 -03479.1 -07.6107 26269.0
 30 08 2013  18 53  -21.0272 26036.9 -03478.9 -07.6105 26268.3
 30 08 2013  18 54  -21.0266 26036.3 -03478.8 -07.6105 26267.6
 30 08 2013  18 55  -21.0260 26035.4 -03478.7 -07.6105 26266.8
 30 08 2013  18 56  -21.0256 26034.8 -03478.7 -07.6106 26266.2
 30 08 2013  18 57  -21.0250 26034.1 -03478.6 -07.6106 26265.5
 30 08 2013  18 58  -21.0246 26033.3 -03478.5 -07.6107 26264.7
 30 08 2013  18 59  -21.0245 26033.0 -03478.7 -07.6111 26264.4
 30 08 2013  19 00  -21.0243 26032.8 -03478.8 -07.6114 26264.2
 30 08 2013  19 01  -21.0246 26032.4 -03478.9 -07.6117 26263.9
 30 08 2013  19 02  -21.0246 26032.0 -03478.8 -07.6117 26263.4
 30 08 2013  19 03  -21.0244 26031.6 -03478.8 -07.6117 26263.0
 30 08 2013  19 04  -21.0242 26031.3 -03478.8 -07.6118 26262.7
 30 08 2013  19 05  -21.0242 26031.0 -03478.8 -07.6119 26262.4
 30 08 2013  19 06  -21.0244 26030.7 -03478.7 -07.6119 26262.1
 30 08 2013  19 07  -21.0243 26030.6 -03478.8 -07.6120 26262.0
 30 08 2013  19 08  -21.0243 26030.2 -03478.7 -07.6119 26261.7
 30 08 2013  19 09  -21.0242 26030.2 -03478.7 -07.6119 26261.6
 30 08 2013  19 10  -21.0244 26030.2 -03478.7 -07.6120 26261.6
 30 08 2013  19 11  -21.0246 26030.2 -03478.7 -07.6119 26261.6
 30 08 2013  19 12  -21.0250 26030.2 -03478.6 -07.6118 26261.6
 30 08 2013  19 13  -21.0250 26029.9 -03478.4 -07.6114 26261.3
 30 08 2013  19 14  -21.0251 26029.8 -03478.2 -07.6110 26261.1
 30 08 2013  19 15  -21.0253 26029.8 -03478.2 -07.6109 26261.2
 30 08 2013  19 16  -21.0254 26029.9 -03478.1 -07.6108 26261.2
 30 08 2013  19 17  -21.0252 26029.9 -03478.0 -07.6105 26261.3
 30 08 2013  19 18  -21.0254 26029.9 -03477.9 -07.6102 26261.2
 30 08 2013  19 19  -21.0254 26029.9 -03477.7 -07.6099 26261.2
 30 08 2013  19 20  -21.0255 26030.2 -03477.7 -07.6097 26261.5
 30 08 2013  19 21  -21.0253 26030.8 -03477.7 -07.6097 26262.0
 30 08 2013  19 22  -21.0255 26031.1 -03477.7 -07.6095 26262.4
 30 08 2013  19 23  -21.0256 26031.4 -03477.6 -07.6092 26262.7
 30 08 2013  19 24  -21.0256 26031.5 -03477.4 -07.6087 26262.7
 30 08 2013  19 25  -21.0257 26031.5 -03477.1 -07.6082 26262.7
 30 08 2013  19 26  -21.0260 26031.5 -03476.9 -07.6077 26262.7
 30 08 2013  19 27  -21.0260 26031.3 -03476.6 -07.6071 26262.4
 30 08 2013  19 28  -21.0261 26031.1 -03476.4 -07.6067 26262.2
 30 08 2013  19 29  -21.0263 26031.0 -03476.2 -07.6063 26262.0
 30 08 2013  19 30  -21.0264 26030.6 -03475.9 -07.6058 26261.6
 30 08 2013  19 31  -21.0268 26030.2 -03475.7 -07.6054 26261.2
 30 08 2013  19 32  -21.0274 26029.7 -03475.4 -07.6049 26260.7
 30 08 2013  19 33  -21.0277 26029.1 -03475.0 -07.6043 26260.1
 30 08 2013  19 34  -21.0276 26028.4 -03474.7 -07.6038 26259.3
 30 08 2013  19 35  -21.0280 26027.4 -03474.3 -07.6033 26258.2
 30 08 2013  19 36  -21.0284 26026.6 -03474.0 -07.6028 26257.4
 30 08 2013  19 37  -21.0290 26026.0 -03473.8 -07.6026 26256.8
 30 08 2013  19 38  -21.0298 26025.5 -03473.8 -07.6027 26256.3
 30 08 2013  19 39  -21.0303 26025.0 -03473.6 -07.6024 26255.8
 30 08 2013  19 40  -21.0307 26024.4 -03473.4 -07.6020 26255.2
 30 08 2013  19 41  -21.0307 26024.0 -03473.2 -07.6019 26254.8
 30 08 2013  19 42  -21.0305 26023.6 -03473.1 -07.6017 26254.3
 30 08 2013  19 43  -21.0305 26023.4 -03473.0 -07.6015 26254.1
 30 08 2013  19 44  -21.0301 26023.1 -03472.9 -07.6014 26253.8
 30 08 2013  19 45  -21.0296 26022.8 -03472.8 -07.6014 26253.5
 30 08 2013  19 46  -21.0292 26022.6 -03472.8 -07.6014 26253.3
 30 08 2013  19 47  -21.0286 26022.3 -03472.7 -07.6013 26253.0
 30 08 2013  19 48  -21.0279 26022.0 -03472.7 -07.6014 26252.7
 30 08 2013  19 49  -21.0274 26021.8 -03472.8 -07.6016 26252.5
 30 08 2013  19 50  -21.0271 26021.5 -03472.7 -07.6016 26252.2
 30 08 2013  19 51  -21.0265 26021.3 -03472.8 -07.6017 26252.1
 30 08 2013  19 52  -21.0258 26021.3 -03473.0 -07.6022 26252.0
 30 08 2013  19 53  -21.0253 26021.0 -03473.1 -07.6024 26251.8
 30 08 2013  19 54  -21.0247 26021.0 -03473.2 -07.6026 26251.7
 30 08 2013  19 55  -21.0243 26021.1 -03473.4 -07.6031 26251.9
 30 08 2013  19 56  -21.0240 26021.1 -03473.6 -07.6035 26252.0
 30 08 2013  19 57  -21.0238 26021.0 -03473.7 -07.6038 26251.9
 30 08 2013  19 58  -21.0233 26020.9 -03473.8 -07.6040 26251.7
 30 08 2013  19 59  -21.0231 26020.7 -03473.8 -07.6042 26251.5
 30 08 2013  20 00  -21.0225 26020.5 -03473.9 -07.6044 26251.3
 30 08 2013  20 01  -21.0222 26020.4 -03474.1 -07.6049 26251.3
 30 08 2013  20 02  -21.0218 26020.4 -03474.2 -07.6051 26251.3
 30 08 2013  20 03  -21.0216 26020.5 -03474.4 -07.6054 26251.4
 30 08 2013  20 04  -21.0212 26020.4 -03474.4 -07.6056 26251.3
 30 08 2013  20 05  -21.0209 26020.5 -03474.5 -07.6058 26251.4
 30 08 2013  20 06  -21.0207 26020.6 -03474.6 -07.6059 26251.6
 30 08 2013  20 07  -21.0205 26020.4 -03474.5 -07.6057 26251.3
 30 08 2013  20 08  -21.0202 26020.2 -03474.4 -07.6054 26251.1
 30 08 2013  20 09  -21.0196 26019.9 -03474.2 -07.6053 26250.9
 30 08 2013  20 10  -21.0193 26019.9 -03474.2 -07.6052 26250.8
 30 08 2013  20 11  -21.0186 26019.7 -03474.1 -07.6049 26250.6
 30 08 2013  20 12  -21.0179 26019.8 -03474.1 -07.6051 26250.7
 30 08 2013  20 13  -21.0171 26019.9 -03474.2 -07.6051 26250.8
 30 08 2013  20 14  -21.0166 26020.0 -03474.1 -07.6050 26250.9
 30 08 2013  20 15  -21.0160 26020.3 -03474.2 -07.6051 26251.2
 30 08 2013  20 16  -21.0152 26020.4 -03474.3 -07.6053 26251.3
 30 08 2013  20 17  -21.0144 26020.4 -03474.3 -07.6054 26251.3
 30 08 2013  20 18  -21.0137 26020.5 -03474.4 -07.6055 26251.4
 30 08 2013  20 19  -21.0132 26020.6 -03474.6 -07.6058 26251.6
 30 08 2013  20 20  -21.0129 26020.6 -03474.7 -07.6060 26251.6
 30 08 2013  20 21  -21.0129 26020.3 -03474.6 -07.6060 26251.2
 30 08 2013  20 22  -21.0130 26020.1 -03474.7 -07.6062 26251.1
 30 08 2013  20 23  -21.0130 26019.9 -03474.7 -07.6064 26250.9
 30 08 2013  20 24  -21.0131 26019.4 -03474.6 -07.6062 26250.3
 30 08 2013  20 25  -21.0130 26019.0 -03474.5 -07.6061 26250.0
 30 08 2013  20 26  -21.0127 26019.1 -03474.7 -07.6064 26250.1
 30 08 2013  20 27  -21.0125 26019.2 -03474.8 -07.6066 26250.2
 30 08 2013  20 28  -21.0125 26019.5 -03474.9 -07.6068 26250.5
 30 08 2013  20 29  -21.0127 26019.7 -03474.9 -07.6069 26250.7
 30 08 2013  20 30  -21.0129 26020.0 -03475.1 -07.6071 26251.0
 30 08 2013  20 31  -21.0131 26020.4 -03475.3 -07.6073 26251.5
 30 08 2013  20 32  -21.0133 26020.9 -03475.5 -07.6076 26252.0
 30 08 2013  20 33  -21.0133 26021.1 -03475.5 -07.6077 26252.2
 30 08 2013  20 34  -21.0134 26020.9 -03475.5 -07.6076 26252.0
 30 08 2013  20 35  -21.0132 26020.9 -03475.4 -07.6075 26252.0
 30 08 2013  20 36  -21.0130 26020.8 -03475.5 -07.6077 26251.9
 30 08 2013  20 37  -21.0129 26020.7 -03475.6 -07.6079 26251.8
 30 08 2013  20 38  -21.0129 26020.5 -03475.6 -07.6080 26251.6
 30 08 2013  20 39  -21.0128 26020.2 -03475.6 -07.6081 26251.3
 30 08 2013  20 40  -21.0128 26020.0 -03475.6 -07.6083 26251.1
 30 08 2013  20 41  -21.0128 26019.8 -03475.7 -07.6085 26250.9
 30 08 2013  20 42  -21.0128 26019.6 -03475.8 -07.6087 26250.7
 30 08 2013  20 43  -21.0130 26019.5 -03475.9 -07.6090 26250.7
 30 08 2013  20 44  -21.0131 26019.5 -03476.1 -07.6093 26250.6
 30 08 2013  20 45  -21.0134 26019.4 -03476.2 -07.6097 26250.6
 30 08 2013  20 46  -21.0137 26019.2 -03476.3 -07.6099 26250.4
 30 08 2013  20 47  -21.0138 26019.1 -03476.4 -07.6101 26250.3
 30 08 2013  20 48  -21.0139 26019.1 -03476.6 -07.6105 26250.4
 30 08 2013  20 49  -21.0141 26019.3 -03476.8 -07.6110 26250.6
 30 08 2013  20 50  -21.0142 26019.4 -03476.9 -07.6113 26250.6
 30 08 2013  20 51  -21.0143 26019.4 -03477.0 -07.6114 26250.7
 30 08 2013  20 52  -21.0146 26019.3 -03477.2 -07.6119 26250.6
 30 08 2013  20 53  -21.0152 26019.3 -03477.3 -07.6122 26250.7
 30 08 2013  20 54  -21.0158 26019.2 -03477.4 -07.6124 26250.5
 30 08 2013  20 55  -21.0165 26019.2 -03477.6 -07.6127 26250.5
 30 08 2013  20 56  -21.0172 26019.3 -03477.7 -07.6130 26250.7
 30 08 2013  20 57  -21.0171 26019.1 -03477.7 -07.6131 26250.5
 30 08 2013  20 58  -21.0172 26018.9 -03477.7 -07.6131 26250.3
 30 08 2013  20 59  -21.0177 26019.1 -03477.8 -07.6133 26250.5
 30 08 2013  21 00  -21.0178 26019.2 -03478.0 -07.6136 26250.7
 30 08 2013  21 01  -21.0183 26019.3 -03478.1 -07.6138 26250.7
 30 08 2013  21 02  -21.0185 26019.5 -03478.3 -07.6142 26250.9
 30 08 2013  21 03  -21.0187 26019.6 -03478.4 -07.6144 26251.1
 30 08 2013  21 04  -21.0187 26019.8 -03478.5 -07.6146 26251.3
 30 08 2013  21 05  -21.0185 26020.1 -03478.7 -07.6148 26251.6
 30 08 2013  21 06  -21.0186 26020.0 -03478.7 -07.6148 26251.5
 30 08 2013  21 07  -21.0184 26019.7 -03478.6 -07.6147 26251.2
 30 08 2013  21 08  -21.0180 26019.5 -03478.5 -07.6147 26251.0
 30 08 2013  21 09  -21.0177 26019.5 -03478.6 -07.6147 26251.0
 30 08 2013  21 10  -21.0173 26019.7 -03478.7 -07.6149 26251.2
 30 08 2013  21 11  -21.0169 26019.8 -03478.8 -07.6151 26251.3
 30 08 2013  21 12  -21.0167 26019.9 -03478.8 -07.6152 26251.5
 30 08 2013  21 13  -21.0165 26020.2 -03479.0 -07.6154 26251.7
 30 08 2013  21 14  -21.0162 26020.4 -03479.1 -07.6157 26251.9
 30 08 2013  21 15  -21.0158 26020.7 -03479.3 -07.6159 26252.3
 30 08 2013  21 16  -21.0158 26020.7 -03479.3 -07.6159 26252.3
 30 08 2013  21 17  -21.0159 26020.5 -03479.2 -07.6158 26252.1
 30 08 2013  21 18  -21.0162 26020.2 -03479.0 -07.6155 26251.8
 30 08 2013  21 19  -21.0164 26020.1 -03478.9 -07.6153 26251.6
 30 08 2013  21 20  -21.0162 26020.0 -03478.9 -07.6154 26251.5
 30 08 2013  21 21  -21.0160 26019.9 -03478.9 -07.6154 26251.4
 30 08 2013  21 22  -21.0159 26019.7 -03478.9 -07.6154 26251.3
 30 08 2013  21 23  -21.0155 26019.9 -03479.0 -07.6156 26251.5
 30 08 2013  21 24  -21.0147 26020.1 -03479.1 -07.6158 26251.7
 30 08 2013  21 25  -21.0137 26020.4 -03479.3 -07.6161 26252.0
 30 08 2013  21 26  -21.0128 26020.4 -03479.3 -07.6161 26252.0
 30 08 2013  21 27  -21.0124 26020.3 -03479.3 -07.6161 26251.9
 30 08 2013  21 28  -21.0121 26020.1 -03479.3 -07.6161 26251.7
 30 08 2013  21 29  -21.0121 26019.9 -03479.3 -07.6163 26251.4
 30 08 2013  21 30  -21.0119 26019.7 -03479.3 -07.6163 26251.3
 30 08 2013  21 31  -21.0119 26019.8 -03479.4 -07.6165 26251.4
 30 08 2013  21 32  -21.0118 26019.9 -03479.5 -07.6166 26251.5
 30 08 2013  21 33  -21.0118 26020.0 -03479.6 -07.6168 26251.6
 30 08 2013  21 34  -21.0117 26020.0 -03479.6 -07.6168 26251.6
 30 08 2013  21 35  -21.0116 26020.1 -03479.7 -07.6170 26251.7
 30 08 2013  21 36  -21.0112 26020.2 -03479.7 -07.6171 26251.9
 30 08 2013  21 37  -21.0107 26020.3 -03479.8 -07.6171 26251.9
 30 08 2013  21 38  -21.0104 26020.2 -03479.7 -07.6170 26251.8
 30 08 2013  21 39  -21.0100 26019.8 -03479.6 -07.6168 26251.5
 30 08 2013  21 40  -21.0096 26019.5 -03479.5 -07.6167 26251.2
 30 08 2013  21 41  -21.0094 26019.2 -03479.4 -07.6167 26250.9
 30 08 2013  21 42  -21.0089 26018.9 -03479.3 -07.6165 26250.4
 30 08 2013  21 43  -21.0085 26018.4 -03479.1 -07.6163 26250.0
 30 08 2013  21 44  -21.0078 26018.2 -03479.1 -07.6163 26249.8
 30 08 2013  21 45  -21.0073 26018.3 -03479.2 -07.6164 26249.8
 30 08 2013  21 46  -21.0069 26018.2 -03479.3 -07.6167 26249.8
 30 08 2013  21 47  -21.0066 26018.5 -03479.5 -07.6170 26250.1
 30 08 2013  21 48  -21.0064 26018.8 -03479.7 -07.6175 26250.4
 30 08 2013  21 49  -21.0064 26018.7 -03479.8 -07.6177 26250.4
 30 08 2013  21 50  -21.0065 26019.0 -03480.0 -07.6180 26250.7
 30 08 2013  21 51  -21.0064 26019.3 -03480.3 -07.6185 26251.0
 30 08 2013  21 52  -21.0063 26019.3 -03480.3 -07.6186 26251.0
 30 08 2013  21 53  -21.0065 26019.0 -03480.2 -07.6184 26250.7
 30 08 2013  21 54  -21.0068 26018.9 -03480.2 -07.6184 26250.6
 30 08 2013  21 55  -21.0072 26018.9 -03480.3 -07.6186 26250.6
 30 08 2013  21 56  -21.0076 26018.8 -03480.2 -07.6186 26250.5
 30 08 2013  21 57  -21.0080 26018.4 -03480.1 -07.6184 26250.1
 30 08 2013  21 58  -21.0081 26018.4 -03480.1 -07.6184 26250.1
 30 08 2013  21 59  -21.0084 26018.3 -03480.1 -07.6184 26250.0
 30 08 2013  22 00  -21.0089 26018.0 -03480.0 -07.6182 26249.7
 30 08 2013  22 01  -21.0090 26018.0 -03480.0 -07.6183 26249.7
 30 08 2013  22 02  -21.0090 26017.8 -03479.9 -07.6182 26249.5
 30 08 2013  22 03  -21.0091 26017.1 -03479.6 -07.6176 26248.7
 30 08 2013  22 04  -21.0097 26016.1 -03479.2 -07.6170 26247.8
 30 08 2013  22 05  -21.0106 26015.3 -03478.8 -07.6166 26246.9
 30 08 2013  22 06  -21.0111 26014.6 -03478.6 -07.6162 26246.2
 30 08 2013  22 07  -21.0112 26014.3 -03478.4 -07.6160 26245.8
 30 08 2013  22 08  -21.0114 26014.0 -03478.4 -07.6159 26245.6
 30 08 2013  22 09  -21.0116 26013.9 -03478.4 -07.6160 26245.4
 30 08 2013  22 10  -21.0117 26013.8 -03478.4 -07.6161 26245.3
 30 08 2013  22 11  -21.0116 26013.9 -03478.5 -07.6162 26245.4
 30 08 2013  22 12  -21.0116 26014.0 -03478.6 -07.6164 26245.5
 30 08 2013  22 13  -21.0116 26013.8 -03478.6 -07.6165 26245.4
 30 08 2013  22 14  -21.0117 26013.6 -03478.5 -07.6164 26245.1
 30 08 2013  22 15  -21.0122 26013.3 -03478.5 -07.6164 26244.8
 30 08 2013  22 16  -21.0126 26013.1 -03478.5 -07.6164 26244.7
 30 08 2013  22 17  -21.0128 26013.1 -03478.5 -07.6165 26244.7
 30 08 2013  22 18  -21.0127 26013.5 -03478.8 -07.6169 26245.1
 30 08 2013  22 19  -21.0127 26013.9 -03479.0 -07.6174 26245.5
 30 08 2013  22 20  -21.0128 26013.9 -03479.1 -07.6175 26245.5
 30 08 2013  22 21  -21.0130 26014.0 -03479.1 -07.6176 26245.7
 30 08 2013  22 22  -21.0138 26014.1 -03479.2 -07.6177 26245.7
 30 08 2013  22 23  -21.0142 26013.9 -03479.2 -07.6176 26245.6
 30 08 2013  22 24  -21.0146 26013.6 -03479.0 -07.6175 26245.3
 30 08 2013  22 25  -21.0150 26013.2 -03478.8 -07.6171 26244.8
 30 08 2013  22 26  -21.0154 26012.8 -03478.6 -07.6167 26244.4
 30 08 2013  22 27  -21.0156 26012.5 -03478.4 -07.6165 26244.1
 30 08 2013  22 28  -21.0159 26012.4 -03478.4 -07.6164 26243.9
 30 08 2013  22 29  -21.0161 26012.4 -03478.4 -07.6165 26243.9
 30 08 2013  22 30  -21.0160 26012.2 -03478.3 -07.6163 26243.7
 30 08 2013  22 31  -21.0160 26012.2 -03478.3 -07.6162 26243.7
 30 08 2013  22 32  -21.0159 26012.3 -03478.4 -07.6164 26243.9
 30 08 2013  22 33  -21.0159 26012.2 -03478.4 -07.6164 26243.8
 30 08 2013  22 34  -21.0158 26011.9 -03478.2 -07.6163 26243.4
 30 08 2013  22 35  -21.0158 26011.8 -03478.2 -07.6161 26243.3
 30 08 2013  22 36  -21.0159 26011.6 -03478.1 -07.6161 26243.1
 30 08 2013  22 37  -21.0160 26011.4 -03478.0 -07.6160 26242.9
 30 08 2013  22 38  -21.0161 26011.1 -03477.9 -07.6158 26242.5
 30 08 2013  22 39  -21.0165 26010.9 -03477.9 -07.6158 26242.3
 30 08 2013  22 40  -21.0165 26010.6 -03477.9 -07.6158 26242.1
 30 08 2013  22 41  -21.0164 26010.2 -03477.7 -07.6155 26241.6
 30 08 2013  22 42  -21.0164 26009.8 -03477.5 -07.6153 26241.2
 30 08 2013  22 43  -21.0165 26009.4 -03477.4 -07.6152 26240.8
 30 08 2013  22 44  -21.0168 26008.8 -03477.2 -07.6149 26240.3
 30 08 2013  22 45  -21.0170 26008.3 -03477.0 -07.6146 26239.7
 30 08 2013  22 46  -21.0167 26007.9 -03476.8 -07.6143 26239.2
 30 08 2013  22 47  -21.0164 26008.0 -03477.0 -07.6146 26239.4
 30 08 2013  22 48  -21.0163 26008.5 -03477.4 -07.6154 26240.0
 30 08 2013  22 49  -21.0163 26008.8 -03477.6 -07.6158 26240.2
 30 08 2013  22 50  -21.0166 26008.5 -03477.6 -07.6159 26240.0
 30 08 2013  22 51  -21.0164 26008.1 -03477.4 -07.6156 26239.6
 30 08 2013  22 52  -21.0161 26008.1 -03477.4 -07.6155 26239.5
 30 08 2013  22 53  -21.0162 26007.8 -03477.3 -07.6155 26239.2
 30 08 2013  22 54  -21.0161 26007.5 -03477.3 -07.6154 26238.9
 30 08 2013  22 55  -21.0162 26007.3 -03477.2 -07.6153 26238.7
 30 08 2013  22 56  -21.0164 26007.0 -03477.2 -07.6153 26238.4
 30 08 2013  22 57  -21.0164 26006.3 -03476.9 -07.6150 26237.7
 30 08 2013  22 58  -21.0167 26005.7 -03476.7 -07.6146 26237.0
 30 08 2013  22 59  -21.0171 26005.0 -03476.5 -07.6144 26236.4
 30 08 2013  23 00  -21.0175 26004.6 -03476.4 -07.6143 26236.0
 30 08 2013  23 01  -21.0177 26004.1 -03476.3 -07.6142 26235.4
 30 08 2013  23 02  -21.0178 26003.5 -03476.1 -07.6139 26234.8
 30 08 2013  23 03  -21.0180 26002.9 -03475.9 -07.6137 26234.2
 30 08 2013  23 04  -21.0183 26002.4 -03475.7 -07.6135 26233.7
 30 08 2013  23 05  -21.0188 26002.0 -03475.7 -07.6136 26233.3
 30 08 2013  23 06  -21.0033 26009.1 -03455.0 -07.5667 26237.5
 30 08 2013  23 07  -21.0191 26001.8 -03475.8 -07.6139 26233.1
 30 08 2013  23 08  -21.0193 26001.9 -03476.0 -07.6143 26233.3
 30 08 2013  23 09  -21.0192 26002.0 -03476.2 -07.6147 26233.4
 30 08 2013  23 10  -21.0188 26002.0 -03476.3 -07.6148 26233.4
 30 08 2013  23 11  -21.0185 26002.0 -03476.2 -07.6148 26233.3
 30 08 2013  23 12  -21.0182 26002.2 -03476.4 -07.6151 26233.6
 30 08 2013  23 13  -21.0182 26002.0 -03476.4 -07.6151 26233.4
 30 08 2013  23 14  -21.0182 26001.6 -03476.3 -07.6150 26232.9
 30 08 2013  23 15  -21.0186 26000.9 -03476.1 -07.6147 26232.2
 30 08 2013  23 16  -21.0191 26000.3 -03475.9 -07.6145 26231.6
 30 08 2013  23 17  -21.0200 25999.4 -03475.6 -07.6141 26230.7
 30 08 2013  23 18  -21.0205 25998.4 -03475.2 -07.6135 26229.6
 30 08 2013  23 19  -21.0215 25997.6 -03474.9 -07.6132 26228.8
 30 08 2013  23 20  -21.0225 25996.5 -03474.6 -07.6127 26227.7
 30 08 2013  23 21  -21.0231 25995.5 -03474.1 -07.6121 26226.6
 30 08 2013  23 22  -21.0235 25994.4 -03473.7 -07.6115 26225.5
 30 08 2013  23 23  -21.0236 25993.8 -03473.5 -07.6112 26224.8
 30 08 2013  23 24  -21.0242 25993.3 -03473.5 -07.6113 26224.4
 30 08 2013  23 25  -21.0248 25993.0 -03473.5 -07.6114 26224.1
 30 08 2013  23 26  -21.0256 25992.7 -03473.5 -07.6115 26223.8
 30 08 2013  23 27  -21.0259 25992.4 -03473.5 -07.6116 26223.5
 30 08 2013  23 28  -21.0264 25991.9 -03473.4 -07.6115 26222.9
 30 08 2013  23 29  -21.0277 25991.5 -03473.3 -07.6116 26222.5
 30 08 2013  23 30  -21.0288 25990.8 -03473.1 -07.6113 26221.8
 30 08 2013  23 31  -21.0299 25989.6 -03472.7 -07.6107 26220.6
 30 08 2013  23 32  -21.0310 25988.9 -03472.5 -07.6104 26219.9
 30 08 2013  23 33  -21.0324 25988.4 -03472.3 -07.6103 26219.3
 30 08 2013  23 34  -21.0332 25987.9 -03472.3 -07.6103 26218.9
 30 08 2013  23 35  -21.0340 25987.9 -03472.3 -07.6103 26218.8
 30 08 2013  23 36  -21.0350 25988.0 -03472.4 -07.6106 26219.0
 30 08 2013  23 37  -21.0366 25988.3 -03472.7 -07.6111 26219.3
 30 08 2013  23 38  -21.0375 25988.6 -03473.0 -07.6116 26219.6
 30 08 2013  23 39  -21.0379 25988.8 -03473.1 -07.6118 26219.8
 30 08 2013  23 40  -21.0385 25989.1 -03473.2 -07.6120 26220.1
 30 08 2013  23 41  -21.0390 25989.2 -03473.3 -07.6122 26220.3
 30 08 2013  23 42  -21.0392 25989.4 -03473.4 -07.6123 26220.5
 30 08 2013  23 43  -21.0390 25990.0 -03473.7 -07.6127 26221.1
 30 08 2013  23 44  -21.0393 25990.8 -03474.1 -07.6134 26222.0
 30 08 2013  23 45  -21.0399 25991.4 -03474.4 -07.6139 26222.5
 30 08 2013  23 46  -21.0410 25991.1 -03474.4 -07.6139 26222.3
 30 08 2013  23 47  -21.0420 25990.5 -03474.1 -07.6135 26221.7
 30 08 2013  23 48  -21.0430 25990.0 -03473.8 -07.6129 26221.1
 30 08 2013  23 49  -21.0438 25989.4 -03473.4 -07.6124 26220.4
 30 08 2013  23 50  -21.0447 25988.9 -03473.2 -07.6120 26219.9
 30 08 2013  23 51  -21.0450 25988.4 -03473.0 -07.6116 26219.5
 30 08 2013  23 52  -21.0451 25988.5 -03473.0 -07.6117 26219.5
 30 08 2013  23 53  -21.0455 25988.5 -03473.0 -07.6118 26219.5
 30 08 2013  23 54  -21.0458 25988.4 -03473.1 -07.6119 26219.4
 30 08 2013  23 55  -21.0459 25988.1 -03473.0 -07.6118 26219.1
 30 08 2013  23 56  -21.0458 25987.8 -03472.9 -07.6116 26218.8
 30 08 2013  23 57  -21.0456 25987.4 -03472.7 -07.6114 26218.4
